CaCO3   Chi2:  2.2399  CELL:    4.98946   4.98946  17.06946   90.0000   90.0000  120.0000   SPGR: R -3 C                 TEMP:      0.00
  1   2992     1.54060     1.54439     0.00000    -0.05486     0.00000    0
   168     0     1
       0.00000      10.00000
 2Theta	Yobs	Ycal	Yobs-Ycal	Backg	Posr	(hkl)	K
     20.0165	  36.000	  38.491	-141.491	  36.933
     20.0499	  39.000	  38.425	-138.425	  36.866
     20.0834	  44.000	  38.360	-133.360	  36.798
     20.1168	  57.000	  38.294	-120.294	  36.731
     20.1502	  42.000	  38.229	-135.229	  36.663
     20.1836	  39.000	  38.164	-138.164	  36.596
     20.2170	  43.000	  38.100	-134.100	  36.529
     20.2505	  44.000	  38.035	-133.035	  36.462
     20.2839	  44.000	  37.971	-132.971	  36.395
     20.3173	  32.000	  37.907	-144.907	  36.328
     20.3507	  37.000	  37.843	-139.843	  36.262
     20.3842	  27.000	  37.779	-149.779	  36.195
     20.4176	  33.000	  37.715	-143.715	  36.129
     20.4510	  42.000	  37.652	-134.652	  36.062
     20.4844	  53.000	  37.589	-123.589	  35.996
     20.5179	  47.000	  37.526	-129.526	  35.930
     20.5513	  37.000	  37.464	-139.464	  35.864
     20.5847	  29.000	  37.401	-147.401	  35.798
     20.6181	  36.000	  37.339	-140.339	  35.732
     20.6515	  31.000	  37.277	-145.277	  35.666
     20.6850	  33.000	  37.216	-143.216	  35.601
     20.7184	  40.000	  37.155	-136.155	  35.535
     20.7518	  42.000	  37.094	-134.094	  35.470
     20.7852	  39.000	  37.033	-137.033	  35.404
     20.8187	  26.000	  36.973	-149.973	  35.339
     20.8521	  39.000	  36.913	-136.913	  35.274
     20.8855	  32.000	  36.853	-143.853	  35.209
     20.9189	  39.000	  36.794	-136.794	  35.144
     20.9523	  39.000	  36.735	-136.735	  35.079
     20.9858	  32.000	  36.676	-143.676	  35.015
     21.0192	  44.000	  36.618	-131.618	  34.950
     21.0526	  40.000	  36.561	-135.561	  34.886
     21.0860	  36.000	  36.503	-139.503	  34.821
     21.1195	  40.000	  36.447	-135.447	  34.757
     21.1529	  31.000	  36.390	-144.390	  34.693
     21.1863	  29.000	  36.335	-146.335	  34.629
     21.2197	  47.000	  36.280	-128.280	  34.565
     21.2531	  23.000	  36.225	-152.225	  34.501
     21.2866	  32.000	  36.171	-143.171	  34.437
     21.3200	  30.000	  36.118	-145.118	  34.374
     21.3534	  37.000	  36.066	-138.066	  34.310
     21.3868	  32.000	  36.014	-143.014	  34.247
     21.4203	  37.000	  35.963	-137.963	  34.183
     21.4537	  29.000	  35.913	-145.913	  34.120
     21.4871	  33.000	  35.864	-141.864	  34.057
     21.5205	  29.000	  35.816	-145.816	  33.994
     21.5539	  46.000	  35.770	-128.770	  33.931
     21.5874	  41.000	  35.724	-133.724	  33.868
     21.6208	  39.000	  35.680	-135.680	  33.806
     21.6542	  35.000	  35.637	-139.637	  33.743
     21.6876	  39.000	  35.596	-135.596	  33.680
     21.7211	  24.000	  35.556	-150.556	  33.618
     21.7545	  35.000	  35.519	-139.519	  33.556
     21.7879	  28.000	  35.484	-146.484	  33.494
     21.8213	  41.000	  35.450	-133.450	  33.431
     21.8548	  39.000	  35.420	-135.420	  33.369
     21.8882	  22.000	  35.392	-152.392	  33.308
     21.9216	  44.000	  35.368	-130.368	  33.246
     21.9550	  47.000	  35.347	-127.347	  33.184
     21.9884	  43.000	  35.330	-131.330	  33.123
     22.0219	  41.000	  35.318	-133.318	  33.061
     22.0553	  37.000	  35.311	-137.311	  33.000
     22.0887	  32.000	  35.310	-142.310	  32.938
     22.1221	  42.000	  35.315	-132.315	  32.877
     22.1556	  39.000	  35.328	-135.328	  32.816
     22.1890	  30.000	  35.526	-144.526	  32.755
     22.2224	  39.000	  35.560	-135.560	  32.694
     22.2558	  39.000	  35.694	-135.694	  32.633
     22.2892	  39.000	  35.754	-135.754	  32.573
     22.3227	  35.000	  35.831	-139.831	  32.512
     22.3561	  39.000	  35.928	-135.928	  32.452
     22.3895	  32.000	  36.049	-143.049	  32.391
     22.4229	  32.000	  36.198	-143.198	  32.331
     22.4564	  41.000	  36.382	-134.382	  32.271
     22.4898	  37.000	  36.610	-138.610	  32.211
     22.5232	  50.000	  36.892	-125.892	  32.151
     22.5566	  42.000	  37.244	-134.244	  32.091
     22.5900	  54.000	  37.688	-122.688	  32.031
     22.6235	  32.000	  38.253	-145.253	  31.971
     22.6569	  36.000	  38.981	-141.981	  31.912
     22.6903	  40.000	  39.926	-138.926	  31.852
     22.7237	  49.000	  41.159	-131.159	  31.793
     22.7572	  37.000	  42.766	-144.766	  31.734
     22.7906	  48.000	  44.846	-135.846	  31.675
     22.8240	  50.000	  47.498	-136.498	  31.615
     22.8574	  42.000	  50.788	-147.788	  31.556
     22.8909	  53.000	  54.681	-140.681	  31.498
     22.9243	  66.000	  58.909	-131.909	  31.439
     22.9577	  59.000	  62.832	-142.832	  31.380
     22.9911	  61.000	  65.488	-143.488	  31.322
     23.0245	  69.000	  66.040	-136.040	  31.263
     23.0580	  60.000	  64.321	-143.321	  31.205
     23.0914	  58.000	  60.904	-141.904	  31.146
     23.1248	  55.000	  56.701	-140.701	  31.088
     23.1582	  47.000	  52.502	-144.502	  31.030
     23.1917	  49.000	  48.764	-138.764	  30.972
     23.2251	  46.000	  45.645	-138.645	  30.914
     23.2585	  40.000	  43.137	-142.137	  30.856
     23.2919	  43.000	  41.156	-137.156	  30.799
     23.3253	  37.000	  39.605	-141.605	  30.741
     23.3588	  34.000	  38.390	-143.390	  30.683
     23.3922	  44.000	  37.431	-132.431	  30.626
     23.4256	  32.000	  36.665	-143.665	  30.569
     23.4590	  42.000	  36.044	-133.044	  30.511
     23.4925	  33.000	  35.530	-141.530	  30.454
     23.5259	  41.000	  35.099	-133.099	  30.397
     23.5593	  39.000	  34.731	-134.731	  30.340
     23.5927	  24.000	  34.413	-149.413	  30.284
     23.6261	  33.000	  34.135	-140.135	  30.227
     23.6596	  32.000	  33.888	-140.888	  30.170
     23.6930	  29.000	  33.668	-143.668	  30.114
     23.7264	  31.000	  33.471	-141.471	  30.057
     23.7598	  39.000	  33.291	-133.291	  30.001
     23.7933	  30.000	  33.127	-142.127	  29.945
     23.8267	  34.000	  32.977	-137.977	  29.888
     23.8601	  27.000	  32.837	-144.837	  29.832
     23.8935	  35.000	  32.708	-136.708	  29.776
     23.9269	  42.000	  32.586	-129.586	  29.720
     23.9604	  21.000	  32.472	-150.472	  29.665
     23.9938	  34.000	  32.368	-137.368	  29.609
     24.0272	  28.000	  32.266	-143.266	  29.553
     24.0606	  37.000	  32.171	-134.171	  29.498
     24.0941	  33.000	  32.079	-138.079	  29.442
     24.1275	  21.000	  31.990	-149.990	  29.387
     24.1609	  33.000	  31.906	-137.906	  29.332
     24.1943	  26.000	  31.824	-144.824	  29.277
     24.2278	  30.000	  31.745	-140.745	  29.222
     24.2612	  28.000	  31.669	-142.669	  29.167
     24.2946	  28.000	  31.595	-142.595	  29.112
     24.3280	  34.000	  31.523	-136.523	  29.057
     24.3614	  21.000	  31.453	-149.453	  29.003
     24.3949	  36.000	  31.385	-134.385	  28.948
     24.4283	  28.000	  31.319	-142.319	  28.894
     24.4617	  39.000	  31.254	-131.254	  28.839
     24.4951	  22.000	  31.191	-148.191	  28.785
     24.5286	  29.000	  31.129	-141.129	  28.731
     24.5620	  22.000	  31.068	-148.068	  28.677
     24.5954	  37.000	  31.009	-133.009	  28.623
     24.6288	  29.000	  30.950	-140.950	  28.569
     24.6622	  30.000	  30.893	-139.893	  28.515
     24.6957	  26.000	  30.837	-143.837	  28.461
     24.7291	  29.000	  30.781	-140.781	  28.408
     24.7625	  37.000	  30.727	-132.727	  28.354
     24.7959	  27.000	  30.673	-142.673	  28.301
     24.8294	  24.000	  30.620	-145.620	  28.247
     24.8628	  24.000	  30.568	-145.568	  28.194
     24.8962	  43.000	  30.517	-126.517	  28.141
     24.9296	  23.000	  30.466	-146.466	  28.088
     24.9630	  24.000	  30.416	-145.416	  28.035
     24.9965	  20.000	  30.367	-149.367	  27.982
     25.0299	  29.000	  30.319	-140.319	  27.929
     25.0633	  28.000	  30.271	-141.271	  27.876
     25.0967	  22.000	  30.224	-147.224	  27.824
     25.1302	  39.000	  30.177	-130.177	  27.771
     25.1636	  31.000	  30.132	-138.132	  27.719
     25.1970	  32.000	  30.086	-137.086	  27.667
     25.2304	  34.000	  30.042	-135.042	  27.614
     25.2639	  36.000	  29.998	-132.998	  27.562
     25.2973	  33.000	  29.955	-135.955	  27.510
     25.3307	  21.000	  29.912	-147.912	  27.458
     25.3641	  27.000	  29.870	-141.870	  27.406
     25.3975	  29.000	  29.828	-139.828	  27.354
     25.4310	  29.000	  29.787	-139.787	  27.303
     25.4644	  22.000	  29.747	-146.747	  27.251
     25.4978	  28.000	  29.707	-140.707	  27.200
     25.5312	  33.000	  29.668	-135.668	  27.148
     25.5647	  35.000	  29.630	-133.630	  27.097
     25.5981	  23.000	  29.592	-145.592	  27.046
     25.6315	  26.000	  29.555	-142.555	  26.994
     25.6649	  34.000	  29.519	-134.519	  26.943
     25.6983	  30.000	  29.483	-138.483	  26.892
     25.7318	  32.000	  29.448	-136.448	  26.842
     25.7652	  36.000	  29.414	-132.414	  26.791
     25.7986	  27.000	  29.380	-141.380	  26.740
     25.8320	  24.000	  29.348	-144.348	  26.689
     25.8655	  26.000	  29.316	-142.316	  26.639
     25.8989	  40.000	  29.284	-128.284	  26.589
     25.9323	  35.000	  29.254	-133.254	  26.538
     25.9657	  24.000	  29.224	-144.224	  26.488
     25.9991	  33.000	  29.195	-135.195	  26.438
     26.0326	  35.000	  29.167	-133.167	  26.388
     26.0660	  31.000	  29.140	-137.140	  26.338
     26.0994	  43.000	  29.114	-125.114	  26.288
     26.1328	  37.000	  29.088	-131.088	  26.238
     26.1663	  27.000	  29.064	-141.064	  26.188
     26.1997	  28.000	  29.041	-140.041	  26.139
     26.2331	  32.000	  29.019	-136.019	  26.089
     26.2665	  30.000	  28.997	-137.997	  26.040
     26.2999	  34.000	  28.977	-133.977	  25.990
     26.3334	  28.000	  28.958	-139.958	  25.941
     26.3668	  26.000	  28.941	-141.941	  25.892
     26.4002	  28.000	  28.924	-139.924	  25.843
     26.4336	  26.000	  28.909	-141.909	  25.794
     26.4671	  28.000	  28.895	-139.895	  25.745
     26.5005	  23.000	  28.883	-144.883	  25.696
     26.5339	  34.000	  28.872	-133.872	  25.647
     26.5673	  39.000	  28.862	-128.862	  25.598
     26.6008	  34.000	  28.854	-133.854	  25.550
     26.6342	  21.000	  28.848	-146.848	  25.501
     26.6676	  22.000	  28.843	-145.843	  25.453
     26.7010	  35.000	  28.841	-132.841	  25.405
     26.7344	  36.000	  28.840	-131.840	  25.356
     26.7679	  33.000	  28.841	-134.841	  25.308
     26.8013	  32.000	  28.844	-135.844	  25.260
     26.8347	  29.000	  28.850	-138.850	  25.212
     26.8681	  40.000	  28.857	-127.857	  25.164
     26.9016	  41.000	  28.868	-126.868	  25.117
     26.9350	  27.000	  28.880	-140.880	  25.069
     26.9684	  33.000	  28.896	-134.896	  25.021
     27.0018	  39.000	  28.914	-128.914	  24.974
     27.0352	  30.000	  28.935	-137.935	  24.926
     27.0687	  31.000	  28.959	-136.959	  24.879
     27.1021	  33.000	  28.987	-134.987	  24.832
     27.1355	  36.000	  29.018	-132.018	  24.784
     27.1689	  34.000	  29.052	-134.052	  24.737
     27.2024	  24.000	  29.091	-144.091	  24.690
     27.2358	  36.000	  29.134	-132.134	  24.643
     27.2692	  31.000	  29.181	-137.181	  24.597
     27.3026	  29.000	  29.233	-139.233	  24.550
     27.3360	  37.000	  29.290	-131.290	  24.503
     27.3695	  39.000	  29.353	-129.353	  24.456
     27.4029	  37.000	  29.421	-131.421	  24.410
     27.4363	  18.000	  29.495	-150.495	  24.364
     27.4697	  32.000	  29.575	-136.575	  24.317
     27.5032	  31.000	  29.663	-137.663	  24.271
     27.5366	  33.000	  29.758	-135.758	  24.225
     27.5700	  36.000	  29.861	-132.861	  24.179
     27.6034	  27.000	  29.972	-141.972	  24.133
     27.6369	  26.000	  30.093	-143.093	  24.087
     27.6703	  31.000	  30.224	-138.224	  24.041
     27.7037	  26.000	  30.365	-143.365	  23.995
     27.7371	  32.000	  30.519	-137.519	  23.949
     27.7705	  33.000	  30.684	-136.684	  23.904
     27.8040	  28.000	  30.863	-141.863	  23.858
     27.8374	  24.000	  31.057	-146.057	  23.813
     27.8708	  34.000	  31.268	-136.268	  23.768
     27.9042	  29.000	  31.495	-141.495	  23.722
     27.9377	  26.000	  31.742	-144.742	  23.677
     27.9711	  35.000	  32.010	-136.010	  23.632
     28.0045	  36.000	  32.300	-135.300	  23.587
     28.0379	  33.000	  32.641	-138.641	  23.542
     28.0713	  35.000	  32.985	-136.985	  23.497
     28.1048	  29.000	  33.371	-143.371	  23.453
     28.1382	  39.000	  33.780	-133.780	  23.408
     28.1716	  37.000	  34.226	-136.226	  23.363
     28.2050	  39.000	  34.715	-134.715	  23.319
     28.2385	  31.000	  35.250	-143.250	  23.275
     28.2719	  31.000	  35.838	-143.837	  23.230
     28.3053	  35.000	  36.484	-140.484	  23.186
     28.3387	  31.000	  37.196	-145.196	  23.142
     28.3721	  32.000	  37.984	-144.984	  23.098
     28.4056	  36.000	  38.856	-141.856	  23.054
     28.4390	  52.000	  39.825	-126.825	  23.010
     28.4724	  52.000	  40.905	-127.905	  22.966
     28.5058	  42.000	  42.112	-139.112	  22.922
     28.5393	  39.000	  43.465	-143.465	  22.878
     28.5727	  48.000	  44.989	-135.989	  22.835
     28.6061	  44.000	  46.710	-141.710	  22.791
     28.6395	  57.000	  48.665	-130.665	  22.748
     28.6729	  60.000	  50.894	-129.894	  22.705
     28.7064	  50.000	  53.450	-142.450	  22.661
     28.7398	  57.000	  56.398	-138.398	  22.618
     28.7732	  69.000	  59.823	-129.823	  22.575
     28.8066	  49.000	  63.832	-153.832	  22.532
     28.8401	  70.000	  68.568	-137.568	  22.489
     28.8735	  80.000	  74.223	-133.223	  22.446
     28.9069	  75.000	  81.048	-145.048	  22.403
     28.9403	  78.000	  89.384	-150.384	  22.361
     28.9738	 104.000	  99.677	-134.677	  22.318
     29.0072	 108.000	 112.502	-143.502	  22.275
     29.0406	  99.000	 128.577	-168.577	  22.233
     29.0740	 131.000	 148.774	-156.774	  22.191
     29.1074	 156.000	 174.076	-157.076	  22.148
     29.1409	 167.000	 205.503	-177.503	  22.106
     29.1743	 192.000	 243.852	-190.852	  22.064
     29.2077	 246.000	 289.207	-182.207	  22.022
     29.2411	 279.000	 339.944	-199.944	  21.980
     29.2746	 379.000	 391.491	-151.491	  21.938
     29.3080	 503.000	 435.705	 -71.705	  21.896
     29.3414	 556.000	 462.867	 -45.867	  21.854
     29.3748	 474.000	 466.274	-131.274	  21.813
     29.4082	 445.000	 445.722	-139.722	  21.771
     29.4417	 406.000	 406.838	-139.838	  21.730
     29.4751	 288.000	 358.025	-209.025	  21.688
     29.5085	 244.000	 307.281	-202.281	  21.647
     29.5419	 199.000	 260.152	-200.152	  21.606
     29.5754	 190.000	 219.279	-168.279	  21.564
     29.6088	 176.000	 185.274	-148.274	  21.523
     29.6422	 136.000	 157.642	-160.642	  21.482
     29.6756	 124.000	 135.473	-150.473	  21.441
     29.7090	 129.000	 117.781	-127.781	  21.400
     29.7425	  94.000	 103.658	-148.658	  21.360
     29.7759	  80.000	  92.332	-151.332	  21.319
     29.8093	  99.000	  83.178	-123.178	  21.278
     29.8427	  88.000	  75.700	-126.700	  21.238
     29.8762	  80.000	  69.523	-128.523	  21.197
     29.9096	  55.000	  64.359	-148.359	  21.157
     29.9430	  67.000	  59.996	-131.996	  21.116
     29.9764	  60.000	  56.273	-135.273	  21.076
     30.0098	  67.000	  53.067	-125.067	  21.036
     30.0433	  64.000	  50.286	-125.286	  20.996
     30.0767	  71.000	  47.858	-115.858	  20.956
     30.1101	  43.000	  45.725	-141.725	  20.916
     30.1435	  54.000	  43.841	-128.841	  20.876
     30.1770	  57.000	  42.170	-124.170	  20.836
     30.2104	  48.000	  40.679	-131.679	  20.797
     30.2438	  44.000	  39.346	-134.346	  20.757
     30.2772	  58.000	  38.147	-119.147	  20.717
     30.3107	  50.000	  37.067	-126.067	  20.678
     30.3441	  46.000	  36.090	-129.090	  20.639
     30.3775	  31.000	  35.203	-143.203	  20.599
     30.4109	  33.000	  34.397	-140.397	  20.560
     30.4443	  37.000	  33.662	-135.662	  20.521
     30.4778	  41.000	  32.991	-130.991	  20.482
     30.5112	  33.000	  32.377	-138.377	  20.443
     30.5446	  33.000	  31.814	-137.814	  20.404
     30.5780	  36.000	  31.298	-134.298	  20.365
     30.6115	  34.000	  30.825	-135.825	  20.326
     30.6449	  33.000	  30.391	-136.391	  20.287
     30.6783	  44.000	  29.994	-124.994	  20.249
     30.7117	  29.000	  29.632	-139.632	  20.210
     30.7451	  39.000	  29.303	-129.303	  20.172
     30.7786	  31.000	  29.006	-137.006	  20.133
     30.8120	  28.000	  28.740	-139.740	  20.095
     30.8454	  36.000	  28.507	-131.507	  20.057
     30.8788	  23.000	  28.307	-144.307	  20.018
     30.9123	  32.000	  28.144	-135.144	  19.980
     30.9457	  23.000	  28.020	-144.020	  19.942
     30.9791	  42.000	  27.942	-124.942	  19.904
     31.0125	  30.000	  27.918	-136.918	  19.866
     31.0459	  28.000	  27.982	-138.982	  19.829
     31.0794	  40.000	  28.100	-127.100	  19.791
     31.1128	  35.000	  28.309	-132.309	  19.753
     31.1462	  31.000	  28.639	-136.639	  19.716
     31.1796	  27.000	  29.081	-141.081	  19.678
     31.2131	  36.000	  29.656	-132.656	  19.641
     31.2465	  35.000	  30.352	-134.352	  19.603
     31.2799	  40.000	  31.120	-130.120	  19.566
     31.3133	  30.000	  31.855	-140.855	  19.529
     31.3468	  49.000	  32.400	-122.400	  19.492
     31.3802	  34.000	  32.601	-137.601	  19.454
     31.4136	  36.000	  32.383	-135.383	  19.417
     31.4470	  30.000	  31.776	-140.776	  19.381
     31.4804	  34.000	  30.893	-135.893	  19.344
     31.5139	  24.000	  29.875	-144.875	  19.307
     31.5473	  34.000	  28.849	-133.849	  19.270
     31.5807	  29.000	  27.899	-137.899	  19.234
     31.6141	  26.000	  27.065	-140.065	  19.197
     31.6476	  29.000	  26.353	-136.353	  19.160
     31.6810	  20.000	  25.754	-144.754	  19.124
     31.7144	  22.000	  25.253	-142.253	  19.088
     31.7478	  35.000	  24.833	-128.833	  19.051
     31.7812	  16.000	  24.478	-147.478	  19.015
     31.8147	  22.000	  24.175	-141.175	  18.979
     31.8481	  33.000	  23.914	-129.914	  18.943
     31.8815	  32.000	  23.685	-130.685	  18.907
     31.9149	  29.000	  23.482	-133.482	  18.871
     31.9484	  27.000	  23.300	-135.300	  18.835
     31.9818	  30.000	  23.135	-132.135	  18.800
     32.0152	  24.000	  22.983	-137.983	  18.764
     32.0486	  24.000	  22.843	-137.843	  18.728
     32.0820	  20.000	  22.713	-141.713	  18.693
     32.1155	  23.000	  22.591	-138.591	  18.657
     32.1489	  24.000	  22.477	-137.477	  18.622
     32.1823	  23.000	  22.368	-138.368	  18.587
     32.2157	  20.000	  22.266	-141.266	  18.551
     32.2492	  22.000	  22.168	-139.168	  18.516
     32.2826	  27.000	  22.074	-134.074	  18.481
     32.3160	  24.000	  21.985	-136.985	  18.446
     32.3494	  21.000	  21.899	-139.899	  18.411
     32.3829	  17.000	  21.816	-143.816	  18.376
     32.4163	  30.000	  21.737	-130.737	  18.341
     32.4497	  21.000	  21.660	-139.660	  18.306
     32.4831	  20.000	  21.585	-140.585	  18.272
     32.5165	  30.000	  21.513	-130.513	  18.237
     32.5500	  17.000	  21.443	-143.443	  18.203
     32.5834	  24.000	  21.375	-136.375	  18.168
     32.6168	  24.000	  21.308	-136.308	  18.134
     32.6502	  14.000	  21.244	-146.244	  18.099
     32.6837	  23.000	  21.181	-137.181	  18.065
     32.7171	  20.000	  21.120	-140.120	  18.031
     32.7505	  17.000	  21.060	-143.060	  17.997
     32.7839	  19.000	  21.002	-141.002	  17.963
     32.8173	  15.000	  20.945	-144.945	  17.929
     32.8508	  28.000	  20.889	-131.889	  17.895
     32.8842	  24.000	  20.834	-135.834	  17.861
     32.9176	  23.000	  20.781	-136.781	  17.827
     32.9510	  21.000	  20.729	-138.729	  17.793
     32.9845	  20.000	  20.678	-139.678	  17.760
     33.0179	  22.000	  20.628	-137.628	  17.726
     33.0513	  33.000	  20.579	-126.579	  17.693
     33.0847	  28.000	  20.531	-131.531	  17.659
     33.1181	  17.000	  20.484	-142.484	  17.626
     33.1516	  11.000	  20.438	-148.438	  17.593
     33.1850	  23.000	  20.393	-136.393	  17.559
     33.2184	  22.000	  20.348	-137.348	  17.526
     33.2518	  17.000	  20.305	-142.305	  17.493
     33.2853	  20.000	  20.263	-139.263	  17.460
     33.3187	  22.000	  20.221	-137.221	  17.427
     33.3521	  21.000	  20.181	-138.181	  17.394
     33.3855	  17.000	  20.141	-142.141	  17.362
     33.4189	  27.000	  20.102	-132.102	  17.329
     33.4524	  26.000	  20.064	-133.064	  17.296
     33.4858	  14.000	  20.027	-145.027	  17.263
     33.5192	  18.000	  19.991	-140.991	  17.231
     33.5526	  19.000	  19.956	-139.956	  17.198
     33.5861	  24.000	  19.921	-134.921	  17.166
     33.6195	  19.000	  19.888	-139.888	  17.134
     33.6529	  29.000	  19.855	-129.855	  17.101
     33.6863	  22.000	  19.824	-136.824	  17.069
     33.7198	  17.000	  19.793	-141.793	  17.037
     33.7532	  11.000	  19.764	-147.764	  17.005
     33.7866	  16.000	  19.735	-142.735	  16.973
     33.8200	  24.000	  19.707	-134.707	  16.941
     33.8534	  11.000	  19.681	-147.681	  16.909
     33.8869	  17.000	  19.656	-141.656	  16.877
     33.9203	  17.000	  19.631	-141.631	  16.846
     33.9537	  14.000	  19.608	-144.608	  16.814
     33.9871	  21.000	  19.587	-137.587	  16.782
     34.0206	  20.000	  19.566	-138.566	  16.751
     34.0540	  17.000	  19.547	-141.547	  16.719
     34.0874	  18.000	  19.529	-140.529	  16.688
     34.1208	  20.000	  19.513	-138.513	  16.657
     34.1542	  20.000	  19.499	-138.499	  16.625
     34.1877	  22.000	  19.486	-136.486	  16.594
     34.2211	  16.000	  19.475	-142.475	  16.563
     34.2545	  21.000	  19.466	-137.466	  16.532
     34.2879	  20.000	  19.459	-138.459	  16.501
     34.3214	  21.000	  19.454	-137.454	  16.470
     34.3548	  26.000	  19.472	-132.472	  16.439
     34.3882	  21.000	  19.472	-137.472	  16.408
     34.4216	  24.000	  19.475	-134.475	  16.378
     34.4550	  19.000	  19.491	-139.491	  16.347
     34.4885	  21.000	  19.500	-137.500	  16.316
     34.5219	  22.000	  19.512	-136.512	  16.286
     34.5553	  22.000	  19.528	-136.528	  16.255
     34.5887	  18.000	  19.548	-140.548	  16.225
     34.6222	  28.000	  19.572	-130.572	  16.195
     34.6556	  18.000	  19.601	-140.601	  16.164
     34.6890	  37.000	  19.635	-121.635	  16.134
     34.7224	  24.000	  19.676	-134.676	  16.104
     34.7559	  24.000	  19.722	-134.722	  16.074
     34.7893	  23.000	  19.776	-135.776	  16.044
     34.8227	  19.000	  19.837	-139.837	  16.014
     34.8561	  29.000	  19.908	-129.908	  15.984
     34.8895	  24.000	  19.988	-134.988	  15.954
     34.9230	  21.000	  20.079	-138.079	  15.925
     34.9564	  16.000	  20.183	-143.183	  15.895
     34.9898	  26.000	  20.300	-133.300	  15.865
     35.0232	  22.000	  20.434	-137.434	  15.836
     35.0567	  20.000	  20.586	-139.586	  15.806
     35.0901	  17.000	  20.759	-142.759	  15.777
     35.1235	  29.000	  20.955	-130.956	  15.747
     35.1569	  26.000	  21.180	-134.180	  15.718
     35.1903	  24.000	  21.437	-136.437	  15.689
     35.2238	  21.000	  21.732	-139.732	  15.660
     35.2572	  23.000	  22.071	-138.071	  15.630
     35.2906	  29.000	  22.463	-132.463	  15.601
     35.3240	  18.000	  22.920	-143.920	  15.572
     35.3575	  17.000	  23.453	-145.453	  15.543
     35.3909	  22.000	  24.081	-141.081	  15.515
     35.4243	  23.000	  24.827	-140.827	  15.486
     35.4577	  27.000	  25.719	-137.719	  15.457
     35.4911	  27.000	  26.795	-138.795	  15.428
     35.5246	  27.000	  28.103	-140.103	  15.400
     35.5580	  24.000	  29.702	-144.702	  15.371
     35.5914	  34.000	  31.666	-136.666	  15.343
     35.6248	  31.000	  34.080	-142.081	  15.314
     35.6583	  24.000	  37.044	-152.044	  15.286
     35.6917	  23.000	  40.659	-156.659	  15.258
     35.7251	  42.000	  45.014	-142.014	  15.229
     35.7585	  32.000	  50.147	-157.147	  15.201
     35.7920	  34.000	  55.976	-160.976	  15.173
     35.8254	  39.000	  62.192	-162.192	  15.145
     35.8588	  52.000	  68.177	-155.177	  15.117
     35.8922	  60.000	  73.026	-152.026	  15.089
     35.9256	  55.000	  75.828	-159.828	  15.061
     35.9591	  54.000	  76.055	-161.055	  15.033
     35.9925	  54.000	  73.757	-158.757	  15.006
     36.0259	  46.000	  69.448	-162.448	  14.978
     36.0593	  42.000	  63.872	-160.872	  14.950
     36.0928	  31.000	  57.809	-165.809	  14.923
     36.1262	  34.000	  51.891	-156.891	  14.895
     36.1596	  40.000	  46.518	-145.518	  14.868
     36.1930	  36.000	  41.862	-144.862	  14.841
     36.2264	  30.000	  37.939	-146.939	  14.813
     36.2599	  31.000	  34.690	-142.690	  14.786
     36.2933	  18.000	  32.023	-153.023	  14.759
     36.3267	  23.000	  29.841	-145.841	  14.732
     36.3601	  28.000	  28.053	-139.053	  14.705
     36.3936	  24.000	  26.583	-141.583	  14.678
     36.4270	  29.000	  25.368	-135.368	  14.651
     36.4604	  23.000	  24.353	-140.353	  14.624
     36.4938	  22.000	  23.500	-140.500	  14.597
     36.5272	  23.000	  22.600	-138.600	  14.570
     36.5607	  22.000	  21.980	-138.980	  14.543
     36.5941	  23.000	  21.445	-137.445	  14.517
     36.6275	  21.000	  20.892	-138.892	  14.490
     36.6609	  22.000	  20.483	-137.483	  14.464
     36.6944	  33.000	  20.123	-126.123	  14.437
     36.7278	  27.000	  19.803	-131.803	  14.411
     36.7612	  21.000	  19.517	-137.517	  14.384
     36.7946	  24.000	  19.262	-134.262	  14.358
     36.8280	  14.000	  19.032	-144.032	  14.332
     36.8615	  10.000	  18.824	-147.824	  14.306
     36.8949	  21.000	  18.636	-136.636	  14.280
     36.9283	  24.000	  18.465	-133.465	  14.254
     36.9617	  11.000	  18.309	-146.309	  14.228
     36.9952	  22.000	  18.166	-135.166	  14.202
     37.0286	  20.000	  18.036	-137.036	  14.176
     37.0620	  21.000	  17.915	-135.915	  14.150
     37.0954	  27.000	  17.805	-129.805	  14.124
     37.1289	  19.000	  17.703	-137.703	  14.099
     37.1623	  17.000	  17.609	-139.609	  14.073
     37.1957	  20.000	  17.523	-136.523	  14.047
     37.2291	  18.000	  17.443	-138.443	  14.022
     37.2625	  18.000	  17.368	-138.368	  13.996
     37.2960	  23.000	  17.300	-133.300	  13.971
     37.3294	  26.000	  17.237	-130.237	  13.946
     37.3628	  14.000	  17.178	-142.178	  13.920
     37.3962	  15.000	  17.125	-141.125	  13.895
     37.4297	  11.000	  17.075	-145.075	  13.870
     37.4631	  20.000	  17.030	-136.030	  13.845
     37.4965	  18.000	  16.989	-137.989	  13.820
     37.5299	  23.000	  16.952	-132.952	  13.795
     37.5633	  14.000	  16.918	-141.918	  13.770
     37.5968	  17.000	  16.888	-138.888	  13.745
     37.6302	  14.000	  16.862	-141.862	  13.720
     37.6636	  14.000	  16.839	-141.839	  13.695
     37.6970	  18.000	  16.820	-137.820	  13.671
     37.7305	  18.000	  16.804	-137.804	  13.646
     37.7639	  20.000	  16.792	-135.792	  13.621
     37.7973	  21.000	  16.792	-134.792	  13.597
     37.8307	  14.000	  16.788	-141.788	  13.572
     37.8641	   9.000	  16.787	-146.787	  13.548
     37.8976	  17.000	  16.795	-138.795	  13.524
     37.9310	  24.000	  16.803	-131.803	  13.499
     37.9644	  16.000	  16.816	-139.816	  13.475
     37.9978	  13.000	  16.833	-142.833	  13.451
     38.0313	  17.000	  16.856	-138.856	  13.427
     38.0647	  14.000	  16.884	-141.884	  13.403
     38.0981	  15.000	  16.918	-140.918	  13.379
     38.1315	  18.000	  16.985	-137.985	  13.355
     38.1649	  19.000	  17.033	-137.033	  13.331
     38.1984	  18.000	  17.088	-138.088	  13.307
     38.2318	  15.000	  17.165	-141.165	  13.283
     38.2652	  17.000	  17.238	-139.238	  13.259
     38.2986	  20.000	  17.321	-136.321	  13.236
     38.3321	  22.000	  17.416	-134.416	  13.212
     38.3655	  21.000	  17.523	-135.523	  13.188
     38.3989	  13.000	  17.645	-143.645	  13.165
     38.4323	  22.000	  17.782	-134.782	  13.141
     38.4658	  14.000	  17.937	-142.937	  13.118
     38.4992	  18.000	  18.114	-139.114	  13.095
     38.5326	  14.000	  18.313	-143.313	  13.071
     38.5660	  21.000	  18.540	-136.540	  13.048
     38.5994	  31.000	  18.798	-126.798	  13.025
     38.6329	  16.000	  19.092	-142.092	  13.002
     38.6663	  27.000	  19.429	-131.429	  12.979
     38.6997	  17.000	  19.816	-141.816	  12.956
     38.7331	  22.000	  20.262	-137.262	  12.933
     38.7666	  17.000	  20.777	-142.777	  12.910
     38.8000	  24.000	  21.382	-136.382	  12.887
     38.8334	  18.000	  22.093	-143.093	  12.864
     38.8668	  19.000	  22.932	-142.932	  12.841
     38.9002	  29.000	  23.936	-133.936	  12.819
     38.9337	  21.000	  25.140	-143.140	  12.796
     38.9671	  28.000	  26.594	-137.594	  12.774
     39.0005	  21.000	  28.383	-146.383	  12.751
     39.0339	  33.000	  30.527	-136.527	  12.729
     39.0674	  19.000	  33.133	-153.133	  12.706
     39.1008	  39.000	  36.301	-136.301	  12.684
     39.1342	  36.000	  40.091	-143.091	  12.661
     39.1676	  44.000	  44.577	-139.577	  12.639
     39.2010	  36.000	  49.754	-152.754	  12.617
     39.2345	  36.000	  55.481	-158.481	  12.595
     39.2679	  58.000	  61.403	-142.403	  12.573
     39.3013	  56.000	  66.892	-149.892	  12.551
     39.3347	  68.000	  71.140	-142.140	  12.529
     39.3682	  64.000	  73.413	-148.413	  12.507
     39.4016	  67.000	  73.359	-145.359	  12.485
     39.4350	  61.000	  71.088	-149.088	  12.463
     39.4684	  46.000	  67.047	-160.047	  12.441
     39.5019	  45.000	  61.851	-155.851	  12.420
     39.5353	  42.000	  56.144	-153.144	  12.398
     39.5687	  36.000	  50.489	-153.489	  12.376
     39.6021	  28.000	  45.259	-156.259	  12.355
     39.6355	  40.000	  40.649	-139.649	  12.333
     39.6690	  28.000	  36.704	-147.704	  12.312
     39.7024	  18.000	  33.390	-154.390	  12.290
     39.7358	  22.000	  30.635	-147.635	  12.269
     39.7692	  37.000	  28.354	-130.354	  12.248
     39.8027	  30.000	  26.468	-135.468	  12.226
     39.8361	  23.000	  24.905	-140.905	  12.205
     39.8695	  17.000	  23.604	-145.604	  12.184
     39.9029	  22.000	  22.513	-139.513	  12.163
     39.9363	  16.000	  21.593	-144.593	  12.142
     39.9698	  23.000	  20.810	-136.810	  12.121
     40.0032	  17.000	  20.138	-142.138	  12.100
     40.0366	  19.000	  19.557	-139.557	  12.079
     40.0700	  21.000	  19.051	-137.051	  12.058
     40.1035	  16.000	  18.607	-141.607	  12.038
     40.1369	  23.000	  18.216	-134.216	  12.017
     40.1703	  26.000	  17.868	-130.868	  11.996
     40.2037	  15.000	  17.558	-141.558	  11.976
     40.2371	  17.000	  17.280	-139.280	  11.955
     40.2706	  24.000	  17.030	-132.030	  11.934
     40.3040	  20.000	  16.804	-135.804	  11.914
     40.3374	  15.000	  16.600	-140.600	  11.894
     40.3708	  19.000	  16.414	-136.414	  11.873
     40.4043	  21.000	  16.244	-134.244	  11.853
     40.4377	  19.000	  16.089	-136.089	  11.833
     40.4711	  16.000	  15.946	-138.946	  11.812
     40.5045	  16.000	  15.815	-138.815	  11.792
     40.5379	  11.000	  15.694	-143.694	  11.772
     40.5714	  11.000	  15.583	-143.583	  11.752
     40.6048	  15.000	  15.480	-139.480	  11.732
     40.6382	  16.000	  15.384	-138.384	  11.712
     40.6716	  15.000	  15.296	-139.296	  11.692
     40.7051	  27.000	  15.213	-127.213	  11.672
     40.7385	  10.000	  15.137	-144.137	  11.653
     40.7719	  11.000	  15.065	-143.065	  11.633
     40.8053	  13.000	  14.999	-140.999	  11.613
     40.8388	  13.000	  14.937	-140.937	  11.593
     40.8722	  19.000	  14.879	-134.879	  11.574
     40.9056	  24.000	  14.826	-129.826	  11.554
     40.9390	  15.000	  14.776	-138.776	  11.535
     40.9724	  13.000	  14.729	-140.729	  11.515
     41.0059	  18.000	  14.686	-135.686	  11.496
     41.0393	  13.000	  14.647	-140.647	  11.477
     41.0727	  22.000	  14.610	-131.610	  11.457
     41.1061	  17.000	  14.576	-136.576	  11.438
     41.1396	  18.000	  14.545	-135.545	  11.419
     41.1730	  18.000	  14.517	-135.517	  11.400
     41.2064	  13.000	  14.491	-140.491	  11.380
     41.2398	  21.000	  14.468	-132.468	  11.361
     41.2732	   9.000	  14.448	-144.448	  11.342
     41.3067	  15.000	  14.431	-138.431	  11.323
     41.3401	   9.000	  14.416	-144.416	  11.304
     41.3735	  21.000	  14.404	-132.404	  11.286
     41.4069	  17.000	  14.394	-136.394	  11.267
     41.4404	  18.000	  14.387	-135.387	  11.248
     41.4738	  14.000	  14.384	-139.384	  11.229
     41.5072	  14.000	  14.383	-139.383	  11.211
     41.5406	  16.000	  14.385	-137.385	  11.192
     41.5741	  10.000	  14.390	-143.390	  11.173
     41.6075	  16.000	  14.398	-137.398	  11.155
     41.6409	   9.000	  14.410	-144.410	  11.136
     41.6743	  13.000	  14.426	-140.426	  11.118
     41.7077	  13.000	  14.446	-140.446	  11.100
     41.7412	  14.000	  14.469	-139.469	  11.081
     41.7746	  13.000	  14.498	-140.498	  11.063
     41.8080	  21.000	  14.531	-132.531	  11.045
     41.8414	  13.000	  14.569	-140.569	  11.027
     41.8749	  16.000	  14.613	-137.613	  11.008
     41.9083	  20.000	  14.663	-133.663	  10.990
     41.9417	   6.000	  14.720	-147.720	  10.972
     41.9751	  16.000	  14.785	-137.785	  10.954
     42.0085	  11.000	  14.858	-142.858	  10.936
     42.0420	  14.000	  14.940	-139.940	  10.918
     42.0754	  15.000	  15.032	-139.032	  10.901
     42.1088	  18.000	  15.135	-136.135	  10.883
     42.1422	   8.000	  15.251	-146.251	  10.865
     42.1757	  16.000	  15.381	-138.381	  10.847
     42.2091	  19.000	  15.527	-135.527	  10.830
     42.2425	  16.000	  15.692	-138.692	  10.812
     42.2759	  15.000	  15.878	-139.878	  10.794
     42.3093	  15.000	  16.087	-140.087	  10.777
     42.3428	  16.000	  16.324	-139.324	  10.759
     42.3762	  20.000	  16.593	-135.593	  10.742
     42.4096	  11.000	  16.899	-144.899	  10.725
     42.4430	  11.000	  17.250	-145.250	  10.707
     42.4765	  11.000	  17.652	-145.652	  10.690
     42.5099	  17.000	  18.116	-140.116	  10.673
     42.5433	  17.000	  18.656	-140.656	  10.655
     42.5767	  18.000	  19.286	-140.286	  10.638
     42.6101	  23.000	  20.027	-136.027	  10.621
     42.6436	  17.000	  20.904	-142.904	  10.604
     42.6770	  17.000	  21.948	-143.948	  10.587
     42.7104	  22.000	  23.196	-140.196	  10.570
     42.7438	  33.000	  24.694	-130.694	  10.553
     42.7773	  15.000	  26.496	-150.496	  10.536
     42.8107	  14.000	  28.659	-153.659	  10.519
     42.8441	  21.000	  31.249	-149.249	  10.503
     42.8775	  32.000	  34.326	-141.326	  10.486
     42.9109	  24.000	  37.931	-152.931	  10.469
     42.9444	  37.000	  42.059	-144.059	  10.453
     42.9778	  39.000	  46.610	-146.610	  10.436
     43.0112	  41.000	  51.337	-149.337	  10.419
     43.0446	  44.000	  55.814	-150.814	  10.403
     43.0781	  41.000	  59.468	-157.468	  10.386
     43.1115	  54.000	  61.748	-146.748	  10.370
     43.1449	  60.000	  62.327	-141.327	  10.354
     43.1783	  57.000	  61.193	-143.193	  10.337
     43.2118	  45.000	  58.589	-152.589	  10.321
     43.2452	  43.000	  54.898	-150.898	  10.305
     43.2786	  46.000	  50.561	-143.561	  10.288
     43.3120	  33.000	  46.009	-152.009	  10.272
     43.3454	  24.000	  41.598	-156.598	  10.256
     43.3789	  35.000	  37.555	-141.555	  10.240
     43.4123	  31.000	  33.992	-141.992	  10.224
     43.4457	  24.000	  30.927	-145.927	  10.208
     43.4791	  21.000	  28.331	-146.331	  10.192
     43.5126	  28.000	  26.152	-137.152	  10.176
     43.5460	  16.000	  24.330	-147.330	  10.160
     43.5794	  30.000	  22.807	-131.807	  10.145
     43.6128	  17.000	  21.532	-143.532	  10.129
     43.6462	  26.000	  20.461	-133.461	  10.113
     43.6797	  14.000	  19.555	-144.555	  10.097
     43.7131	  19.000	  18.786	-138.786	  10.082
     43.7465	  29.000	  18.127	-128.127	  10.066
     43.7799	  14.000	  17.559	-142.559	  10.051
     43.8134	  18.000	  17.066	-138.066	  10.035
     43.8468	  20.000	  16.611	-135.611	  10.020
     43.8802	  22.000	  16.233	-133.233	  10.004
     43.9136	  21.000	  15.898	-133.898	   9.989
     43.9470	  21.000	  15.589	-133.589	   9.974
     43.9805	  23.000	  15.324	-131.324	   9.958
     44.0139	  13.000	  15.087	-141.087	   9.943
     44.0473	  15.000	  14.873	-138.873	   9.928
     44.0807	  17.000	  14.681	-136.681	   9.913
     44.1142	  18.000	  14.506	-135.506	   9.898
     44.1476	   6.000	  14.348	-147.348	   9.883
     44.1810	  15.000	  14.204	-138.204	   9.868
     44.2144	  21.000	  14.073	-132.073	   9.853
     44.2478	  19.000	  13.953	-133.953	   9.838
     44.2813	  18.000	  13.843	-134.843	   9.823
     44.3147	  15.000	  13.742	-137.742	   9.808
     44.3481	  13.000	  13.650	-139.650	   9.793
     44.3815	  16.000	  13.565	-136.565	   9.778
     44.4150	  18.000	  13.487	-134.487	   9.764
     44.4484	  17.000	  13.415	-135.415	   9.749
     44.4818	  21.000	  13.348	-131.348	   9.734
     44.5152	  23.000	  13.287	-129.287	   9.720
     44.5487	  19.000	  13.231	-133.231	   9.705
     44.5821	  15.000	  13.179	-137.179	   9.691
     44.6155	   9.000	  13.131	-143.131	   9.676
     44.6489	  11.000	  13.087	-141.087	   9.662
     44.6823	  10.000	  13.047	-142.047	   9.647
     44.7158	  11.000	  13.010	-141.010	   9.633
     44.7492	  16.000	  12.977	-135.977	   9.619
     44.7826	  20.000	  12.946	-131.946	   9.604
     44.8160	  20.000	  12.919	-131.919	   9.590
     44.8495	   8.000	  12.894	-143.894	   9.576
     44.8829	  11.000	  12.873	-140.873	   9.562
     44.9163	  13.000	  12.853	-138.853	   9.548
     44.9497	  14.000	  12.837	-137.837	   9.534
     44.9831	  22.000	  12.823	-129.823	   9.519
     45.0166	  11.000	  12.811	-140.811	   9.506
     45.0500	  15.000	  12.802	-136.802	   9.492
     45.0834	  20.000	  12.795	-131.795	   9.478
     45.1168	  14.000	  12.791	-137.791	   9.464
     45.1503	  14.000	  12.789	-137.789	   9.450
     45.1837	  11.000	  12.790	-140.790	   9.436
     45.2171	  14.000	  12.793	-137.793	   9.422
     45.2505	  10.000	  12.798	-141.798	   9.409
     45.2840	  14.000	  12.806	-137.806	   9.395
     45.3174	  18.000	  12.817	-133.817	   9.381
     45.3508	  14.000	  12.830	-137.830	   9.368
     45.3842	  18.000	  12.846	-133.846	   9.354
     45.4176	  19.000	  12.865	-132.865	   9.341
     45.4511	  13.000	  12.887	-138.887	   9.327
     45.4845	  11.000	  12.912	-140.912	   9.314
     45.5179	  19.000	  12.940	-132.940	   9.301
     45.5513	  15.000	  12.972	-136.972	   9.287
     45.5848	  15.000	  13.007	-137.007	   9.274
     45.6182	  15.000	  13.046	-137.046	   9.261
     45.6516	  13.000	  13.089	-139.089	   9.248
     45.6850	  17.000	  13.136	-135.136	   9.234
     45.7184	  15.000	  13.188	-137.188	   9.221
     45.7519	  17.000	  13.245	-135.245	   9.208
     45.7853	  17.000	  13.307	-135.307	   9.195
     45.8187	  21.000	  13.375	-131.375	   9.182
     45.8521	  10.000	  13.448	-142.448	   9.169
     45.8856	  22.000	  13.529	-130.529	   9.156
     45.9190	  18.000	  13.616	-134.616	   9.143
     45.9524	  14.000	  13.716	-138.716	   9.130
     45.9858	  19.000	  13.820	-133.820	   9.117
     46.0192	  17.000	  13.933	-135.933	   9.105
     46.0527	  16.000	  14.056	-137.056	   9.092
     46.0861	  15.000	  14.193	-138.193	   9.079
     46.1195	  15.000	  14.340	-138.340	   9.067
     46.1529	  16.000	  14.501	-137.501	   9.054
     46.1864	  18.000	  14.677	-135.677	   9.041
     46.2198	  13.000	  14.870	-140.870	   9.029
     46.2532	  18.000	  15.083	-136.083	   9.016
     46.2866	  19.000	  15.317	-135.317	   9.004
     46.3200	  14.000	  15.576	-140.576	   8.991
     46.3535	  21.000	  15.863	-133.863	   8.979
     46.3869	  15.000	  16.182	-140.182	   8.967
     46.4203	  15.000	  16.537	-140.537	   8.954
     46.4537	  16.000	  16.936	-139.936	   8.942
     46.4872	  17.000	  17.384	-139.384	   8.930
     46.5206	  17.000	  17.890	-139.890	   8.917
     46.5540	  24.000	  18.465	-133.465	   8.905
     46.5874	  26.000	  19.122	-132.122	   8.893
     46.6208	  20.000	  19.876	-138.876	   8.881
     46.6543	  21.000	  20.757	-138.757	   8.869
     46.6877	  23.000	  21.763	-137.763	   8.857
     46.7211	  21.000	  22.930	-140.930	   8.845
     46.7545	  29.000	  24.288	-134.288	   8.833
     46.7880	  23.000	  25.875	-141.875	   8.821
     46.8214	  19.000	  27.710	-147.710	   8.809
     46.8548	  28.000	  29.827	-140.827	   8.797
     46.8882	  28.000	  32.241	-143.241	   8.786
     46.9217	  30.000	  34.943	-143.943	   8.774
     46.9551	  39.000	  37.882	-137.882	   8.762
     46.9885	  35.000	  40.952	-144.952	   8.750
     47.0219	  32.000	  44.013	-151.013	   8.739
     47.0553	  41.000	  46.927	-144.927	   8.727
     47.0888	  30.000	  49.621	-158.621	   8.716
     47.1222	  41.000	  52.134	-150.134	   8.704
     47.1556	  53.000	  54.587	-140.587	   8.693
     47.1890	  49.000	  57.156	-147.156	   8.681
     47.2225	  35.000	  60.022	-164.022	   8.670
     47.2559	  43.000	  63.324	-159.324	   8.658
     47.2893	  33.000	  67.119	-173.119	   8.647
     47.3227	  42.000	  71.290	-168.290	   8.636
     47.3561	  44.000	  75.506	-170.506	   8.624
     47.3896	  52.000	  79.234	-166.234	   8.613
     47.4230	  78.000	  81.862	-142.862	   8.602
     47.4564	  54.000	  82.911	-167.911	   8.591
     47.4898	  72.000	  82.184	-149.184	   8.579
     47.5233	  64.000	  79.788	-154.788	   8.568
     47.5567	  49.000	  76.017	-166.017	   8.557
     47.5901	  44.000	  71.264	-166.264	   8.546
     47.6235	  53.000	  65.962	-151.962	   8.535
     47.6570	  44.000	  60.536	-155.536	   8.524
     47.6904	  43.000	  55.326	-151.326	   8.513
     47.7238	  43.000	  50.621	-146.621	   8.502
     47.7572	  35.000	  46.523	-150.523	   8.492
     47.7906	  36.000	  43.062	-146.062	   8.481
     47.8241	  37.000	  40.245	-142.245	   8.470
     47.8575	  33.000	  38.019	-144.019	   8.459
     47.8909	  34.000	  36.338	-141.338	   8.449
     47.9243	  28.000	  35.155	-146.155	   8.438
     47.9578	  35.000	  34.440	-138.440	   8.427
     47.9912	  28.000	  34.170	-145.170	   8.417
     48.0246	  37.000	  34.338	-136.338	   8.406
     48.0580	  35.000	  34.952	-138.952	   8.395
     48.0914	  31.000	  36.031	-144.031	   8.385
     48.1249	  34.000	  37.609	-142.609	   8.374
     48.1583	  42.000	  39.723	-136.723	   8.364
     48.1917	  36.000	  42.416	-145.416	   8.354
     48.2251	  33.000	  45.719	-151.719	   8.343
     48.2586	  41.000	  49.626	-147.626	   8.333
     48.2920	  45.000	  54.064	-148.064	   8.323
     48.3254	  43.000	  58.847	-154.847	   8.312
     48.3588	  46.000	  63.629	-156.629	   8.302
     48.3922	  55.000	  67.917	-151.917	   8.292
     48.4257	  59.000	  71.151	-151.151	   8.282
     48.4591	  56.000	  72.872	-155.872	   8.272
     48.4925	  53.000	  72.870	-158.870	   8.261
     48.5259	  37.000	  71.208	-173.208	   8.251
     48.5594	  53.000	  68.137	-154.137	   8.241
     48.5928	  48.000	  63.999	-154.999	   8.231
     48.6262	  44.000	  59.183	-154.183	   8.221
     48.6596	  36.000	  54.080	-157.080	   8.212
     48.6930	  36.000	  49.037	-152.037	   8.202
     48.7265	  23.000	  44.307	-160.307	   8.192
     48.7599	  29.000	  40.032	-150.032	   8.182
     48.7933	  24.000	  36.270	-151.270	   8.172
     48.8267	  27.000	  33.012	-145.012	   8.162
     48.8602	  21.000	  30.219	-148.219	   8.153
     48.8936	  33.000	  27.838	-133.838	   8.143
     48.9270	  20.000	  25.811	-144.811	   8.133
     48.9604	  35.000	  24.085	-128.085	   8.124
     48.9939	  16.000	  22.612	-145.612	   8.114
     49.0273	  20.000	  21.350	-140.350	   8.104
     49.0607	  23.000	  20.263	-136.263	   8.095
     49.0941	  27.000	  19.323	-131.323	   8.085
     49.1275	  30.000	  18.504	-127.504	   8.076
     49.1610	  19.000	  17.786	-137.786	   8.067
     49.1944	  15.000	  17.154	-141.154	   8.057
     49.2278	  17.000	  16.593	-138.593	   8.048
     49.2612	  21.000	  16.093	-134.093	   8.038
     49.2947	  13.000	  15.646	-141.646	   8.029
     49.3281	  23.000	  15.243	-131.243	   8.020
     49.3615	  15.000	  14.879	-138.879	   8.011
     49.3949	  17.000	  14.549	-136.549	   8.001
     49.4283	  14.000	  14.254	-139.254	   7.992
     49.4618	  14.000	  13.979	-138.979	   7.983
     49.4952	  22.000	  13.727	-130.727	   7.974
     49.5286	  11.000	  13.496	-141.496	   7.965
     49.5620	  22.000	  13.285	-130.285	   7.956
     49.5955	  11.000	  13.087	-141.087	   7.947
     49.6289	   8.000	  12.905	-143.905	   7.938
     49.6623	   6.000	  12.735	-145.735	   7.929
     49.6957	  20.000	  12.579	-131.579	   7.920
     49.7291	  10.000	  12.432	-141.432	   7.911
     49.7626	  17.000	  12.294	-134.294	   7.902
     49.7960	  14.000	  12.165	-137.165	   7.893
     49.8294	  14.000	  12.045	-137.045	   7.885
     49.8628	  20.000	  11.931	-130.931	   7.876
     49.8963	  11.000	  11.824	-139.824	   7.867
     49.9297	  15.000	  11.723	-135.723	   7.858
     49.9631	  15.000	  11.627	-135.627	   7.850
     49.9965	  18.000	  11.537	-132.537	   7.841
     50.0300	  15.000	  11.454	-135.454	   7.833
     50.0634	  17.000	  11.372	-133.372	   7.824
     50.0968	  15.000	  11.295	-135.295	   7.815
     50.1302	  22.000	  11.221	-128.221	   7.807
     50.1636	  16.000	  11.153	-134.153	   7.798
     50.1971	  16.000	  11.086	-134.086	   7.790
     50.2305	  18.000	  11.022	-132.022	   7.782
     50.2639	  13.000	  10.961	-136.961	   7.773
     50.2973	  20.000	  10.903	-129.903	   7.765
     50.3308	  17.000	  10.847	-132.847	   7.756
     50.3642	  15.000	  10.794	-134.794	   7.748
     50.3976	  21.000	  10.742	-128.742	   7.740
     50.4310	  16.000	  10.693	-133.693	   7.732
     50.4644	  11.000	  10.646	-138.646	   7.723
     50.4979	  10.000	  10.600	-139.600	   7.715
     50.5313	  16.000	  10.556	-133.556	   7.707
     50.5647	   9.000	  10.514	-140.514	   7.699
     50.5981	  16.000	  10.473	-133.473	   7.691
     50.6316	  14.000	  10.434	-135.434	   7.683
     50.6650	  11.000	  10.396	-138.396	   7.675
     50.6984	  23.000	  10.359	-126.359	   7.667
     50.7318	  16.000	  10.323	-133.323	   7.659
     50.7652	  15.000	  10.289	-134.289	   7.651
     50.7987	  18.000	  10.256	-131.256	   7.643
     50.8321	  10.000	  10.224	-139.224	   7.635
     50.8655	  15.000	  10.192	-134.192	   7.627
     50.8989	  14.000	  10.162	-135.162	   7.619
     50.9324	  13.000	  10.132	-136.132	   7.612
     50.9658	  11.000	  10.104	-138.104	   7.604
     50.9992	  14.000	  10.076	-135.076	   7.596
     51.0326	  14.000	  10.049	-135.049	   7.588
     51.0660	  14.000	  10.023	-135.023	   7.581
     51.0995	  16.000	   9.997	-132.997	   7.573
     51.1329	  26.000	   9.972	-122.972	   7.566
     51.1663	  11.000	   9.948	-137.948	   7.558
     51.1997	  15.000	   9.925	-133.925	   7.550
     51.2332	  17.000	   9.902	-131.902	   7.543
     51.2666	   9.000	   9.879	-139.879	   7.535
     51.3000	  11.000	   9.857	-137.857	   7.528
     51.3334	  15.000	   9.836	-133.836	   7.520
     51.3669	  16.000	   9.815	-132.815	   7.513
     51.4003	  15.000	   9.795	-133.795	   7.506
     51.4337	   9.000	   9.778	-139.777	   7.498
     51.4671	  16.000	   9.758	-132.758	   7.491
     51.5005	  10.000	   9.739	-138.739	   7.484
     51.5340	  14.000	   9.721	-134.721	   7.476
     51.5674	  20.000	   9.703	-128.703	   7.469
     51.6008	  13.000	   9.686	-135.686	   7.462
     51.6342	   6.000	   9.669	-142.669	   7.455
     51.6677	  13.000	   9.652	-135.652	   7.448
     51.7011	  13.000	   9.635	-135.635	   7.440
     51.7345	  10.000	   9.619	-138.619	   7.433
     51.7679	   9.000	   9.603	-139.603	   7.426
     51.8013	  19.000	   9.588	-129.588	   7.419
     51.8348	  10.000	   9.572	-138.572	   7.412
     51.8682	   7.000	   9.558	-141.558	   7.405
     51.9016	  14.000	   9.522	-134.522	   7.398
     51.9350	  11.000	   9.508	-137.508	   7.391
     51.9685	  13.000	   9.494	-135.494	   7.384
     52.0019	   6.000	   9.481	-142.481	   7.377
     52.0353	  15.000	   9.457	-133.457	   7.371
     52.0687	   8.000	   9.444	-140.444	   7.364
     52.1021	   8.000	   9.432	-140.432	   7.357
     52.1356	   7.000	   9.419	-141.419	   7.350
     52.1690	   6.000	   9.407	-142.407	   7.343
     52.2024	  13.000	   9.395	-135.395	   7.337
     52.2358	  14.000	   9.383	-134.383	   7.330
     52.2693	  10.000	   9.372	-138.372	   7.323
     52.3027	   6.000	   9.360	-142.360	   7.317
     52.3361	  17.000	   9.349	-131.349	   7.310
     52.3695	   7.000	   9.338	-141.338	   7.304
     52.4030	  13.000	   9.328	-135.328	   7.297
     52.4364	  11.000	   9.317	-137.317	   7.290
     52.4698	   6.000	   9.307	-142.307	   7.284
     52.5032	  18.000	   9.297	-130.297	   7.277
     52.5366	  20.000	   9.287	-128.287	   7.271
     52.5701	  14.000	   9.278	-134.278	   7.265
     52.6035	  10.000	   9.268	-138.268	   7.258
     52.6369	   8.000	   9.259	-140.259	   7.252
     52.6703	  13.000	   9.250	-135.250	   7.245
     52.7038	  14.000	   9.241	-134.241	   7.239
     52.7372	   9.000	   9.233	-139.233	   7.233
     52.7706	  10.000	   9.224	-138.224	   7.227
     52.8040	  14.000	   9.222	-134.222	   7.220
     52.8374	  11.000	   9.214	-137.214	   7.214
     52.8709	   6.000	   9.206	-142.206	   7.208
     52.9043	  10.000	   9.198	-138.198	   7.202
     52.9377	  17.000	   9.193	-131.193	   7.196
     52.9711	  15.000	   9.186	-133.186	   7.190
     53.0046	  10.000	   9.179	-138.179	   7.183
     53.0380	   5.000	   9.172	-143.172	   7.177
     53.0714	  14.000	   9.165	-134.165	   7.171
     53.1048	  13.000	   9.159	-135.159	   7.165
     53.1382	  14.000	   9.152	-134.152	   7.159
     53.1717	  11.000	   9.146	-137.146	   7.153
     53.2051	   9.000	   9.140	-139.140	   7.147
     53.2385	  11.000	   9.134	-137.134	   7.142
     53.2719	   7.000	   9.129	-141.129	   7.136
     53.3054	   8.000	   9.123	-140.123	   7.130
     53.3388	   9.000	   9.118	-139.118	   7.124
     53.3722	  18.000	   9.113	-130.113	   7.118
     53.4056	  16.000	   9.108	-132.108	   7.112
     53.4390	   9.000	   9.104	-139.104	   7.107
     53.4725	   6.000	   9.099	-142.099	   7.101
     53.5059	  13.000	   9.095	-135.095	   7.095
     53.5393	   8.000	   9.091	-140.091	   7.090
     53.5727	   8.000	   9.091	-140.091	   7.084
     53.6062	  14.000	   9.087	-134.087	   7.078
     53.6396	  22.000	   9.084	-126.084	   7.073
     53.6730	  14.000	   9.081	-134.081	   7.067
     53.7064	  11.000	   9.080	-137.080	   7.061
     53.7399	  17.000	   9.077	-131.077	   7.056
     53.7733	   9.000	   9.075	-139.075	   7.050
     53.8067	   9.000	   9.072	-139.072	   7.045
     53.8401	  10.000	   9.070	-138.070	   7.039
     53.8735	   9.000	   9.069	-139.069	   7.034
     53.9070	  14.000	   9.067	-134.067	   7.029
     53.9404	   6.000	   9.066	-142.066	   7.023
     53.9738	   6.000	   9.065	-142.065	   7.018
     54.0072	  11.000	   9.065	-137.065	   7.013
     54.0407	   6.000	   9.064	-142.064	   7.007
     54.0741	   8.000	   9.064	-140.064	   7.002
     54.1075	  11.000	   9.065	-137.065	   6.997
     54.1409	  11.000	   9.065	-137.065	   6.991
     54.1743	  14.000	   9.066	-134.066	   6.986
     54.2078	   9.000	   9.067	-139.067	   6.981
     54.2412	  15.000	   9.069	-133.069	   6.976
     54.2746	   7.000	   9.071	-141.071	   6.971
     54.3080	   8.000	   9.074	-140.074	   6.965
     54.3415	   6.000	   9.076	-142.076	   6.960
     54.3749	   9.000	   9.080	-139.080	   6.955
     54.4083	  13.000	   9.084	-135.084	   6.950
     54.4417	   7.000	   9.088	-141.088	   6.945
     54.4752	   7.000	   9.092	-141.092	   6.940
     54.5086	   7.000	   9.098	-141.098	   6.935
     54.5420	  14.000	   9.103	-134.103	   6.930
     54.5754	  11.000	   9.110	-137.110	   6.925
     54.6088	  15.000	   9.116	-133.116	   6.920
     54.6423	   6.000	   9.124	-142.124	   6.915
     54.6757	  11.000	   9.132	-137.132	   6.911
     54.7091	  10.000	   9.141	-138.141	   6.906
     54.7425	   8.000	   9.151	-140.151	   6.901
     54.7759	   5.000	   9.161	-143.161	   6.896
     54.8094	  11.000	   9.172	-137.172	   6.891
     54.8428	   7.000	   9.184	-141.184	   6.887
     54.8762	   9.000	   9.197	-139.197	   6.882
     54.9096	  11.000	   9.211	-137.211	   6.877
     54.9431	   8.000	   9.226	-140.226	   6.872
     54.9765	  10.000	   9.242	-138.242	   6.868
     55.0099	   8.000	   9.260	-140.260	   6.863
     55.0433	  14.000	   9.278	-134.278	   6.858
     55.0768	  16.000	   9.298	-132.298	   6.854
     55.1102	  10.000	   9.320	-138.320	   6.849
     55.1436	   9.000	   9.343	-139.343	   6.845
     55.1770	   6.000	   9.368	-142.368	   6.840
     55.2104	   9.000	   9.394	-139.394	   6.836
     55.2439	   9.000	   9.423	-139.423	   6.831
     55.2773	   9.000	   9.454	-139.454	   6.827
     55.3107	   8.000	   9.487	-140.487	   6.822
     55.3441	   9.000	   9.523	-139.523	   6.818
     55.3776	  10.000	   9.562	-138.562	   6.813
     55.4110	   9.000	   9.604	-139.604	   6.809
     55.4444	  11.000	   9.649	-137.649	   6.805
     55.4778	  10.000	   9.698	-138.698	   6.800
     55.5112	   4.000	   9.751	-144.751	   6.796
     55.5447	  19.000	   9.809	-129.809	   6.792
     55.5781	   9.000	   9.871	-139.871	   6.787
     55.6115	  13.000	   9.940	-135.940	   6.783
     55.6449	  17.000	  10.015	-132.015	   6.779
     55.6784	   8.000	  10.097	-141.097	   6.775
     55.7118	   6.000	  10.187	-143.187	   6.771
     55.7452	  15.000	  10.286	-134.286	   6.766
     55.7786	   9.000	  10.396	-140.396	   6.762
     55.8120	  10.000	  10.518	-139.518	   6.758
     55.8455	   8.000	  10.654	-141.654	   6.754
     55.8789	   9.000	  10.806	-140.806	   6.750
     55.9123	  10.000	  10.976	-139.976	   6.746
     55.9457	   8.000	  11.169	-142.169	   6.742
     55.9792	  14.000	  11.387	-136.387	   6.738
     56.0126	   3.000	  11.634	-147.634	   6.734
     56.0460	  18.000	  11.917	-132.917	   6.730
     56.0794	  10.000	  12.241	-141.241	   6.726
     56.1129	  11.000	  12.613	-140.613	   6.722
     56.1463	  15.000	  13.040	-137.040	   6.718
     56.1797	  13.000	  13.530	-139.530	   6.714
     56.2131	  11.000	  14.093	-142.093	   6.710
     56.2465	   9.000	  14.735	-144.735	   6.706
     56.2800	   8.000	  15.461	-146.461	   6.703
     56.3134	  17.000	  16.272	-138.272	   6.699
     56.3468	   6.000	  17.149	-150.149	   6.695
     56.3802	   9.000	  18.085	-148.085	   6.691
     56.4137	   8.000	  19.031	-150.031	   6.687
     56.4471	   8.000	  19.927	-150.927	   6.684
     56.4805	  24.000	  20.705	-135.705	   6.680
     56.5139	  16.000	  21.298	-144.298	   6.676
     56.5473	  11.000	  21.679	-149.679	   6.673
     56.5808	  14.000	  21.835	-146.835	   6.669
     56.6142	  15.000	  21.792	-145.792	   6.665
     56.6476	  32.000	  21.589	-128.589	   6.662
     56.6810	  16.000	  21.271	-144.271	   6.658
     56.7145	  26.000	  20.888	-133.888	   6.654
     56.7479	  19.000	  20.491	-140.491	   6.651
     56.7813	  10.000	  20.109	-149.109	   6.647
     56.8147	  14.000	  19.840	-144.840	   6.644
     56.8481	  14.000	  19.696	-144.696	   6.640
     56.8816	  13.000	  19.702	-145.702	   6.637
     56.9150	   9.000	  19.867	-149.867	   6.633
     56.9484	  14.000	  20.233	-145.233	   6.630
     56.9818	   7.000	  20.801	-152.801	   6.626
     57.0153	  13.000	  21.583	-147.583	   6.623
     57.0487	  17.000	  22.594	-144.594	   6.620
     57.0821	  16.000	  23.844	-146.844	   6.616
     57.1155	  16.000	  25.337	-148.337	   6.613
     57.1489	  18.000	  27.062	-148.062	   6.610
     57.1824	  19.000	  28.986	-148.986	   6.606
     57.2158	  22.000	  31.038	-148.038	   6.603
     57.2492	  26.000	  33.099	-146.099	   6.600
     57.2826	  21.000	  35.008	-153.008	   6.597
     57.3161	  17.000	  36.581	-158.581	   6.593
     57.3495	  22.000	  37.649	-154.649	   6.590
     57.3829	  26.000	  38.111	-151.111	   6.587
     57.4163	  24.000	  37.950	-152.950	   6.584
     57.4498	  20.000	  37.213	-156.213	   6.581
     57.4832	  16.000	  35.994	-158.994	   6.577
     57.5166	  22.000	  34.397	-151.397	   6.574
     57.5500	  19.000	  32.535	-152.535	   6.571
     57.5834	  19.000	  30.530	-150.530	   6.568
     57.6169	  16.000	  28.496	-151.496	   6.565
     57.6503	  22.000	  26.534	-143.534	   6.562
     57.6837	  14.000	  24.718	-149.718	   6.559
     57.7171	  13.000	  23.087	-149.087	   6.556
     57.7506	  21.000	  21.661	-139.661	   6.553
     57.7840	  16.000	  20.436	-143.436	   6.550
     57.8174	  19.000	  19.401	-139.401	   6.547
     57.8508	  16.000	  18.535	-141.535	   6.544
     57.8842	  10.000	  17.812	-146.812	   6.541
     57.9177	  14.000	  17.178	-142.178	   6.538
     57.9511	   9.000	  16.654	-146.654	   6.535
     57.9845	  11.000	  16.184	-144.184	   6.532
     58.0179	  14.000	  15.746	-140.746	   6.530
     58.0514	   7.000	  15.322	-147.322	   6.527
     58.0848	   9.000	  14.892	-144.892	   6.524
     58.1182	   9.000	  14.477	-144.477	   6.521
     58.1516	  10.000	  14.067	-143.067	   6.518
     58.1851	  15.000	  13.665	-137.665	   6.516
     58.2185	  10.000	  13.273	-142.273	   6.513
     58.2519	  15.000	  12.898	-136.898	   6.510
     58.2853	  14.000	  12.544	-137.544	   6.507
     58.3187	  16.000	  12.217	-135.217	   6.505
     58.3522	   4.000	  11.918	-146.918	   6.502
     58.3856	   5.000	  11.648	-145.648	   6.499
     58.4190	   7.000	  11.405	-143.405	   6.497
     58.4524	   6.000	  11.189	-144.189	   6.494
     58.4859	   9.000	  10.996	-140.996	   6.491
     58.5193	  15.000	  10.825	-134.825	   6.489
     58.5527	  14.000	  10.672	-135.672	   6.486
     58.5861	  19.000	  10.536	-130.536	   6.484
     58.6195	  11.000	  10.415	-138.415	   6.481
     58.6530	  10.000	  10.307	-139.307	   6.479
     58.6864	   9.000	  10.211	-140.211	   6.476
     58.7198	   7.000	  10.125	-142.125	   6.474
     58.7532	  14.000	  10.048	-135.048	   6.471
     58.7867	  14.000	   9.979	-134.979	   6.469
     58.8201	   8.000	   9.917	-140.917	   6.466
     58.8535	   8.000	   9.863	-140.863	   6.464
     58.8869	  11.000	   9.814	-137.814	   6.461
     58.9203	   9.000	   9.771	-139.771	   6.459
     58.9538	   9.000	   9.733	-139.733	   6.457
     58.9872	  10.000	   9.700	-138.700	   6.454
     59.0206	   6.000	   9.671	-142.671	   6.452
     59.0540	  10.000	   9.647	-138.647	   6.450
     59.0875	   9.000	   9.627	-139.627	   6.447
     59.1209	  10.000	   9.611	-138.611	   6.445
     59.1543	   8.000	   9.598	-140.598	   6.443
     59.1877	  10.000	   9.590	-138.590	   6.440
     59.2211	   8.000	   9.585	-140.585	   6.438
     59.2546	   9.000	   9.584	-139.584	   6.436
     59.2880	   8.000	   9.587	-140.587	   6.434
     59.3214	  11.000	   9.594	-137.594	   6.432
     59.3548	   9.000	   9.604	-139.604	   6.429
     59.3883	  11.000	   9.619	-137.619	   6.427
     59.4217	  13.000	   9.637	-135.637	   6.425
     59.4551	   5.000	   9.660	-143.660	   6.423
     59.4885	   8.000	   9.688	-140.688	   6.421
     59.5219	  13.000	   9.720	-135.720	   6.419
     59.5554	   8.000	   9.758	-140.758	   6.417
     59.5888	  11.000	   9.801	-137.801	   6.415
     59.6222	   5.000	   9.853	-143.853	   6.412
     59.6556	   9.000	   9.909	-139.909	   6.410
     59.6891	   6.000	   9.972	-142.972	   6.408
     59.7225	   5.000	  10.043	-144.043	   6.406
     59.7559	   8.000	  10.123	-141.123	   6.404
     59.7893	  18.000	  10.214	-131.214	   6.402
     59.8228	  10.000	  10.315	-139.315	   6.400
     59.8562	   3.000	  10.429	-146.429	   6.398
     59.8896	  17.000	  10.557	-132.557	   6.397
     59.9230	  10.000	  10.701	-139.701	   6.395
     59.9564	   5.000	  10.864	-144.864	   6.393
     59.9899	  13.000	  11.048	-137.048	   6.391
     60.0233	  10.000	  11.257	-140.257	   6.389
     60.0567	  10.000	  11.495	-140.495	   6.387
     60.0901	   7.000	  11.767	-143.767	   6.385
     60.1236	  14.000	  12.077	-137.077	   6.383
     60.1570	   9.000	  12.433	-142.433	   6.382
     60.1904	  10.000	  12.841	-141.841	   6.380
     60.2238	  10.000	  13.309	-142.309	   6.378
     60.2572	  14.000	  13.848	-138.848	   6.376
     60.2907	  13.000	  14.463	-140.463	   6.374
     60.3241	   9.000	  15.165	-145.165	   6.373
     60.3575	  16.000	  15.962	-138.962	   6.371
     60.3909	  13.000	  16.855	-142.855	   6.369
     60.4244	  15.000	  17.842	-141.842	   6.367
     60.4578	  14.000	  18.906	-143.906	   6.366
     60.4912	  11.000	  20.019	-148.019	   6.364
     60.5246	  15.000	  21.133	-145.133	   6.362
     60.5581	  16.000	  22.186	-145.186	   6.361
     60.5915	  18.000	  23.115	-144.115	   6.359
     60.6249	  10.000	  23.869	-152.869	   6.357
     60.6583	  17.000	  24.420	-146.420	   6.356
     60.6917	  21.000	  24.774	-142.774	   6.354
     60.7252	  13.000	  24.955	-150.955	   6.353
     60.7586	  18.000	  24.992	-145.992	   6.351
     60.7920	  13.000	  24.915	-150.915	   6.350
     60.8254	   9.000	  24.744	-154.744	   6.348
     60.8588	  10.000	  24.498	-153.498	   6.346
     60.8923	  17.000	  24.189	-146.189	   6.345
     60.9257	  23.000	  23.826	-139.826	   6.343
     60.9591	  22.000	  23.422	-140.422	   6.342
     60.9925	  19.000	  22.992	-142.992	   6.341
     61.0260	  22.000	  22.555	-139.555	   6.339
     61.0594	  26.000	  22.128	-135.128	   6.338
     61.0928	  15.000	  21.727	-145.727	   6.336
     61.1262	  11.000	  21.360	-149.360	   6.335
     61.1597	  10.000	  21.029	-150.029	   6.333
     61.1931	  17.000	  20.728	-142.728	   6.332
     61.2265	  13.000	  20.441	-146.441	   6.331
     61.2599	  18.000	  20.147	-141.147	   6.329
     61.2933	  10.000	  19.818	-148.818	   6.328
     61.3268	  13.000	  19.434	-145.434	   6.327
     61.3602	  17.000	  18.985	-140.985	   6.325
     61.3936	  10.000	  18.472	-147.472	   6.324
     61.4270	  16.000	  17.906	-140.906	   6.323
     61.4605	   7.000	  17.298	-149.298	   6.321
     61.4939	  13.000	  16.663	-142.663	   6.320
     61.5273	  10.000	  16.016	-145.016	   6.319
     61.5607	   9.000	  15.374	-145.374	   6.317
     61.5941	  13.000	  14.755	-140.755	   6.316
     61.6276	   8.000	  14.172	-145.172	   6.315
     61.6610	   8.000	  13.635	-144.635	   6.314
     61.6944	   9.000	  13.149	-143.149	   6.313
     61.7278	   4.000	  12.715	-147.715	   6.311
     61.7613	   9.000	  12.332	-142.332	   6.310
     61.7947	   5.000	  11.995	-145.995	   6.309
     61.8281	  11.000	  11.700	-139.700	   6.308
     61.8615	   7.000	  11.444	-143.444	   6.307
     61.8950	   9.000	  11.221	-141.221	   6.306
     61.9284	  23.000	  11.028	-127.028	   6.305
     61.9618	  14.000	  10.861	-135.861	   6.303
     61.9952	  11.000	  10.717	-138.717	   6.302
     62.0286	  17.000	  10.594	-132.594	   6.301
     62.0621	   9.000	  10.490	-140.490	   6.300
     62.0955	  11.000	  10.402	-138.402	   6.299
     62.1289	   9.000	  10.330	-140.330	   6.298
     62.1623	  13.000	  10.272	-136.272	   6.297
     62.1958	   9.000	  10.227	-140.227	   6.296
     62.2292	   7.000	  10.196	-142.196	   6.295
     62.2626	   5.000	  10.177	-144.177	   6.294
     62.2960	   9.000	  10.171	-140.171	   6.293
     62.3294	   6.000	  10.177	-143.177	   6.292
     62.3629	   4.000	  10.199	-145.199	   6.291
     62.3963	   5.000	  10.234	-144.234	   6.290
     62.4297	   7.000	  10.284	-142.284	   6.289
     62.4631	   9.000	  10.351	-140.351	   6.288
     62.4966	   7.000	  10.438	-142.438	   6.287
     62.5300	   9.000	  10.545	-140.545	   6.286
     62.5634	  11.000	  10.676	-138.676	   6.286
     62.5968	   2.000	  10.833	-147.833	   6.285
     62.6302	  10.000	  11.020	-140.020	   6.284
     62.6637	   7.000	  11.238	-143.238	   6.283
     62.6971	  14.000	  11.493	-136.493	   6.282
     62.7305	  13.000	  11.784	-137.784	   6.281
     62.7639	  13.000	  12.114	-138.114	   6.280
     62.7974	  14.000	  12.478	-137.478	   6.280
     62.8308	  14.000	  12.871	-137.871	   6.279
     62.8642	  13.000	  13.278	-139.278	   6.278
     62.8976	  11.000	  13.678	-141.678	   6.277
     62.9311	  14.000	  14.045	-139.045	   6.277
     62.9645	  17.000	  14.348	-136.348	   6.276
     62.9979	   8.000	  14.563	-145.563	   6.275
     63.0313	  10.000	  14.672	-143.672	   6.274
     63.0647	   7.000	  14.676	-146.676	   6.274
     63.0982	   2.000	  14.577	-151.577	   6.273
     63.1316	   9.000	  14.391	-144.391	   6.272
     63.1650	  13.000	  14.134	-140.134	   6.271
     63.1984	  17.000	  13.823	-135.823	   6.271
     63.2318	   8.000	  13.477	-144.477	   6.270
     63.2653	   7.000	  13.111	-145.111	   6.269
     63.2987	  11.000	  12.745	-140.745	   6.269
     63.3321	  10.000	  12.394	-141.394	   6.268
     63.3655	  10.000	  12.069	-141.069	   6.268
     63.3990	  10.000	  11.775	-140.775	   6.267
     63.4324	   9.000	  11.517	-141.517	   6.266
     63.4658	   6.000	  11.294	-144.294	   6.266
     63.4992	  11.000	  11.106	-139.106	   6.265
     63.5327	   8.000	  10.949	-141.949	   6.265
     63.5661	   9.000	  10.822	-140.822	   6.264
     63.5995	   7.000	  10.722	-142.722	   6.263
     63.6329	   8.000	  10.646	-141.646	   6.263
     63.6663	  15.000	  10.594	-134.594	   6.262
     63.6998	   7.000	  10.562	-142.562	   6.262
     63.7332	   5.000	  10.551	-144.551	   6.261
     63.7666	   8.000	  10.559	-141.559	   6.261
     63.8000	  11.000	  10.586	-138.586	   6.260
     63.8335	   9.000	  10.632	-140.632	   6.260
     63.8669	   7.000	  10.697	-142.697	   6.259
     63.9003	   6.000	  10.783	-143.783	   6.259
     63.9337	   3.000	  10.890	-146.890	   6.258
     63.9671	   8.000	  11.021	-142.021	   6.258
     64.0006	   7.000	  11.178	-143.178	   6.257
     64.0340	  11.000	  11.364	-139.364	   6.257
     64.0674	   7.000	  11.583	-143.583	   6.257
     64.1008	  10.000	  11.839	-140.839	   6.256
     64.1343	  14.000	  12.136	-137.136	   6.256
     64.1677	   4.000	  12.481	-147.481	   6.255
     64.2011	   8.000	  12.880	-143.880	   6.255
     64.2345	  13.000	  13.339	-139.339	   6.255
     64.2680	   4.000	  13.867	-148.867	   6.254
     64.3014	   9.000	  14.468	-144.468	   6.254
     64.3348	  10.000	  15.149	-144.149	   6.254
     64.3682	  11.000	  15.910	-143.910	   6.253
     64.4016	  13.000	  16.748	-142.748	   6.253
     64.4351	   9.000	  17.650	-147.650	   6.253
     64.4685	  10.000	  18.588	-147.588	   6.252
     64.5019	  14.000	  19.524	-144.524	   6.252
     64.5353	  16.000	  20.402	-143.402	   6.252
     64.5688	  20.000	  21.159	-140.159	   6.251
     64.6022	  23.000	  21.738	-137.738	   6.251
     64.6356	   9.000	  22.096	-152.096	   6.251
     64.6690	  10.000	  22.220	-151.220	   6.251
     64.7024	   9.000	  22.120	-152.120	   6.250
     64.7359	  17.000	  21.823	-143.823	   6.250
     64.7693	  17.000	  21.362	-143.362	   6.250
     64.8027	  16.000	  20.772	-143.772	   6.250
     64.8361	  11.000	  20.089	-148.089	   6.249
     64.8696	  15.000	  19.355	-143.355	   6.249
     64.9030	   8.000	  18.608	-149.608	   6.249
     64.9364	  15.000	  17.887	-141.887	   6.249
     64.9698	  11.000	  17.220	-145.220	   6.249
     65.0033	  19.000	  16.631	-136.631	   6.248
     65.0367	  16.000	  16.133	-139.133	   6.248
     65.0701	  10.000	  15.732	-144.732	   6.248
     65.1035	   7.000	  15.432	-147.432	   6.248
     65.1369	   8.000	  15.231	-146.231	   6.248
     65.1704	   7.000	  15.130	-147.130	   6.248
     65.2038	  11.000	  15.125	-143.125	   6.248
     65.2372	  13.000	  15.215	-141.215	   6.247
     65.2706	   9.000	  15.395	-145.395	   6.247
     65.3040	  10.000	  15.657	-144.657	   6.247
     65.3375	   9.000	  15.991	-145.991	   6.247
     65.3709	  13.000	  16.379	-142.379	   6.247
     65.4043	  11.000	  16.794	-144.794	   6.247
     65.4377	  11.000	  17.200	-145.200	   6.247
     65.4712	  14.000	  17.558	-142.558	   6.247
     65.5046	  14.000	  17.824	-142.824	   6.247
     65.5380	  16.000	  17.968	-140.968	   6.247
     65.5714	  24.000	  17.973	-132.973	   6.247
     65.6049	  21.000	  17.837	-135.837	   6.247
     65.6383	  16.000	  17.573	-140.573	   6.247
     65.6717	  11.000	  17.200	-145.200	   6.247
     65.7051	  11.000	  16.737	-144.737	   6.247
     65.7385	  11.000	  16.205	-144.205	   6.247
     65.7720	  13.000	  15.627	-141.627	   6.247
     65.8054	   3.000	  15.027	-151.027	   6.247
     65.8388	   8.000	  14.426	-145.426	   6.247
     65.8722	   5.000	  13.845	-147.845	   6.247
     65.9057	   9.000	  13.297	-143.297	   6.247
     65.9391	   9.000	  12.793	-142.793	   6.247
     65.9725	  11.000	  12.334	-140.334	   6.247
     66.0059	   7.000	  11.923	-143.923	   6.247
     66.0393	   7.000	  11.557	-143.557	   6.247
     66.0728	  11.000	  11.231	-139.231	   6.247
     66.1062	   7.000	  10.944	-142.944	   6.247
     66.1396	   7.000	  10.690	-142.690	   6.247
     66.1730	  11.000	  10.465	-138.465	   6.247
     66.2065	   5.000	  10.266	-144.266	   6.248
     66.2399	  13.000	  10.090	-136.090	   6.248
     66.2733	  10.000	   9.933	-138.933	   6.248
     66.3067	   6.000	   9.793	-142.793	   6.248
     66.3401	  10.000	   9.668	-138.668	   6.248
     66.3736	   8.000	   9.556	-140.556	   6.248
     66.4070	   6.000	   9.455	-142.455	   6.248
     66.4404	   6.000	   9.363	-142.363	   6.248
     66.4738	  20.000	   9.281	-128.281	   6.249
     66.5073	  11.000	   9.206	-137.206	   6.249
     66.5407	   8.000	   9.140	-140.140	   6.249
     66.5741	  14.000	   9.077	-134.077	   6.249
     66.6075	   9.000	   9.020	-139.020	   6.249
     66.6410	  11.000	   8.968	-136.968	   6.250
     66.6744	   7.000	   8.920	-140.920	   6.250
     66.7078	   9.000	   8.876	-138.876	   6.250
     66.7412	   7.000	   8.836	-140.836	   6.250
     66.7746	   6.000	   8.798	-141.798	   6.250
     66.8081	   7.000	   8.763	-140.763	   6.251
     66.8415	   8.000	   8.731	-139.731	   6.251
     66.8749	   5.000	   8.701	-142.701	   6.251
     66.9083	   5.000	   8.674	-142.674	   6.251
     66.9418	  10.000	   8.648	-137.648	   6.252
     66.9752	  10.000	   8.624	-137.624	   6.252
     67.0086	   8.000	   8.602	-139.602	   6.252
     67.0420	   9.000	   8.582	-138.582	   6.252
     67.0754	   8.000	   8.563	-139.563	   6.253
     67.1089	   8.000	   8.541	-139.541	   6.253
     67.1423	   8.000	   8.525	-139.525	   6.253
     67.1757	   5.000	   8.510	-142.510	   6.253
     67.2091	   6.000	   8.496	-141.496	   6.254
     67.2426	   9.000	   8.484	-138.484	   6.254
     67.2760	   5.000	   8.472	-142.472	   6.254
     67.3094	  10.000	   8.460	-137.460	   6.255
     67.3428	   6.000	   8.450	-141.450	   6.255
     67.3762	   2.000	   8.441	-145.441	   6.255
     67.4097	   7.000	   8.434	-140.434	   6.256
     67.4431	   9.000	   8.427	-138.427	   6.256
     67.4765	   6.000	   8.421	-141.421	   6.256
     67.5099	   7.000	   8.416	-140.416	   6.257
     67.5434	  11.000	   8.412	-136.412	   6.257
     67.5768	   4.000	   8.409	-143.409	   6.257
     67.6102	   9.000	   8.406	-138.406	   6.258
     67.6436	  11.000	   8.405	-136.405	   6.258
     67.6770	   4.000	   8.404	-143.404	   6.259
     67.7105	   9.000	   8.404	-138.404	   6.259
     67.7439	   7.000	   8.405	-140.405	   6.259
     67.7773	  11.000	   8.407	-136.407	   6.260
     67.8107	   7.000	   8.410	-140.410	   6.260
     67.8442	   7.000	   8.414	-140.414	   6.261
     67.8776	   8.000	   8.419	-139.419	   6.261
     67.9110	   7.000	   8.425	-140.425	   6.261
     67.9444	   9.000	   8.432	-138.432	   6.262
     67.9779	   5.000	   8.441	-142.441	   6.262
     68.0113	   9.000	   8.450	-138.450	   6.263
     68.0447	   5.000	   8.461	-142.461	   6.263
     68.0781	   5.000	   8.462	-142.462	   6.264
     68.1115	   8.000	   8.476	-139.476	   6.264
     68.1450	  13.000	   8.492	-134.492	   6.264
     68.1784	   9.000	   8.510	-138.510	   6.265
     68.2118	   6.000	   8.530	-141.530	   6.265
     68.2452	   9.000	   8.546	-138.546	   6.266
     68.2787	   7.000	   8.571	-140.571	   6.266
     68.3121	   8.000	   8.599	-139.599	   6.267
     68.3455	   8.000	   8.634	-139.634	   6.267
     68.3789	   9.000	   8.669	-138.669	   6.268
     68.4123	   7.000	   8.708	-140.708	   6.268
     68.4458	   7.000	   8.752	-140.752	   6.269
     68.4792	   5.000	   8.801	-142.801	   6.269
     68.5126	   4.000	   8.858	-143.858	   6.270
     68.5460	   7.000	   8.921	-140.921	   6.270
     68.5795	  15.000	   8.991	-132.991	   6.271
     68.6129	   8.000	   9.071	-140.071	   6.271
     68.6463	  14.000	   9.161	-134.161	   6.272
     68.6797	   5.000	   9.263	-143.263	   6.272
     68.7132	   5.000	   9.379	-143.379	   6.273
     68.7466	   6.000	   9.509	-142.509	   6.273
     68.7800	   4.000	   9.656	-144.656	   6.274
     68.8134	  10.000	   9.819	-138.819	   6.275
     68.8468	   5.000	  10.002	-144.002	   6.275
     68.8803	  16.000	  10.204	-133.204	   6.276
     68.9137	   5.000	  10.423	-144.423	   6.276
     68.9471	  11.000	  10.655	-138.655	   6.277
     68.9805	   9.000	  10.894	-140.894	   6.277
     69.0140	  11.000	  11.130	-139.130	   6.278
     69.0474	  13.000	  11.353	-137.353	   6.278
     69.0808	  11.000	  11.548	-139.548	   6.279
     69.1142	  13.000	  11.703	-137.703	   6.280
     69.1476	  15.000	  11.810	-135.810	   6.280
     69.1811	  10.000	  11.864	-140.864	   6.281
     69.2145	   6.000	  11.867	-144.867	   6.281
     69.2479	   7.000	  11.825	-143.826	   6.282
     69.2813	  10.000	  11.746	-140.746	   6.283
     69.3148	   5.000	  11.636	-145.636	   6.283
     69.3482	   6.000	  11.504	-144.504	   6.284
     69.3816	  11.000	  11.356	-139.356	   6.284
     69.4150	  11.000	  11.202	-139.202	   6.285
     69.4484	  10.000	  11.050	-140.050	   6.286
     69.4819	   6.000	  10.908	-143.908	   6.286
     69.5153	   8.000	  10.783	-141.783	   6.287
     69.5487	   8.000	  10.679	-141.679	   6.288
     69.5821	   7.000	  10.601	-142.601	   6.288
     69.6156	   8.000	  10.549	-141.549	   6.289
     69.6490	  19.000	  10.526	-130.526	   6.289
     69.6824	  16.000	  10.532	-133.532	   6.290
     69.7158	  14.000	  10.569	-135.569	   6.291
     69.7492	   9.000	  10.636	-140.636	   6.291
     69.7827	   4.000	  10.735	-145.735	   6.292
     69.8161	  16.000	  10.866	-133.866	   6.293
     69.8495	   9.000	  11.031	-141.031	   6.293
     69.8829	   9.000	  11.229	-141.229	   6.294
     69.9164	   7.000	  11.459	-143.459	   6.295
     69.9498	  10.000	  11.718	-140.718	   6.295
     69.9832	   5.000	  12.001	-146.001	   6.296
     70.0166	  10.000	  12.298	-141.298	   6.297
     70.0500	   7.000	  12.595	-144.595	   6.297
     70.0835	  10.000	  12.874	-141.874	   6.298
     70.1169	   8.000	  13.116	-144.116	   6.299
     70.1503	   9.000	  13.301	-143.301	   6.300
     70.1837	  10.000	  13.417	-142.417	   6.300
     70.2172	  15.000	  13.455	-137.455	   6.301
     70.2506	  10.000	  13.417	-142.417	   6.302
     70.2840	  11.000	  13.310	-141.310	   6.302
     70.3174	  10.000	  13.143	-142.143	   6.303
     70.3509	   9.000	  12.925	-142.925	   6.304
     70.3843	  10.000	  12.668	-141.668	   6.304
     70.4177	  13.000	  12.381	-138.381	   6.305
     70.4511	   7.000	  12.074	-144.074	   6.306
     70.4845	  11.000	  11.760	-139.760	   6.307
     70.5180	  10.000	  11.450	-140.450	   6.307
     70.5514	  10.000	  11.151	-140.151	   6.308
     70.5848	  10.000	  10.871	-139.871	   6.309
     70.6182	   8.000	  10.613	-141.613	   6.310
     70.6517	   8.000	  10.378	-141.378	   6.310
     70.6851	   9.000	  10.167	-140.167	   6.311
     70.7185	  11.000	   9.978	-137.978	   6.312
     70.7519	   5.000	   9.811	-143.811	   6.312
     70.7853	   6.000	   9.663	-142.663	   6.313
     70.8188	   4.000	   9.532	-144.532	   6.314
     70.8522	   8.000	   9.417	-140.417	   6.315
     70.8856	  13.000	   9.315	-135.315	   6.315
     70.9190	   7.000	   9.226	-141.226	   6.316
     70.9525	  10.000	   9.147	-138.147	   6.317
     70.9859	   7.000	   9.077	-141.077	   6.318
     71.0193	  19.000	   9.016	-129.016	   6.319
     71.0527	  13.000	   8.962	-134.962	   6.319
     71.0862	   7.000	   8.914	-140.914	   6.320
     71.1196	  11.000	   8.872	-136.872	   6.321
     71.1530	   7.000	   8.835	-140.835	   6.322
     71.1864	   9.000	   8.802	-138.802	   6.322
     71.2198	   7.000	   8.774	-140.774	   6.323
     71.2533	   9.000	   8.749	-138.749	   6.324
     71.2867	  10.000	   8.728	-137.728	   6.325
     71.3201	   8.000	   8.710	-139.710	   6.325
     71.3535	  13.000	   8.695	-134.695	   6.326
     71.3870	   6.000	   8.682	-141.682	   6.327
     71.4204	  13.000	   8.672	-134.672	   6.328
     71.4538	  19.000	   8.665	-128.665	   6.329
     71.4872	   5.000	   8.660	-142.660	   6.329
     71.5206	   9.000	   8.657	-138.657	   6.330
     71.5541	  11.000	   8.657	-136.657	   6.331
     71.5875	   7.000	   8.659	-140.659	   6.332
     71.6209	  14.000	   8.663	-133.663	   6.333
     71.6543	  11.000	   8.670	-136.670	   6.333
     71.6878	   5.000	   8.678	-142.678	   6.334
     71.7212	   8.000	   8.690	-139.690	   6.335
     71.7546	   7.000	   8.703	-140.703	   6.336
     71.7880	   5.000	   8.720	-142.720	   6.337
     71.8214	   9.000	   8.734	-138.734	   6.337
     71.8549	   8.000	   8.756	-139.756	   6.338
     71.8883	   4.000	   8.782	-143.782	   6.339
     71.9217	   9.000	   8.811	-138.811	   6.340
     71.9551	   6.000	   8.845	-141.845	   6.341
     71.9886	   3.000	   8.882	-144.882	   6.341
     72.0220	  13.000	   8.922	-134.922	   6.342
     72.0554	   7.000	   8.970	-140.970	   6.343
     72.0888	   4.000	   9.023	-144.023	   6.344
     72.1222	   5.000	   9.084	-143.084	   6.345
     72.1557	  11.000	   9.152	-137.152	   6.346
     72.1891	  10.000	   9.226	-138.226	   6.346
     72.2225	  10.000	   9.313	-138.313	   6.347
     72.2559	   7.000	   9.411	-141.411	   6.348
     72.2894	   5.000	   9.521	-143.521	   6.349
     72.3228	   9.000	   9.646	-139.646	   6.350
     72.3562	   7.000	   9.786	-141.786	   6.350
     72.3896	  18.000	   9.943	-130.943	   6.351
     72.4230	  13.000	  10.122	-136.122	   6.352
     72.4565	   8.000	  10.323	-141.323	   6.353
     72.4899	  18.000	  10.547	-131.547	   6.354
     72.5233	   7.000	  10.797	-142.797	   6.355
     72.5567	   8.000	  11.072	-142.072	   6.355
     72.5902	   5.000	  11.371	-145.371	   6.356
     72.6236	  15.000	  11.689	-135.689	   6.357
     72.6570	  11.000	  12.023	-140.023	   6.358
     72.6904	   6.000	  12.362	-145.362	   6.359
     72.7239	  13.000	  12.690	-138.690	   6.360
     72.7573	  11.000	  12.991	-140.991	   6.360
     72.7907	   3.000	  13.248	-149.248	   6.361
     72.8241	   9.000	  13.443	-143.443	   6.362
     72.8575	  13.000	  13.569	-139.569	   6.363
     72.8910	  15.000	  13.623	-137.623	   6.364
     72.9244	  16.000	  13.608	-136.608	   6.365
     72.9578	  15.000	  13.530	-137.530	   6.366
     72.9912	   5.000	  13.401	-147.401	   6.366
     73.0247	  10.000	  13.229	-142.229	   6.367
     73.0581	  18.000	  13.023	-134.023	   6.368
     73.0915	  13.000	  12.794	-138.794	   6.369
     73.1249	   9.000	  12.552	-142.552	   6.370
     73.1583	  10.000	  12.309	-141.309	   6.371
     73.1918	  10.000	  12.074	-141.074	   6.371
     73.2252	   4.000	  11.858	-146.858	   6.372
     73.2586	  11.000	  11.666	-139.666	   6.373
     73.2920	   8.000	  11.502	-142.502	   6.374
     73.3255	  10.000	  11.370	-140.370	   6.375
     73.3589	   9.000	  11.268	-141.268	   6.376
     73.3923	  14.000	  11.196	-136.196	   6.377
     73.4257	   9.000	  11.150	-141.150	   6.377
     73.4592	   8.000	  11.125	-142.125	   6.378
     73.4926	   6.000	  11.114	-144.114	   6.379
     73.5260	   4.000	  11.110	-146.110	   6.380
     73.5594	  13.000	  11.104	-137.104	   6.381
     73.5928	  13.000	  11.089	-137.089	   6.382
     73.6263	   7.000	  11.058	-143.058	   6.383
     73.6597	   8.000	  11.008	-142.008	   6.383
     73.6931	  11.000	  10.937	-138.937	   6.384
     73.7265	   5.000	  10.849	-144.849	   6.385
     73.7599	  13.000	  10.743	-136.743	   6.386
     73.7934	   6.000	  10.624	-143.624	   6.387
     73.8268	   6.000	  10.494	-143.494	   6.388
     73.8602	  10.000	  10.356	-139.356	   6.388
     73.8936	  10.000	  10.213	-139.213	   6.389
     73.9271	  13.000	  10.068	-136.068	   6.390
     73.9605	   9.000	   9.924	-139.924	   6.391
     73.9939	   9.000	   9.786	-139.786	   6.392
     74.0273	   8.000	   9.654	-140.654	   6.393
     74.0608	   9.000	   9.532	-139.532	   6.394
     74.0942	  11.000	   9.419	-137.419	   6.394
     74.1276	  10.000	   9.317	-138.317	   6.395
     74.1610	  10.000	   9.224	-138.224	   6.396
     74.1944	   8.000	   9.140	-140.140	   6.397
     74.2279	   8.000	   9.066	-140.066	   6.398
     74.2613	   4.000	   8.999	-143.999	   6.399
     74.2947	  10.000	   8.939	-137.939	   6.400
     74.3281	  13.000	   8.886	-134.886	   6.400
     74.3616	  15.000	   8.839	-132.839	   6.401
     74.3950	  11.000	   8.797	-136.797	   6.402
     74.4284	  15.000	   8.759	-132.759	   6.403
     74.4618	  14.000	   8.726	-133.726	   6.404
     74.4952	   7.000	   8.696	-140.696	   6.405
     74.5287	   7.000	   8.670	-140.670	   6.405
     74.5621	  10.000	   8.647	-137.647	   6.406
     74.5955	  10.000	   8.624	-137.624	   6.407
     74.6289	  15.000	   8.605	-132.605	   6.408
     74.6624	   8.000	   8.589	-139.589	   6.409
     74.6958	  11.000	   8.576	-136.576	   6.410
     74.7292	   6.000	   8.564	-141.564	   6.411
     74.7626	  10.000	   8.554	-137.554	   6.411
     74.7961	   7.000	   8.544	-140.544	   6.412
     74.8295	  10.000	   8.537	-137.537	   6.413
     74.8629	  11.000	   8.532	-136.532	   6.414
     74.8963	   8.000	   8.528	-139.528	   6.415
     74.9297	   7.000	   8.525	-140.525	   6.416
     74.9632	  18.000	   8.524	-129.524	   6.416
     74.9966	   7.000	   8.524	-140.524	   6.417
     75.0300	  15.000	   8.526	-132.526	   6.418
     75.0634	   6.000	   8.529	-141.529	   6.419
     75.0969	   6.000	   8.533	-141.533	   6.420
     75.1303	  15.000	   8.539	-132.539	   6.421
     75.1637	  13.000	   8.546	-134.546	   6.421
     75.1971	  10.000	   8.555	-137.555	   6.422
     75.2305	   8.000	   8.565	-139.565	   6.423
     75.2640	   6.000	   8.577	-141.577	   6.424
     75.2974	   8.000	   8.591	-139.591	   6.425
     75.3308	   9.000	   8.607	-138.607	   6.426
     75.3642	   4.000	   8.626	-143.626	   6.426
     75.3977	  10.000	   8.646	-137.646	   6.427
     75.4311	  11.000	   8.669	-136.669	   6.428
     75.4645	  11.000	   8.695	-136.695	   6.429
     75.4979	  11.000	   8.724	-136.724	   6.430
     75.5313	  15.000	   8.757	-132.757	   6.430
     75.5648	  10.000	   8.793	-137.793	   6.431
     75.5982	   5.000	   8.834	-142.834	   6.432
     75.6316	   6.000	   8.879	-141.879	   6.433
     75.6650	  17.000	   8.930	-130.930	   6.434
     75.6985	   8.000	   8.987	-139.987	   6.435
     75.7319	  14.000	   9.051	-134.051	   6.435
     75.7653	  10.000	   9.122	-138.122	   6.436
     75.7987	   9.000	   9.201	-139.201	   6.437
     75.8321	   9.000	   9.290	-139.290	   6.438
     75.8656	  13.000	   9.388	-135.388	   6.439
     75.8990	   3.000	   9.497	-145.497	   6.439
     75.9324	   8.000	   9.616	-140.616	   6.440
     75.9658	  10.000	   9.746	-138.746	   6.441
     75.9993	  10.000	   9.885	-138.885	   6.442
     76.0327	  13.000	  10.032	-136.032	   6.443
     76.0661	   7.000	  10.183	-142.183	   6.443
     76.0995	  10.000	  10.335	-139.335	   6.444
     76.1329	   9.000	  10.481	-140.481	   6.445
     76.1664	  10.000	  10.616	-139.616	   6.446
     76.1998	  16.000	  10.733	-133.733	   6.447
     76.2332	  13.000	  10.829	-136.829	   6.447
     76.2666	  11.000	  10.900	-138.900	   6.448
     76.3001	  10.000	  10.947	-139.947	   6.449
     76.3335	   7.000	  10.972	-142.972	   6.450
     76.3669	  16.000	  10.980	-133.980	   6.450
     76.4003	   9.000	  10.972	-140.973	   6.451
     76.4338	  11.000	  10.955	-138.955	   6.452
     76.4672	  14.000	  10.926	-135.926	   6.453
     76.5006	  11.000	  10.900	-138.900	   6.454
     76.5340	  15.000	  10.876	-134.876	   6.454
     76.5674	   6.000	  10.860	-143.860	   6.455
     76.6009	   5.000	  10.856	-144.856	   6.456
     76.6343	  17.000	  10.870	-132.870	   6.457
     76.6677	  17.000	  10.900	-132.900	   6.457
     76.7011	  11.000	  10.956	-138.956	   6.458
     76.7346	  16.000	  11.037	-134.037	   6.459
     76.7680	  14.000	  11.144	-136.144	   6.460
     76.8014	  11.000	  11.277	-139.277	   6.460
     76.8348	   9.000	  11.436	-141.436	   6.461
     76.8682	  11.000	  11.614	-139.614	   6.462
     76.9017	   8.000	  11.805	-142.805	   6.463
     76.9351	  17.000	  12.004	-134.004	   6.463
     76.9685	  19.000	  12.198	-132.198	   6.464
     77.0019	  14.000	  12.375	-137.375	   6.465
     77.0354	  10.000	  12.523	-141.523	   6.466
     77.0688	  11.000	  12.632	-140.632	   6.466
     77.1022	  11.000	  12.693	-140.693	   6.467
     77.1356	   8.000	  12.702	-143.702	   6.468
     77.1691	  16.000	  12.663	-135.663	   6.469
     77.2025	   8.000	  12.577	-143.577	   6.469
     77.2359	   8.000	  12.452	-143.452	   6.470
     77.2693	  17.000	  12.294	-134.294	   6.471
     77.3027	  10.000	  12.107	-141.107	   6.471
     77.3362	  15.000	  11.897	-135.897	   6.472
     77.3696	  17.000	  11.671	-133.671	   6.473
     77.4030	  11.000	  11.435	-139.435	   6.474
     77.4364	   7.000	  11.197	-143.197	   6.474
     77.4699	   8.000	  10.961	-141.961	   6.475
     77.5033	  14.000	  10.734	-135.734	   6.476
     77.5367	   7.000	  10.515	-142.515	   6.476
     77.5701	  13.000	  10.315	-136.315	   6.477
     77.6035	  16.000	  10.130	-133.130	   6.478
     77.6370	  14.000	   9.963	-134.963	   6.479
     77.6704	  10.000	   9.811	-138.811	   6.479
     77.7038	   9.000	   9.674	-139.674	   6.480
     77.7372	  10.000	   9.549	-138.549	   6.481
     77.7707	  11.000	   9.439	-137.439	   6.481
     77.8041	  11.000	   9.340	-137.340	   6.482
     77.8375	  10.000	   9.251	-138.251	   6.483
     77.8709	  13.000	   9.172	-135.172	   6.483
     77.9043	  11.000	   9.101	-137.101	   6.484
     77.9378	   9.000	   9.037	-139.037	   6.485
     77.9712	  10.000	   8.980	-137.980	   6.485
     78.0046	  13.000	   8.929	-134.929	   6.486
     78.0380	  11.000	   8.882	-136.882	   6.487
     78.0715	   8.000	   8.840	-139.840	   6.487
     78.1049	  14.000	   8.803	-133.803	   6.488
     78.1383	   8.000	   8.768	-139.768	   6.489
     78.1717	  13.000	   8.737	-134.737	   6.489
     78.2051	  15.000	   8.709	-132.709	   6.490
     78.2386	  13.000	   8.684	-134.684	   6.491
     78.2720	   9.000	   8.661	-138.661	   6.491
     78.3054	  10.000	   8.640	-137.639	   6.492
     78.3388	   9.000	   8.620	-138.620	   6.493
     78.3723	   9.000	   8.603	-138.603	   6.493
     78.4057	  11.000	   8.586	-136.586	   6.494
     78.4391	  16.000	   8.572	-131.572	   6.495
     78.4725	   8.000	   8.558	-139.558	   6.495
     78.5060	   8.000	   8.546	-139.546	   6.496
     78.5394	   8.000	   8.534	-139.534	   6.496
     78.5728	  10.000	   8.524	-137.524	   6.497
     78.6062	  16.000	   8.514	-131.514	   6.498
     78.6396	  16.000	   8.506	-131.506	   6.498
     78.6731	  17.000	   8.498	-130.498	   6.499
     78.7065	   8.000	   8.491	-139.491	   6.499
     78.7399	   9.000	   8.485	-138.485	   6.500
     78.7733	  20.000	   8.479	-127.479	   6.501
     78.8068	   6.000	   8.474	-141.474	   6.501
     78.8402	   7.000	   8.470	-140.470	   6.502
     78.8736	  16.000	   8.467	-131.467	   6.502
     78.9070	   9.000	   8.464	-138.464	   6.503
     78.9404	  18.000	   8.461	-129.461	   6.504
     78.9739	  10.000	   8.460	-137.460	   6.504
     79.0073	  15.000	   8.459	-132.459	   6.505
     79.0407	  17.000	   8.458	-130.458	   6.505
     79.0741	   8.000	   8.458	-139.458	   6.506
     79.1076	  11.000	   8.459	-136.459	   6.506
     79.1410	   9.000	   8.460	-138.460	   6.507
     79.1744	  11.000	   8.461	-136.461	   6.508
     79.2078	  11.000	   8.464	-136.464	   6.508
     79.2412	  11.000	   8.466	-136.466	   6.509
     79.2747	  14.000	   8.469	-133.469	   6.509
     79.3081	  19.000	   8.473	-128.473	   6.510
     79.3415	   7.000	   8.478	-140.478	   6.510
     79.3749	  15.000	   8.482	-132.482	   6.511
     79.4084	   8.000	   8.488	-139.488	   6.511
     79.4418	   9.000	   8.494	-138.494	   6.512
     79.4752	   8.000	   8.501	-139.501	   6.512
     79.5086	  10.000	   8.508	-137.508	   6.513
     79.5421	  17.000	   8.516	-130.516	   6.514
     79.5755	   7.000	   8.525	-140.525	   6.514
     79.6089	  16.000	   8.534	-131.534	   6.515
     79.6423	  10.000	   8.545	-137.545	   6.515
     79.6757	   8.000	   8.556	-139.556	   6.516
     79.7092	   9.000	   8.568	-138.568	   6.516
     79.7426	  10.000	   8.580	-137.580	   6.517
     79.7760	  10.000	   8.594	-137.594	   6.517
     79.8094	  13.000	   8.611	-134.611	   6.518
     79.8428	   9.000	   8.627	-138.627	   6.518
     79.8763	  10.000	   8.644	-137.644	   6.519
     79.9097	  10.000	   8.663	-137.663	   6.519
     79.9431	  10.000	   8.683	-137.683	   6.520
     79.9765	  16.000	   8.705	-131.705	   6.520
     80.0100	  13.000	   8.728	-134.728	   6.520
     80.0434	  17.000	   8.754	-130.754	   6.521
     80.0768	   7.000	   8.782	-140.782	   6.521
     80.1102	   5.000	   8.812	-142.812	   6.522
     80.1437	  13.000	   8.844	-134.844	   6.522
     80.1771	  13.000	   8.879	-134.879	   6.523
     80.2105	  16.000	   8.917	-131.917	   6.523
     80.2439	   7.000	   8.958	-140.958	   6.524
     80.2773	  17.000	   9.003	-131.003	   6.524
     80.3108	  14.000	   9.053	-134.053	   6.525
     80.3442	  10.000	   9.107	-138.107	   6.525
     80.3776	  14.000	   9.166	-134.166	   6.525
     80.4110	  17.000	   9.231	-131.231	   6.526
     80.4445	  10.000	   9.302	-138.302	   6.526
     80.4779	   9.000	   9.380	-139.380	   6.527
     80.5113	  13.000	   9.466	-135.466	   6.527
     80.5447	  17.000	   9.560	-131.560	   6.527
     80.5781	  13.000	   9.662	-135.662	   6.528
     80.6116	  13.000	   9.773	-135.773	   6.528
     80.6450	  16.000	   9.893	-132.893	   6.529
     80.6784	  18.000	  10.022	-131.022	   6.529
     80.7118	  16.000	  10.158	-133.158	   6.529
     80.7453	  13.000	  10.301	-136.301	   6.530
     80.7787	   9.000	  10.449	-140.449	   6.530
     80.8121	  13.000	  10.600	-136.600	   6.531
     80.8455	  17.000	  10.751	-132.751	   6.531
     80.8790	  10.000	  10.902	-139.902	   6.531
     80.9124	  14.000	  11.050	-136.050	   6.532
     80.9458	  14.000	  11.198	-136.198	   6.532
     80.9792	  14.000	  11.345	-136.345	   6.532
     81.0126	  21.000	  11.495	-129.495	   6.533
     81.0461	  11.000	  11.650	-139.650	   6.533
     81.0795	   8.000	  11.813	-142.813	   6.533
     81.1129	  13.000	  11.987	-137.987	   6.534
     81.1463	  16.000	  12.172	-135.172	   6.534
     81.1798	  11.000	  12.369	-140.369	   6.534
     81.2132	  15.000	  12.579	-136.579	   6.535
     81.2466	  10.000	  12.798	-141.798	   6.535
     81.2800	   9.000	  13.023	-143.023	   6.535
     81.3134	  16.000	  13.246	-136.246	   6.536
     81.3469	   8.000	  13.459	-144.459	   6.536
     81.3803	  16.000	  13.651	-136.651	   6.536
     81.4137	  14.000	  13.811	-138.811	   6.537
     81.4471	  13.000	  13.929	-139.929	   6.537
     81.4806	  11.000	  13.999	-141.999	   6.537
     81.5140	  10.000	  14.020	-143.020	   6.538
     81.5474	  22.000	  13.991	-130.991	   6.538
     81.5808	  10.000	  13.919	-142.919	   6.538
     81.6143	  14.000	  13.808	-138.808	   6.538
     81.6477	  16.000	  13.664	-136.664	   6.539
     81.6811	  19.000	  13.493	-133.493	   6.539
     81.7145	  16.000	  13.300	-136.300	   6.539
     81.7479	  18.000	  13.088	-134.088	   6.539
     81.7814	   7.000	  12.867	-144.867	   6.540
     81.8148	   7.000	  12.640	-144.640	   6.540
     81.8482	  17.000	  12.413	-134.413	   6.540
     81.8816	  16.000	  12.191	-135.191	   6.540
     81.9151	  20.000	  11.978	-130.978	   6.541
     81.9485	  19.000	  11.776	-131.776	   6.541
     81.9819	  14.000	  11.586	-136.586	   6.541
     82.0153	   9.000	  11.408	-141.408	   6.541
     82.0487	  15.000	  11.242	-135.242	   6.541
     82.0822	  17.000	  11.087	-133.087	   6.542
     82.1156	  18.000	  10.943	-131.943	   6.542
     82.1490	  18.000	  10.810	-131.810	   6.542
     82.1824	  10.000	  10.686	-139.686	   6.542
     82.2159	   8.000	  10.573	-141.573	   6.542
     82.2493	  13.000	  10.468	-136.468	   6.543
     82.2827	  18.000	  10.371	-131.371	   6.543
     82.3161	  16.000	  10.283	-133.283	   6.543
     82.3495	  11.000	  10.203	-138.203	   6.543
     82.3830	   9.000	  10.131	-140.131	   6.543
     82.4164	  11.000	  10.067	-138.067	   6.544
     82.4498	  10.000	  10.011	-139.011	   6.544
     82.4832	  15.000	   9.963	-133.964	   6.544
     82.5167	  15.000	   9.924	-133.924	   6.544
     82.5501	   9.000	   9.892	-139.892	   6.544
     82.5835	  11.000	   9.869	-137.869	   6.544
     82.6169	  13.000	   9.853	-135.853	   6.544
     82.6503	   9.000	   9.846	-139.846	   6.545
     82.6838	  16.000	   9.846	-132.846	   6.545
     82.7172	  13.000	   9.854	-135.854	   6.545
     82.7506	  13.000	   9.870	-135.870	   6.545
     82.7840	  13.000	   9.894	-135.894	   6.545
     82.8175	   9.000	   9.926	-139.926	   6.545
     82.8509	  10.000	   9.967	-138.967	   6.545
     82.8843	  10.000	  10.016	-139.016	   6.545
     82.9177	  10.000	  10.075	-139.075	   6.545
     82.9511	   6.000	  10.142	-143.142	   6.545
     82.9846	  13.000	  10.222	-136.222	   6.546
     83.0180	   9.000	  10.314	-140.314	   6.546
     83.0514	   8.000	  10.419	-141.419	   6.546
     83.0848	  13.000	  10.539	-136.539	   6.546
     83.1183	   8.000	  10.673	-141.673	   6.546
     83.1517	  14.000	  10.824	-135.824	   6.546
     83.1851	  19.000	  10.994	-130.994	   6.546
     83.2185	  17.000	  11.185	-133.185	   6.546
     83.2520	  15.000	  11.397	-135.397	   6.546
     83.2854	  13.000	  11.633	-137.633	   6.546
     83.3188	  10.000	  11.895	-140.895	   6.546
     83.3522	   7.000	  12.183	-144.183	   6.546
     83.3856	   7.000	  12.499	-144.499	   6.546
     83.4191	  19.000	  12.842	-132.842	   6.546
     83.4525	   9.000	  13.210	-143.210	   6.546
     83.4859	  17.000	  13.598	-135.598	   6.546
     83.5193	  18.000	  14.002	-135.002	   6.546
     83.5528	  13.000	  14.410	-140.410	   6.546
     83.5862	  22.000	  14.812	-131.812	   6.546
     83.6196	  18.000	  15.192	-136.192	   6.546
     83.6530	  13.000	  15.533	-141.533	   6.546
     83.6864	  18.000	  15.821	-136.821	   6.546
     83.7199	  20.000	  16.044	-135.044	   6.546
     83.7533	  11.000	  16.193	-144.193	   6.546
     83.7867	  15.000	  16.267	-140.267	   6.546
     83.8201	  15.000	  16.268	-140.268	   6.546
     83.8536	  20.000	  16.204	-135.204	   6.546
     83.8870	  19.000	  16.083	-136.083	   6.546
     83.9204	  10.000	  15.912	-144.912	   6.546
     83.9538	  10.000	  15.700	-144.700	   6.546
     83.9873	   9.000	  15.455	-145.455	   6.546
     84.0207	  10.000	  15.185	-144.185	   6.545
     84.0541	  11.000	  14.897	-142.897	   6.545
     84.0875	   8.000	  14.602	-145.602	   6.545
     84.1209	  19.000	  14.309	-134.309	   6.545
     84.1544	  10.000	  14.027	-143.027	   6.545
     84.1878	  14.000	  13.764	-138.764	   6.545
     84.2212	  13.000	  13.526	-139.526	   6.545
     84.2546	  10.000	  13.318	-142.318	   6.545
     84.2880	  19.000	  13.144	-133.144	   6.545
     84.3215	  14.000	  13.004	-138.004	   6.545
     84.3549	  19.000	  12.901	-132.901	   6.544
     84.3883	   1.000	  12.833	-150.833	   6.544
     84.4217	  16.000	  12.799	-135.799	   6.544
     84.4552	  15.000	  12.798	-136.798	   6.544
     84.4886	   9.000	  12.826	-142.826	   6.544
     84.5220	  15.000	  12.881	-136.881	   6.544
     84.5554	  15.000	  12.957	-136.957	   6.543
     84.5889	  13.000	  13.046	-139.046	   6.543
     84.6223	   8.000	  13.140	-144.140	   6.543
     84.6557	  13.000	  13.231	-139.231	   6.543
     84.6891	   8.000	  13.308	-144.308	   6.543
     84.7225	  13.000	  13.363	-139.363	   6.543
     84.7560	  20.000	  13.388	-132.388	   6.542
     84.7894	  20.000	  13.381	-132.381	   6.542
     84.8228	  18.000	  13.337	-134.337	   6.542
     84.8562	  11.000	  13.260	-141.260	   6.542
     84.8897	   4.000	  13.152	-148.152	   6.542
     84.9231	  10.000	  13.016	-142.016	   6.541
     84.9565	  13.000	  12.857	-138.857	   6.541
     84.9899	  14.000	  12.677	-137.677	   6.541
     85.0233	  11.000	  12.481	-140.481	   6.541
     85.0568	  14.000	  12.272	-137.272	   6.540
     85.0902	  15.000	  12.054	-136.054	   6.540
     85.1236	   8.000	  11.831	-142.831	   6.540
     85.1570	  14.000	  11.608	-136.608	   6.540
     85.1905	   9.000	  11.389	-141.389	   6.539
     85.2239	  13.000	  11.177	-137.177	   6.539
     85.2573	   5.000	  10.975	-144.975	   6.539
     85.2907	   8.000	  10.786	-141.786	   6.538
     85.3242	  11.000	  10.609	-138.609	   6.538
     85.3576	   3.000	  10.447	-146.447	   6.538
     85.3910	  11.000	  10.298	-138.298	   6.538
     85.4244	  10.000	  10.162	-139.162	   6.537
     85.4578	  10.000	  10.040	-139.040	   6.537
     85.4913	  16.000	   9.929	-132.929	   6.537
     85.5247	   8.000	   9.830	-140.830	   6.536
     85.5581	  13.000	   9.741	-135.741	   6.536
     85.5915	   7.000	   9.661	-141.661	   6.536
     85.6250	  15.000	   9.591	-133.591	   6.535
     85.6584	   7.000	   9.529	-141.529	   6.535
     85.6918	  11.000	   9.474	-137.474	   6.535
     85.7252	  11.000	   9.427	-137.427	   6.534
     85.7586	   7.000	   9.387	-141.387	   6.534
     85.7921	   5.000	   9.353	-143.353	   6.534
     85.8255	  14.000	   9.326	-134.326	   6.533
     85.8589	  14.000	   9.304	-134.304	   6.533
     85.8923	  13.000	   9.289	-135.289	   6.532
     85.9258	   8.000	   9.279	-140.279	   6.532
     85.9592	  11.000	   9.275	-137.275	   6.532
     85.9926	  11.000	   9.276	-137.276	   6.531
     86.0260	   7.000	   9.284	-141.284	   6.531
     86.0594	  14.000	   9.296	-134.296	   6.530
     86.0929	  15.000	   9.311	-133.311	   6.530
     86.1263	   5.000	   9.332	-143.332	   6.529
     86.1597	  14.000	   9.357	-134.357	   6.529
     86.1931	  10.000	   9.385	-138.385	   6.529
     86.2266	  13.000	   9.414	-135.414	   6.528
     86.2600	   7.000	   9.442	-141.442	   6.528
     86.2934	  11.000	   9.467	-137.467	   6.527
     86.3268	   8.000	   9.487	-140.487	   6.527
     86.3602	   7.000	   9.501	-141.501	   6.526
     86.3937	  13.000	   9.507	-135.507	   6.526
     86.4271	  11.000	   9.505	-137.505	   6.525
     86.4605	   8.000	   9.494	-140.494	   6.525
     86.4939	  10.000	   9.475	-138.475	   6.524
     86.5274	  14.000	   9.448	-134.448	   6.524
     86.5608	   8.000	   9.415	-140.415	   6.523
     86.5942	   7.000	   9.376	-141.376	   6.523
     86.6276	  15.000	   9.332	-133.332	   6.522
     86.6610	   7.000	   9.284	-141.284	   6.522
     86.6945	   9.000	   9.232	-139.232	   6.521
     86.7279	   8.000	   9.180	-140.180	   6.521
     86.7613	  14.000	   9.125	-134.125	   6.520
     86.7947	  10.000	   9.069	-138.069	   6.520
     86.8282	  16.000	   9.014	-132.014	   6.519
     86.8616	  13.000	   8.960	-134.960	   6.519
     86.8950	   6.000	   8.909	-141.909	   6.518
     86.9284	   9.000	   8.860	-138.860	   6.518
     86.9619	   6.000	   8.814	-141.814	   6.517
     86.9953	  11.000	   8.771	-136.771	   6.516
     87.0287	  11.000	   8.731	-136.731	   6.516
     87.0621	   6.000	   8.694	-141.694	   6.515
     87.0955	  14.000	   8.660	-133.660	   6.515
     87.1290	   9.000	   8.628	-138.628	   6.514
     87.1624	   6.000	   8.599	-141.599	   6.513
     87.1958	  10.000	   8.572	-137.572	   6.513
     87.2292	  19.000	   8.548	-128.548	   6.512
     87.2627	   7.000	   8.525	-140.525	   6.512
     87.2961	   8.000	   8.504	-139.504	   6.511
     87.3295	  11.000	   8.485	-136.485	   6.510
     87.3629	   9.000	   8.467	-138.467	   6.510
     87.3963	   9.000	   8.450	-138.450	   6.509
     87.4298	   7.000	   8.435	-140.435	   6.508
     87.4632	  13.000	   8.421	-134.421	   6.508
     87.4966	   6.000	   8.407	-141.407	   6.507
     87.5300	  10.000	   8.395	-137.395	   6.506
     87.5635	   6.000	   8.383	-141.383	   6.506
     87.5969	   9.000	   8.372	-138.372	   6.505
     87.6303	   9.000	   8.362	-138.362	   6.504
     87.6637	  13.000	   8.352	-134.352	   6.504
     87.6972	   8.000	   8.343	-139.343	   6.503
     87.7306	  11.000	   8.334	-136.334	   6.502
     87.7640	   7.000	   8.326	-140.326	   6.501
     87.7974	   6.000	   8.318	-141.318	   6.501
     87.8308	   7.000	   8.310	-140.310	   6.500
     87.8643	   9.000	   8.303	-138.303	   6.499
     87.8977	   4.000	   8.297	-143.297	   6.499
     87.9311	  10.000	   8.290	-137.290	   6.498
     87.9645	   9.000	   8.284	-138.284	   6.497
     87.9979	  13.000	   8.278	-134.278	   6.496
     88.0314	   7.000	   8.273	-140.273	   6.496
     88.0648	   8.000	   8.267	-139.267	   6.495
     88.0982	   9.000	   8.262	-138.262	   6.494
     88.1316	  10.000	   8.257	-137.257	   6.493
     88.1651	   3.000	   8.253	-144.253	   6.492
     88.1985	   8.000	   8.248	-139.248	   6.492
     88.2319	   9.000	   8.244	-138.244	   6.491
     88.2653	  14.000	   8.240	-133.240	   6.490
     88.2988	   7.000	   8.236	-140.236	   6.489
     88.3322	  14.000	   8.232	-133.232	   6.488
     88.3656	   7.000	   8.228	-140.228	   6.488
     88.3990	   6.000	   8.224	-141.224	   6.487
     88.4324	  13.000	   8.221	-134.221	   6.486
     88.4659	   9.000	   8.218	-138.218	   6.485
     88.4993	   6.000	   8.214	-141.214	   6.484
     88.5327	  11.000	   8.211	-136.211	   6.483
     88.5661	  13.000	   8.208	-134.208	   6.482
     88.5996	   8.000	   8.205	-139.205	   6.482
     88.6330	  10.000	   8.203	-137.203	   6.481
     88.6664	   9.000	   8.200	-138.200	   6.480
     88.6998	  11.000	   8.197	-136.197	   6.479
     88.7332	   7.000	   8.195	-140.195	   6.478
     88.7667	   8.000	   8.192	-139.192	   6.477
     88.8001	   5.000	   8.190	-142.190	   6.476
     88.8335	   5.000	   8.188	-142.188	   6.475
     88.8669	   5.000	   8.186	-142.186	   6.474
     88.9004	   9.000	   8.183	-138.183	   6.474
     88.9338	   7.000	   8.181	-140.181	   6.473
     88.9672	   7.000	   8.179	-140.179	   6.472
     89.0006	  14.000	   8.178	-133.178	   6.471
     89.0340	   5.000	   8.176	-142.176	   6.470
     89.0675	   4.000	   8.174	-143.174	   6.469
     89.1009	   8.000	   8.172	-139.172	   6.468
     89.1343	   8.000	   8.171	-139.171	   6.467
     89.1677	   9.000	   8.169	-138.169	   6.466
     89.2012	   3.000	   8.168	-144.168	   6.465
     89.2346	   3.000	   8.166	-144.166	   6.464
     89.2680	  11.000	   8.165	-136.165	   6.463
     89.3014	   7.000	   8.163	-140.163	   6.462
     89.3349	   8.000	   8.162	-139.162	   6.461
     89.3683	   8.000	   8.161	-139.161	   6.460
     89.4017	   6.000	   8.160	-141.160	   6.459
     89.4351	  11.000	   8.159	-136.159	   6.458
     89.4685	  13.000	   8.158	-134.158	   6.457
     89.5020	   5.000	   8.157	-142.157	   6.456
     89.5354	   9.000	   8.156	-138.156	   6.455
     89.5688	  13.000	   8.155	-134.155	   6.454
     89.6022	  10.000	   8.154	-137.154	   6.453
     89.6357	   8.000	   8.153	-139.153	   6.452
     89.6691	   7.000	   8.153	-140.153	   6.451
     89.7025	   8.000	   8.152	-139.152	   6.450
     89.7359	   9.000	   8.151	-138.151	   6.449
     89.7693	   5.000	   8.151	-142.151	   6.448
     89.8028	   6.000	   8.150	-141.150	   6.446
     89.8362	  13.000	   8.150	-134.150	   6.445
     89.8696	   5.000	   8.149	-142.149	   6.444
     89.9030	   8.000	   8.149	-139.149	   6.443
     89.9365	   6.000	   8.149	-141.149	   6.442
     89.9699	  11.000	   8.149	-136.149	   6.441
     90.0033	  11.000	   8.149	-136.149	   6.440
     90.0367	  10.000	   8.148	-137.148	   6.439
     90.0701	  10.000	   8.148	-137.148	   6.438
     90.1036	   7.000	   8.148	-140.148	   6.436
     90.1370	  14.000	   8.148	-133.148	   6.435
     90.1704	   6.000	   8.148	-141.148	   6.434
     90.2038	  11.000	   8.148	-136.148	   6.433
     90.2373	  13.000	   8.148	-134.148	   6.432
     90.2707	  15.000	   8.149	-132.149	   6.431
     90.3041	  11.000	   8.149	-136.149	   6.430
     90.3375	   4.000	   8.150	-143.150	   6.428
     90.3709	   6.000	   8.150	-141.150	   6.427
     90.4044	  11.000	   8.151	-136.151	   6.426
     90.4378	   6.000	   8.151	-141.151	   6.425
     90.4712	   5.000	   8.152	-142.152	   6.424
     90.5046	  11.000	   8.153	-136.153	   6.422
     90.5381	   8.000	   8.154	-139.154	   6.421
     90.5715	   3.000	   8.155	-144.155	   6.420
     90.6049	  16.000	   8.157	-131.157	   6.419
     90.6383	  10.000	   8.158	-137.158	   6.417
     90.6718	  10.000	   8.159	-137.159	   6.416
     90.7052	   8.000	   8.161	-139.161	   6.415
     90.7386	   9.000	   8.163	-138.163	   6.414
     90.7720	  10.000	   8.164	-137.164	   6.412
     90.8054	  11.000	   8.166	-136.166	   6.411
     90.8389	   2.000	   8.168	-145.168	   6.410
     90.8723	   7.000	   8.171	-140.171	   6.409
     90.9057	   6.000	   8.173	-141.173	   6.407
     90.9391	   8.000	   8.175	-139.175	   6.406
     90.9726	   4.000	   8.178	-143.178	   6.405
     91.0060	  11.000	   8.181	-136.181	   6.403
     91.0394	   9.000	   8.184	-138.184	   6.402
     91.0728	  20.000	   8.187	-127.187	   6.401
     91.1062	  14.000	   8.190	-133.190	   6.400
     91.1397	   8.000	   8.192	-139.192	   6.398
     91.1731	   7.000	   8.196	-140.196	   6.397
     91.2065	   6.000	   8.200	-141.200	   6.396
     91.2399	  10.000	   8.204	-137.204	   6.394
     91.2734	   6.000	   8.209	-141.209	   6.393
     91.3068	   5.000	   8.214	-142.214	   6.391
     91.3402	  13.000	   8.219	-134.219	   6.390
     91.3736	   9.000	   8.224	-138.224	   6.389
     91.4071	   7.000	   8.229	-140.229	   6.387
     91.4405	  17.000	   8.235	-130.235	   6.386
     91.4739	   9.000	   8.242	-138.242	   6.385
     91.5073	   9.000	   8.249	-138.249	   6.383
     91.5407	   8.000	   8.256	-139.256	   6.382
     91.5742	   8.000	   8.264	-139.264	   6.380
     91.6076	  17.000	   8.272	-130.272	   6.379
     91.6410	   4.000	   8.281	-143.281	   6.378
     91.6744	  10.000	   8.290	-137.290	   6.376
     91.7079	   4.000	   8.299	-143.299	   6.375
     91.7413	   6.000	   8.309	-141.309	   6.373
     91.7747	  11.000	   8.320	-136.320	   6.372
     91.8081	  10.000	   8.331	-137.331	   6.370
     91.8415	  10.000	   8.343	-137.343	   6.369
     91.8750	  13.000	   8.355	-134.355	   6.367
     91.9084	   8.000	   8.368	-139.368	   6.366
     91.9418	   6.000	   8.382	-141.382	   6.365
     91.9752	   7.000	   8.396	-140.396	   6.363
     92.0087	  10.000	   8.412	-137.412	   6.362
     92.0421	   4.000	   8.428	-143.428	   6.360
     92.0755	   6.000	   8.445	-141.445	   6.359
     92.1089	   9.000	   8.464	-138.464	   6.357
     92.1423	   6.000	   8.484	-141.484	   6.356
     92.1758	   9.000	   8.507	-138.507	   6.354
     92.2092	   2.000	   8.530	-145.530	   6.353
     92.2426	   7.000	   8.556	-140.556	   6.351
     92.2760	   8.000	   8.584	-139.584	   6.350
     92.3095	   7.000	   8.614	-140.614	   6.348
     92.3429	   8.000	   8.646	-139.646	   6.346
     92.3763	   9.000	   8.682	-138.682	   6.345
     92.4097	   8.000	   8.721	-139.721	   6.343
     92.4431	   5.000	   8.763	-142.763	   6.342
     92.4766	   7.000	   8.808	-140.808	   6.340
     92.5100	  14.000	   8.857	-133.857	   6.339
     92.5434	   9.000	   8.911	-138.911	   6.337
     92.5768	   3.000	   8.968	-144.968	   6.336
     92.6103	   5.000	   9.029	-143.029	   6.334
     92.6437	  16.000	   9.095	-132.095	   6.332
     92.6771	   9.000	   9.163	-139.163	   6.331
     92.7105	   7.000	   9.235	-141.235	   6.329
     92.7439	  11.000	   9.309	-137.309	   6.328
     92.7774	   7.000	   9.384	-141.383	   6.326
     92.8108	   8.000	   9.457	-140.457	   6.324
     92.8442	   9.000	   9.529	-139.529	   6.323
     92.8776	  13.000	   9.595	-135.595	   6.321
     92.9111	   7.000	   9.656	-141.656	   6.319
     92.9445	   8.000	   9.709	-140.709	   6.318
     92.9779	   8.000	   9.752	-140.752	   6.316
     93.0113	   6.000	   9.785	-142.785	   6.314
     93.0448	  11.000	   9.808	-137.808	   6.313
     93.0782	  13.000	   9.822	-135.822	   6.311
     93.1116	   5.000	   9.828	-143.828	   6.309
     93.1450	   8.000	   9.827	-140.827	   6.308
     93.1784	   7.000	   9.819	-141.819	   6.306
     93.2119	   5.000	   9.805	-143.805	   6.304
     93.2453	  15.000	   9.787	-133.787	   6.303
     93.2787	  11.000	   9.766	-137.766	   6.301
     93.3121	   5.000	   9.742	-143.742	   6.299
     93.3456	   5.000	   9.717	-143.717	   6.297
     93.3790	  13.000	   9.691	-135.691	   6.296
     93.4124	  14.000	   9.666	-134.667	   6.294
     93.4458	  13.000	   9.644	-135.644	   6.292
     93.4792	  14.000	   9.624	-134.624	   6.291
     93.5127	   9.000	   9.609	-139.609	   6.289
     93.5461	   6.000	   9.598	-142.598	   6.287
     93.5795	  13.000	   9.593	-135.593	   6.285
     93.6129	   9.000	   9.594	-139.594	   6.284
     93.6464	  14.000	   9.602	-134.602	   6.282
     93.6798	   9.000	   9.617	-139.617	   6.280
     93.7132	  16.000	   9.639	-132.639	   6.278
     93.7466	  13.000	   9.669	-135.669	   6.276
     93.7801	  19.000	   9.707	-129.707	   6.275
     93.8135	  16.000	   9.753	-132.753	   6.273
     93.8469	   8.000	   9.808	-140.808	   6.271
     93.8803	   9.000	   9.871	-139.871	   6.269
     93.9137	  11.000	   9.945	-137.945	   6.267
     93.9472	  10.000	  10.028	-139.028	   6.266
     93.9806	   7.000	  10.121	-142.121	   6.264
     94.0140	  10.000	  10.227	-139.227	   6.262
     94.0474	   7.000	  10.344	-142.344	   6.260
     94.0808	  17.000	  10.474	-132.474	   6.258
     94.1143	  14.000	  10.618	-135.618	   6.256
     94.1477	   7.000	  10.777	-142.777	   6.255
     94.1811	   5.000	  10.952	-144.952	   6.253
     94.2145	  14.000	  11.143	-136.143	   6.251
     94.2480	   8.000	  11.352	-142.352	   6.249
     94.2814	   7.000	  11.579	-143.579	   6.247
     94.3148	   7.000	  11.824	-143.824	   6.245
     94.3482	   1.000	  12.087	-150.087	   6.243
     94.3817	   8.000	  12.368	-143.368	   6.241
     94.4151	  10.000	  12.665	-141.665	   6.239
     94.4485	  13.000	  12.975	-138.975	   6.238
     94.4819	   9.000	  13.296	-143.296	   6.236
     94.5153	   3.000	  13.623	-149.623	   6.234
     94.5488	  11.000	  13.951	-141.951	   6.232
     94.5822	  15.000	  14.274	-138.274	   6.230
     94.6156	   8.000	  14.586	-145.586	   6.228
     94.6490	  16.000	  14.881	-137.881	   6.226
     94.6825	  10.000	  15.155	-144.155	   6.224
     94.7159	   8.000	  15.403	-146.403	   6.222
     94.7493	  17.000	  15.621	-137.621	   6.220
     94.7827	  10.000	  15.806	-144.806	   6.218
     94.8161	  15.000	  15.956	-139.956	   6.216
     94.8496	  13.000	  16.067	-142.067	   6.214
     94.8830	  16.000	  16.137	-139.137	   6.212
     94.9164	  11.000	  16.164	-144.164	   6.210
     94.9498	  13.000	  16.145	-142.145	   6.208
     94.9833	  16.000	  16.082	-139.082	   6.206
     95.0167	  14.000	  15.976	-140.976	   6.204
     95.0501	   7.000	  15.832	-147.832	   6.202
     95.0835	  14.000	  15.653	-140.653	   6.200
     95.1170	  10.000	  15.446	-144.446	   6.198
     95.1504	   4.000	  15.218	-150.218	   6.196
     95.1838	  13.000	  14.973	-140.973	   6.194
     95.2172	  14.000	  14.717	-139.717	   6.192
     95.2506	  10.000	  14.454	-143.454	   6.190
     95.2841	   6.000	  14.188	-147.188	   6.188
     95.3175	   7.000	  13.923	-145.923	   6.186
     95.3509	  10.000	  13.663	-142.663	   6.184
     95.3843	   9.000	  13.410	-143.410	   6.182
     95.4178	  10.000	  13.168	-142.168	   6.180
     95.4512	  11.000	  12.941	-140.941	   6.178
     95.4846	   8.000	  12.731	-143.731	   6.176
     95.5180	   6.000	  12.539	-145.539	   6.174
     95.5514	  15.000	  12.367	-136.367	   6.172
     95.5849	   7.000	  12.217	-144.217	   6.169
     95.6183	  15.000	  12.088	-136.088	   6.167
     95.6517	   9.000	  11.981	-141.981	   6.165
     95.6851	  13.000	  11.894	-137.894	   6.163
     95.7186	  11.000	  11.828	-139.828	   6.161
     95.7520	   8.000	  11.780	-142.780	   6.159
     95.7854	  13.000	  11.750	-137.750	   6.157
     95.8188	  14.000	  11.734	-136.734	   6.155
     95.8522	  10.000	  11.730	-140.730	   6.153
     95.8857	   9.000	  11.734	-141.734	   6.150
     95.9191	   3.000	  11.743	-147.743	   6.148
     95.9525	   8.000	  11.753	-142.753	   6.146
     95.9859	   7.000	  11.759	-143.759	   6.144
     96.0194	  11.000	  11.759	-139.759	   6.142
     96.0528	  15.000	  11.748	-135.748	   6.140
     96.0862	  10.000	  11.725	-140.725	   6.137
     96.1196	  15.000	  11.688	-135.688	   6.135
     96.1531	   7.000	  11.637	-143.637	   6.133
     96.1865	   4.000	  11.573	-146.573	   6.131
     96.2199	   9.000	  11.496	-141.496	   6.129
     96.2533	  10.000	  11.408	-140.408	   6.127
     96.2867	  15.000	  11.311	-135.311	   6.124
     96.3202	   6.000	  11.205	-144.205	   6.122
     96.3536	   7.000	  11.092	-143.092	   6.120
     96.3870	   7.000	  10.973	-142.973	   6.118
     96.4204	   7.000	  10.846	-142.846	   6.115
     96.4538	  11.000	  10.719	-138.719	   6.113
     96.4873	   9.000	  10.589	-140.589	   6.111
     96.5207	   7.000	  10.459	-142.459	   6.109
     96.5541	   6.000	  10.330	-143.330	   6.107
     96.5875	   8.000	  10.203	-141.203	   6.104
     96.6210	  13.000	  10.081	-136.081	   6.102
     96.6544	   8.000	   9.964	-140.964	   6.100
     96.6878	   5.000	   9.852	-143.852	   6.097
     96.7212	   9.000	   9.748	-139.748	   6.095
     96.7547	   8.000	   9.651	-140.651	   6.093
     96.7881	  13.000	   9.561	-135.561	   6.091
     96.8215	  10.000	   9.479	-138.479	   6.088
     96.8549	   5.000	   9.403	-143.403	   6.086
     96.8883	  10.000	   9.334	-138.334	   6.084
     96.9218	  18.000	   9.272	-130.272	   6.082
     96.9552	  15.000	   9.217	-133.217	   6.079
     96.9886	  10.000	   9.167	-138.167	   6.077
     97.0220	   6.000	   9.124	-142.124	   6.075
     97.0555	  11.000	   9.085	-137.085	   6.072
     97.0889	  14.000	   9.052	-134.052	   6.070
     97.1223	   9.000	   9.024	-139.024	   6.068
     97.1557	   7.000	   9.001	-141.001	   6.065
     97.1891	  14.000	   8.983	-133.983	   6.063
     97.2226	  11.000	   8.969	-136.969	   6.061
     97.2560	  13.000	   8.959	-134.959	   6.058
     97.2894	   9.000	   8.953	-138.953	   6.056
     97.3228	  17.000	   8.951	-130.951	   6.054
     97.3563	   3.000	   8.951	-144.951	   6.051
     97.3897	   6.000	   8.954	-141.954	   6.049
     97.4231	   9.000	   8.959	-138.959	   6.046
     97.4565	   7.000	   8.966	-140.966	   6.044
     97.4900	   6.000	   8.973	-141.973	   6.042
     97.5234	  10.000	   8.980	-137.980	   6.039
     97.5568	  16.000	   8.986	-131.986	   6.037
     97.5902	  11.000	   8.991	-136.991	   6.035
     97.6236	   9.000	   8.994	-138.994	   6.032
     97.6571	   7.000	   8.996	-140.996	   6.030
     97.6905	   8.000	   8.995	-139.995	   6.027
     97.7239	   6.000	   8.992	-141.992	   6.025
     97.7573	   8.000	   8.988	-139.988	   6.022
     97.7908	   6.000	   8.982	-141.982	   6.020
     97.8242	  13.000	   8.976	-134.976	   6.018
     97.8576	   7.000	   8.969	-140.969	   6.015
     97.8910	  13.000	   8.962	-134.962	   6.013
     97.9244	  10.000	   8.955	-137.955	   6.010
     97.9579	  13.000	   8.949	-134.949	   6.008
     97.9913	  16.000	   8.943	-131.943	   6.005
     98.0247	  11.000	   8.939	-136.939	   6.003
     98.0581	   8.000	   8.936	-139.936	   6.001
     98.0916	   7.000	   8.936	-140.936	   5.998
     98.1250	   8.000	   8.939	-139.939	   5.996
     98.1584	   6.000	   8.945	-141.945	   5.993
     98.1918	   5.000	   8.955	-142.955	   5.991
     98.2253	   8.000	   8.969	-139.969	   5.988
     98.2587	   7.000	   8.988	-140.988	   5.986
     98.2921	   7.000	   9.012	-141.012	   5.983
     98.3255	   7.000	   9.042	-141.042	   5.981
     98.3589	  13.000	   9.078	-135.078	   5.978
     98.3924	  14.000	   9.120	-134.120	   5.976
     98.4258	   6.000	   9.169	-142.169	   5.973
     98.4592	   8.000	   9.225	-140.225	   5.971
     98.4926	   9.000	   9.289	-139.289	   5.968
     98.5260	  11.000	   9.361	-137.361	   5.966
     98.5595	  15.000	   9.441	-133.441	   5.963
     98.5929	   4.000	   9.529	-144.529	   5.961
     98.6263	  10.000	   9.627	-138.627	   5.958
     98.6597	  10.000	   9.733	-138.733	   5.955
     98.6932	   7.000	   9.847	-141.847	   5.953
     98.7266	  13.000	   9.970	-135.970	   5.950
     98.7600	  10.000	  10.100	-139.100	   5.948
     98.7934	   9.000	  10.235	-140.235	   5.945
     98.8269	   7.000	  10.375	-142.375	   5.943
     98.8603	   6.000	  10.516	-143.516	   5.940
     98.8937	   5.000	  10.656	-144.656	   5.938
     98.9271	   7.000	  10.792	-142.792	   5.935
     98.9605	  10.000	  10.918	-139.918	   5.932
     98.9940	   9.000	  11.032	-141.032	   5.930
     99.0274	   9.000	  11.129	-141.129	   5.927
     99.0608	   4.000	  11.207	-146.207	   5.925
     99.0942	  11.000	  11.263	-139.263	   5.922
     99.1277	  14.000	  11.295	-136.295	   5.919
     99.1611	   8.000	  11.302	-142.302	   5.917
     99.1945	  10.000	  11.290	-140.290	   5.914
     99.2279	  18.000	  11.257	-132.257	   5.912
     99.2613	  11.000	  11.205	-139.205	   5.909
     99.2948	   8.000	  11.137	-142.137	   5.906
     99.3282	   4.000	  11.054	-146.054	   5.904
     99.3616	  11.000	  10.959	-138.959	   5.901
     99.3950	   9.000	  10.851	-140.851	   5.899
     99.4285	   9.000	  10.734	-140.734	   5.896
     99.4619	  13.000	  10.607	-136.607	   5.893
     99.4953	  13.000	  10.475	-136.475	   5.891
     99.5287	  11.000	  10.337	-138.337	   5.888
     99.5621	  11.000	  10.198	-138.198	   5.885
     99.5956	   9.000	  10.057	-140.057	   5.883
     99.6290	  13.000	   9.918	-135.918	   5.880
     99.6624	  16.000	   9.781	-132.781	   5.877
     99.6958	   9.000	   9.649	-139.649	   5.875
     99.7293	   6.000	   9.522	-142.522	   5.872
     99.7627	   7.000	   9.402	-141.402	   5.869
     99.7961	   5.000	   9.288	-143.288	   5.867
     99.8295	   8.000	   9.180	-140.180	   5.864
     99.8630	   7.000	   9.080	-141.080	   5.861
     99.8964	   4.000	   8.987	-143.987	   5.859
     99.9298	  14.000	   8.900	-133.900	   5.856
     99.9632	   5.000	   8.820	-142.820	   5.853
     99.9966	  15.000	   8.745	-132.745	   5.851
    100.0301	   7.000	   8.676	-140.676	   5.848
    100.0635	   5.000	   8.613	-142.613	   5.845
    100.0969	   5.000	   8.554	-142.554	   5.842
    100.1303	   6.000	   8.499	-141.499	   5.840
    100.1638	  10.000	   8.449	-137.449	   5.837
    100.1972	  11.000	   8.403	-136.403	   5.834
    100.2306	   0.000	   8.360	-147.360	   5.832
    100.2640	   4.000	   8.320	-143.320	   5.829
    100.2974	   7.000	   8.284	-140.284	   5.826
    100.3309	   3.000	   8.250	-144.250	   5.823
    100.3643	   8.000	   8.218	-139.218	   5.821
    100.3977	  10.000	   8.189	-137.189	   5.818
    100.4311	   9.000	   8.161	-138.161	   5.815
    100.4646	   7.000	   8.136	-140.136	   5.812
    100.4980	   8.000	   8.113	-139.113	   5.810
    100.5314	  10.000	   8.092	-137.092	   5.807
    100.5648	  10.000	   8.072	-137.072	   5.804
    100.5982	   4.000	   8.054	-143.054	   5.801
    100.6317	   7.000	   8.037	-140.037	   5.799
    100.6651	   8.000	   8.022	-139.022	   5.796
    100.6985	  13.000	   8.008	-134.008	   5.793
    100.7319	   8.000	   7.994	-138.994	   5.790
    100.7654	  10.000	   7.983	-136.983	   5.787
    100.7988	  10.000	   7.972	-136.972	   5.785
    100.8322	   9.000	   7.963	-137.963	   5.782
    100.8656	   8.000	   7.954	-138.954	   5.779
    100.8990	   9.000	   7.947	-137.947	   5.776
    100.9325	   9.000	   7.940	-137.940	   5.773
    100.9659	   7.000	   7.934	-139.934	   5.771
    100.9993	   9.000	   7.930	-137.930	   5.768
    101.0327	   4.000	   7.926	-142.926	   5.765
    101.0662	  10.000	   7.923	-136.923	   5.762
    101.0996	   9.000	   7.921	-137.921	   5.759
    101.1330	   7.000	   7.920	-139.920	   5.757
    101.1664	   7.000	   7.920	-139.920	   5.754
    101.1999	  11.000	   7.921	-135.921	   5.751
    101.2333	   2.000	   7.923	-144.923	   5.748
    101.2667	   8.000	   7.926	-138.926	   5.745
    101.3001	   9.000	   7.930	-137.930	   5.742
    101.3335	   6.000	   7.935	-140.935	   5.740
    101.3670	  11.000	   7.942	-135.942	   5.737
    101.4004	  10.000	   7.949	-136.949	   5.734
    101.4338	   9.000	   7.958	-137.958	   5.731
    101.4672	   7.000	   7.968	-139.968	   5.728
    101.5007	   7.000	   7.979	-139.979	   5.725
    101.5341	   9.000	   7.992	-137.992	   5.723
    101.5675	   4.000	   8.007	-143.007	   5.720
    101.6009	  16.000	   8.023	-131.023	   5.717
    101.6343	   6.000	   8.041	-141.040	   5.714
    101.6678	   7.000	   8.060	-140.060	   5.711
    101.7012	   6.000	   8.081	-141.081	   5.708
    101.7346	   9.000	   8.105	-138.105	   5.705
    101.7680	   4.000	   8.130	-143.130	   5.703
    101.8015	   7.000	   8.158	-140.158	   5.700
    101.8349	   6.000	   8.187	-141.187	   5.697
    101.8683	   9.000	   8.219	-138.219	   5.694
    101.9017	   5.000	   8.252	-142.252	   5.691
    101.9352	  15.000	   8.288	-132.288	   5.688
    101.9686	  13.000	   8.325	-134.325	   5.685
    102.0020	  10.000	   8.363	-137.363	   5.682
    102.0354	   4.000	   8.403	-143.403	   5.679
    102.0688	   9.000	   8.444	-138.444	   5.677
    102.1023	   7.000	   8.486	-140.486	   5.674
    102.1357	   8.000	   8.529	-139.529	   5.671
    102.1691	   6.000	   8.572	-141.572	   5.668
    102.2025	   6.000	   8.616	-141.616	   5.665
    102.2360	  17.000	   8.660	-130.660	   5.662
    102.2694	   2.000	   8.706	-145.706	   5.659
    102.3028	  13.000	   8.753	-134.753	   5.656
    102.3362	  10.000	   8.801	-137.801	   5.653
    102.3696	   5.000	   8.852	-142.852	   5.650
    102.4031	   8.000	   8.904	-139.904	   5.647
    102.4365	   7.000	   8.960	-140.960	   5.644
    102.4699	   9.000	   9.018	-139.018	   5.642
    102.5033	  13.000	   9.080	-135.080	   5.639
    102.5368	   7.000	   9.145	-141.145	   5.636
    102.5702	  10.000	   9.212	-138.212	   5.633
    102.6036	   8.000	   9.282	-140.282	   5.630
    102.6370	   7.000	   9.353	-141.353	   5.627
    102.6704	   6.000	   9.426	-142.426	   5.624
    102.7039	   9.000	   9.498	-139.498	   5.621
    102.7373	  10.000	   9.570	-138.570	   5.618
    102.7707	  15.000	   9.638	-133.638	   5.615
    102.8041	   4.000	   9.703	-144.703	   5.612
    102.8376	   7.000	   9.762	-141.762	   5.609
    102.8710	   3.000	   9.815	-145.815	   5.606
    102.9044	   9.000	   9.861	-139.861	   5.603
    102.9378	   9.000	   9.898	-139.898	   5.600
    102.9712	  16.000	   9.928	-132.928	   5.597
    103.0047	   8.000	   9.950	-140.950	   5.594
    103.0381	   8.000	   9.966	-140.966	   5.591
    103.0715	   7.000	   9.976	-141.976	   5.588
    103.1049	   8.000	   9.981	-140.981	   5.585
    103.1384	   9.000	   9.982	-139.982	   5.582
    103.1718	   5.000	   9.979	-143.979	   5.579
    103.2052	   8.000	   9.973	-140.973	   5.577
    103.2386	   8.000	   9.965	-140.965	   5.574
    103.2720	   9.000	   9.955	-139.955	   5.571
    103.3055	   7.000	   9.943	-141.943	   5.568
    103.3389	  13.000	   9.930	-135.930	   5.565
    103.3723	   8.000	   9.916	-140.916	   5.562
    103.4057	   7.000	   9.901	-141.901	   5.559
    103.4392	   7.000	   9.887	-141.887	   5.556
    103.4726	   5.000	   9.874	-143.874	   5.553
    103.5060	   7.000	   9.863	-141.863	   5.550
    103.5394	   9.000	   9.854	-139.854	   5.547
    103.5729	  11.000	   9.848	-137.848	   5.544
    103.6063	   6.000	   9.846	-142.846	   5.541
    103.6397	   6.000	   9.848	-142.848	   5.538
    103.6731	  16.000	   9.853	-132.853	   5.535
    103.7065	   3.000	   9.863	-145.863	   5.532
    103.7400	  11.000	   9.877	-137.877	   5.529
    103.7734	   7.000	   9.893	-141.893	   5.526
    103.8068	  11.000	   9.911	-137.911	   5.523
    103.8402	   8.000	   9.930	-140.930	   5.520
    103.8737	  11.000	   9.948	-137.948	   5.517
    103.9071	   9.000	   9.964	-139.964	   5.514
    103.9405	   7.000	   9.977	-141.977	   5.511
    103.9739	   8.000	   9.984	-140.984	   5.508
    104.0073	   9.000	   9.985	-139.985	   5.505
    104.0408	   9.000	   9.978	-139.978	   5.501
    104.0742	   6.000	   9.964	-142.964	   5.498
    104.1076	   9.000	   9.942	-139.942	   5.495
    104.1410	  21.000	   9.913	-127.913	   5.492
    104.1745	   7.000	   9.877	-141.877	   5.489
    104.2079	  15.000	   9.835	-133.835	   5.486
    104.2413	   9.000	   9.788	-139.788	   5.483
    104.2747	  10.000	   9.736	-138.736	   5.480
    104.3082	  10.000	   9.681	-138.681	   5.477
    104.3416	   8.000	   9.622	-140.622	   5.474
    104.3750	  11.000	   9.561	-137.561	   5.471
    104.4084	   4.000	   9.497	-144.497	   5.468
    104.4418	   4.000	   9.432	-144.432	   5.465
    104.4753	   9.000	   9.366	-139.366	   5.462
    104.5087	   6.000	   9.300	-142.300	   5.459
    104.5421	   5.000	   9.235	-143.235	   5.456
    104.5755	  11.000	   9.171	-137.171	   5.453
    104.6089	   2.000	   9.109	-146.109	   5.450
    104.6424	   6.000	   9.050	-142.050	   5.447
    104.6758	   5.000	   8.995	-142.995	   5.444
    104.7092	  10.000	   8.944	-137.944	   5.441
    104.7426	   9.000	   8.897	-138.897	   5.438
    104.7761	   6.000	   8.856	-141.856	   5.435
    104.8095	   6.000	   8.820	-141.820	   5.432
    104.8429	   8.000	   8.790	-139.790	   5.429
    104.8763	   6.000	   8.765	-141.765	   5.426
    104.9098	   4.000	   8.746	-143.746	   5.423
    104.9432	  11.000	   8.733	-136.733	   5.419
    104.9766	  11.000	   8.726	-136.726	   5.416
    105.0100	   8.000	   8.725	-139.725	   5.413
    105.0434	   1.000	   8.730	-146.730	   5.410
    105.0769	  13.000	   8.741	-134.741	   5.407
    105.1103	  11.000	   8.758	-136.758	   5.404
    105.1437	  13.000	   8.782	-134.782	   5.401
    105.1771	  16.000	   8.812	-131.812	   5.398
    105.2106	  13.000	   8.849	-134.849	   5.395
    105.2440	   6.000	   8.893	-141.893	   5.392
    105.2774	   9.000	   8.943	-138.943	   5.389
    105.3108	   8.000	   9.001	-140.001	   5.386
    105.3442	   6.000	   9.065	-142.065	   5.383
    105.3777	  10.000	   9.137	-138.137	   5.380
    105.4111	  10.000	   9.216	-138.216	   5.377
    105.4445	   9.000	   9.302	-139.302	   5.374
    105.4779	   5.000	   9.395	-143.395	   5.371
    105.5114	   6.000	   9.494	-142.494	   5.367
    105.5448	  15.000	   9.600	-133.600	   5.364
    105.5782	  19.000	   9.710	-129.710	   5.361
    105.6116	   2.000	   9.825	-146.825	   5.358
    105.6451	   6.000	   9.943	-142.943	   5.355
    105.6785	   6.000	  10.063	-143.063	   5.352
    105.7119	  10.000	  10.184	-139.184	   5.349
    105.7453	   4.000	  10.303	-145.303	   5.346
    105.7787	   4.000	  10.420	-145.420	   5.343
    105.8122	   7.000	  10.533	-142.533	   5.340
    105.8456	   5.000	  10.639	-144.639	   5.337
    105.8790	   8.000	  10.738	-141.738	   5.334
    105.9124	   7.000	  10.827	-142.827	   5.331
    105.9459	   6.000	  10.905	-143.905	   5.328
    105.9793	   6.000	  10.970	-143.970	   5.325
    106.0127	   3.000	  11.021	-147.021	   5.322
    106.0461	   2.000	  11.056	-148.056	   5.318
    106.0795	   9.000	  11.075	-141.075	   5.315
    106.1130	   7.000	  11.077	-143.077	   5.312
    106.1464	   6.000	  11.063	-144.063	   5.309
    106.1798	   9.000	  11.032	-141.032	   5.306
    106.2132	   4.000	  10.987	-145.987	   5.303
    106.2467	  11.000	  10.928	-138.928	   5.300
    106.2801	  10.000	  10.857	-139.857	   5.297
    106.3135	   8.000	  10.776	-141.776	   5.294
    106.3469	  11.000	  10.686	-138.686	   5.291
    106.3803	   1.000	  10.589	-148.589	   5.288
    106.4138	   9.000	  10.486	-140.486	   5.285
    106.4472	  13.000	  10.378	-136.378	   5.282
    106.4806	   9.000	  10.267	-140.267	   5.279
    106.5140	   3.000	  10.153	-146.153	   5.276
    106.5475	   9.000	  10.038	-140.038	   5.272
    106.5809	   6.000	   9.924	-142.924	   5.269
    106.6143	   5.000	   9.810	-143.810	   5.266
    106.6477	   3.000	   9.699	-145.699	   5.263
    106.6812	  11.000	   9.592	-137.592	   5.260
    106.7146	   8.000	   9.488	-140.488	   5.257
    106.7480	   6.000	   9.390	-142.390	   5.254
    106.7814	   6.000	   9.298	-142.298	   5.251
    106.8148	   7.000	   9.212	-141.212	   5.248
    106.8483	  10.000	   9.133	-138.133	   5.245
    106.8817	   7.000	   9.060	-141.060	   5.242
    106.9151	   9.000	   8.994	-138.994	   5.239
    106.9485	   6.000	   8.933	-141.933	   5.236
    106.9819	   4.000	   8.878	-143.878	   5.233
    107.0154	   5.000	   8.829	-142.829	   5.230
    107.0488	   8.000	   8.784	-139.784	   5.227
    107.0822	   9.000	   8.743	-138.743	   5.224
    107.1156	  11.000	   8.706	-136.706	   5.220
    107.1491	   5.000	   8.671	-142.671	   5.217
    107.1825	   3.000	   8.638	-144.638	   5.214
    107.2159	   8.000	   8.607	-139.607	   5.211
    107.2493	   6.000	   8.576	-141.576	   5.208
    107.2828	   5.000	   8.547	-142.547	   5.205
    107.3162	   6.000	   8.518	-141.518	   5.202
    107.3496	   6.000	   8.489	-141.489	   5.199
    107.3830	  14.000	   8.461	-133.461	   5.196
    107.4164	   9.000	   8.433	-138.433	   5.193
    107.4499	   6.000	   8.406	-141.406	   5.190
    107.4833	   3.000	   8.379	-144.379	   5.187
    107.5167	   1.000	   8.354	-146.354	   5.184
    107.5501	   7.000	   8.329	-140.329	   5.181
    107.5836	   8.000	   8.305	-139.305	   5.178
    107.6170	  11.000	   8.282	-136.282	   5.175
    107.6504	   7.000	   8.260	-140.260	   5.172
    107.6838	  10.000	   8.239	-137.239	   5.169
    107.7172	   8.000	   8.218	-139.218	   5.166
    107.7507	   4.000	   8.199	-143.199	   5.163
    107.7841	  11.000	   8.180	-136.180	   5.160
    107.8175	   9.000	   8.162	-138.162	   5.157
    107.8509	   7.000	   8.145	-140.145	   5.154
    107.8844	   8.000	   8.128	-139.128	   5.150
    107.9178	   5.000	   8.112	-142.112	   5.147
    107.9512	   7.000	   8.097	-140.097	   5.144
    107.9846	   5.000	   8.082	-142.082	   5.141
    108.0181	   5.000	   8.068	-142.068	   5.138
    108.0515	  10.000	   8.054	-137.054	   5.135
    108.0849	   8.000	   8.040	-139.040	   5.132
    108.1183	   9.000	   8.027	-138.027	   5.129
    108.1517	   4.000	   8.015	-143.015	   5.126
    108.1852	   8.000	   8.004	-139.004	   5.123
    108.2186	   6.000	   7.994	-140.994	   5.120
    108.2520	   3.000	   7.985	-143.985	   5.117
    108.2854	   2.000	   7.978	-144.978	   5.114
    108.3189	   4.000	   7.972	-142.972	   5.111
    108.3523	   5.000	   7.967	-141.967	   5.108
    108.3857	   2.000	   7.964	-144.964	   5.105
    108.4191	   3.000	   7.963	-143.963	   5.102
    108.4525	   3.000	   7.964	-143.964	   5.099
    108.4860	   7.000	   7.968	-139.968	   5.096
    108.5194	   6.000	   7.973	-140.973	   5.093
    108.5528	   4.000	   7.982	-142.982	   5.090
    108.5862	  14.000	   7.993	-132.993	   5.087
    108.6197	   6.000	   8.007	-141.007	   5.084
    108.6531	   6.000	   8.025	-141.025	   5.081
    108.6865	   6.000	   8.046	-141.046	   5.078
    108.7199	   8.000	   8.071	-139.071	   5.075
    108.7533	   3.000	   8.100	-144.100	   5.072
    108.7868	   9.000	   8.134	-138.134	   5.069
    108.8202	   8.000	   8.172	-139.172	   5.066
    108.8536	  13.000	   8.215	-134.215	   5.063
    108.8870	  10.000	   8.264	-137.264	   5.060
    108.9205	  10.000	   8.317	-137.317	   5.057
    108.9539	   9.000	   8.375	-138.375	   5.054
    108.9873	   9.000	   8.439	-138.439	   5.052
    109.0207	   5.000	   8.508	-142.508	   5.049
    109.0541	   8.000	   8.583	-139.583	   5.046
    109.0876	   9.000	   8.663	-138.663	   5.043
    109.1210	   5.000	   8.747	-142.747	   5.040
    109.1544	   5.000	   8.836	-142.836	   5.037
    109.1878	   3.000	   8.928	-144.928	   5.034
    109.2213	   8.000	   9.023	-140.023	   5.031
    109.2547	   8.000	   9.120	-140.120	   5.028
    109.2881	   8.000	   9.216	-140.216	   5.025
    109.3215	   5.000	   9.311	-143.311	   5.022
    109.3549	   6.000	   9.404	-142.404	   5.019
    109.3884	  10.000	   9.491	-138.491	   5.016
    109.4218	   6.000	   9.571	-142.571	   5.013
    109.4552	  16.000	   9.643	-132.643	   5.010
    109.4886	  13.000	   9.705	-135.705	   5.007
    109.5221	   5.000	   9.756	-143.756	   5.004
    109.5555	   7.000	   9.796	-141.796	   5.001
    109.5889	   4.000	   9.824	-144.824	   4.999
    109.6223	   6.000	   9.840	-142.840	   4.996
    109.6558	   4.000	   9.847	-144.847	   4.993
    109.6892	   9.000	   9.843	-139.843	   4.990
    109.7226	   7.000	   9.831	-141.831	   4.987
    109.7560	  10.000	   9.811	-138.811	   4.984
    109.7894	   9.000	   9.785	-139.785	   4.981
    109.8229	   9.000	   9.752	-139.752	   4.978
    109.8563	   3.000	   9.715	-145.715	   4.975
    109.8897	   6.000	   9.673	-142.673	   4.972
    109.9231	   3.000	   9.627	-145.627	   4.970
    109.9566	  15.000	   9.579	-133.579	   4.967
    109.9900	   1.000	   9.527	-147.527	   4.964
    110.0234	   9.000	   9.474	-139.474	   4.961
    110.0568	  11.000	   9.419	-137.419	   4.958
    110.0902	   8.000	   9.364	-140.364	   4.955
    110.1237	   3.000	   9.308	-145.308	   4.952
    110.1571	   6.000	   9.253	-142.253	   4.949
    110.1905	   9.000	   9.198	-139.198	   4.947
    110.2239	   7.000	   9.144	-141.144	   4.944
    110.2574	   6.000	   9.090	-142.090	   4.941
    110.2908	  11.000	   9.036	-137.036	   4.938
    110.3242	  11.000	   8.982	-136.982	   4.935
    110.3576	   7.000	   8.928	-140.928	   4.932
    110.3911	   9.000	   8.872	-138.872	   4.929
    110.4245	   9.000	   8.816	-138.816	   4.927
    110.4579	   5.000	   8.759	-142.759	   4.924
    110.4913	   8.000	   8.700	-139.700	   4.921
    110.5247	   7.000	   8.640	-140.640	   4.918
    110.5582	   6.000	   8.579	-141.579	   4.915
    110.5916	   5.000	   8.517	-142.517	   4.912
    110.6250	   5.000	   8.454	-142.454	   4.910
    110.6584	   7.000	   8.392	-140.392	   4.907
    110.6919	   8.000	   8.328	-139.328	   4.904
    110.7253	   4.000	   8.265	-143.265	   4.901
    110.7587	   8.000	   8.202	-139.202	   4.898
    110.7921	   4.000	   8.138	-143.138	   4.896
    110.8255	   7.000	   8.075	-140.075	   4.893
    110.8590	  11.000	   8.012	-136.012	   4.890
    110.8924	  10.000	   7.949	-136.949	   4.887
    110.9258	   7.000	   7.887	-139.887	   4.885
    110.9592	   5.000	   7.826	-141.826	   4.882
    110.9927	   8.000	   7.765	-138.765	   4.879
    111.0261	   9.000	   7.706	-137.706	   4.876
    111.0595	   4.000	   7.648	-142.648	   4.873
    111.0929	   6.000	   7.592	-140.592	   4.871
    111.1263	   9.000	   7.538	-137.538	   4.868
    111.1598	  13.000	   7.486	-133.486	   4.865
    111.1932	   6.000	   7.436	-140.436	   4.862
    111.2266	   8.000	   7.388	-138.388	   4.860
    111.2600	   9.000	   7.343	-137.342	   4.857
    111.2935	   4.000	   7.299	-142.299	   4.854
    111.3269	   8.000	   7.258	-138.258	   4.852
    111.3603	   8.000	   7.219	-138.219	   4.849
    111.3937	  11.000	   7.182	-135.182	   4.846
    111.4271	   7.000	   7.147	-139.147	   4.843
    111.4606	   2.000	   7.113	-144.113	   4.841
    111.4940	   4.000	   7.082	-142.082	   4.838
    111.5274	  11.000	   7.052	-135.052	   4.835
    111.5608	   4.000	   7.024	-142.024	   4.833
    111.5943	   6.000	   6.998	-139.998	   4.830
    111.6277	   8.000	   6.972	-137.972	   4.827
    111.6611	   8.000	   6.948	-137.948	   4.825
    111.6945	   7.000	   6.926	-138.926	   4.822
    111.7280	   9.000	   6.904	-136.904	   4.819
    111.7614	   4.000	   6.884	-141.884	   4.817
    111.7948	   8.000	   6.864	-137.864	   4.814
    111.8282	   1.000	   6.846	-144.846	   4.811
    111.8616	   4.000	   6.828	-141.828	   4.809
    111.8951	   7.000	   6.812	-138.812	   4.806
    111.9285	   6.000	   6.796	-139.796	   4.803
    111.9619	   9.000	   6.780	-136.781	   4.801
    111.9953	   8.000	   6.766	-137.766	   4.798
    112.0288	  17.000	   6.752	-128.752	   4.795
    112.0622	   3.000	   6.739	-142.739	   4.793
    112.0956	   5.000	   6.726	-140.726	   4.790
    112.1290	   4.000	   6.714	-141.714	   4.788
    112.1624	   7.000	   6.703	-138.703	   4.785
    112.1959	   5.000	   6.692	-140.692	   4.782
    112.2293	   7.000	   6.681	-138.681	   4.780
    112.2627	   3.000	   6.671	-142.671	   4.777
    112.2961	   5.000	   6.661	-140.661	   4.775
    112.3296	   6.000	   6.652	-139.652	   4.772
    112.3630	   8.000	   6.643	-137.643	   4.769
    112.3964	   4.000	   6.635	-141.635	   4.767
    112.4298	   8.000	   6.627	-137.627	   4.764
    112.4632	   4.000	   6.619	-141.619	   4.762
    112.4967	   3.000	   6.612	-142.612	   4.759
    112.5301	   9.000	   6.604	-136.604	   4.757
    112.5635	   7.000	   6.598	-138.598	   4.754
    112.5969	  10.000	   6.591	-135.591	   4.752
    112.6304	   3.000	   6.585	-142.585	   4.749
    112.6638	   5.000	   6.579	-140.579	   4.747
    112.6972	   8.000	   6.574	-137.574	   4.744
    112.7306	  10.000	   6.569	-135.569	   4.742
    112.7641	   7.000	   6.562	-138.562	   4.739
    112.7975	   2.000	   6.558	-143.558	   4.737
    112.8309	   7.000	   6.554	-138.554	   4.734
    112.8643	   6.000	   6.550	-139.550	   4.732
    112.8977	   9.000	   6.546	-136.546	   4.729
    112.9312	   6.000	   6.543	-139.543	   4.727
    112.9646	   8.000	   6.540	-137.540	   4.724
    112.9980	   9.000	   6.537	-136.537	   4.722
    113.0314	   9.000	   6.535	-136.535	   4.719
    113.0648	   6.000	   6.533	-139.533	   4.717
    113.0983	   7.000	   6.530	-138.530	   4.715
    113.1317	   9.000	   6.528	-136.528	   4.712
    113.1651	   8.000	   6.527	-137.527	   4.710
    113.1985	   9.000	   6.527	-136.527	   4.707
    113.2320	   5.000	   6.527	-140.527	   4.705
    113.2654	   4.000	   6.528	-141.528	   4.702
    113.2988	   9.000	   6.529	-136.529	   4.700
    113.3322	   5.000	   6.530	-140.530	   4.698
    113.3657	   8.000	   6.532	-137.532	   4.695
    113.3991	   3.000	   6.534	-142.534	   4.693
    113.4325	   3.000	   6.537	-142.537	   4.691
    113.4659	   8.000	   6.541	-137.541	   4.688
    113.4993	   4.000	   6.544	-141.544	   4.686
    113.5328	   4.000	   6.548	-141.548	   4.683
    113.5662	   5.000	   6.552	-140.552	   4.681
    113.5996	   4.000	   6.557	-141.557	   4.679
    113.6330	  11.000	   6.563	-134.563	   4.676
    113.6665	   5.000	   6.568	-140.568	   4.674
    113.6999	   9.000	   6.574	-136.574	   4.672
    113.7333	   5.000	   6.580	-140.580	   4.670
    113.7667	   1.000	   6.585	-144.585	   4.667
    113.8001	   6.000	   6.591	-139.591	   4.665
    113.8336	   6.000	   6.596	-139.596	   4.663
    113.8670	   7.000	   6.600	-138.600	   4.660
    113.9004	   9.000	   6.604	-136.604	   4.658
    113.9338	   9.000	   6.607	-136.607	   4.656
    113.9673	   4.000	   6.609	-141.609	   4.654
    114.0007	   4.000	   6.611	-141.611	   4.651
    114.0341	   8.000	   6.611	-137.611	   4.649
    114.0675	  10.000	   6.610	-135.610	   4.647
    114.1010	   6.000	   6.608	-139.608	   4.645
    114.1344	   6.000	   6.605	-139.605	   4.642
    114.1678	   6.000	   6.601	-139.601	   4.640
    114.2012	   6.000	   6.596	-139.596	   4.638
    114.2346	   9.000	   6.591	-136.591	   4.636
    114.2681	   4.000	   6.585	-141.585	   4.634
    114.3015	   6.000	   6.578	-139.578	   4.631
    114.3349	  10.000	   6.571	-135.571	   4.629
    114.3683	   5.000	   6.563	-140.563	   4.627
    114.4018	   9.000	   6.555	-136.555	   4.625
    114.4352	   6.000	   6.546	-139.546	   4.623
    114.4686	  11.000	   6.537	-134.537	   4.621
    114.5020	  14.000	   6.528	-131.528	   4.619
    114.5354	   8.000	   6.518	-137.518	   4.616
    114.5689	   6.000	   6.508	-139.508	   4.614
    114.6023	   2.000	   6.498	-143.498	   4.612
    114.6357	   5.000	   6.489	-140.489	   4.610
    114.6691	   6.000	   6.479	-139.479	   4.608
    114.7026	   6.000	   6.470	-139.470	   4.606
    114.7360	  18.000	   6.461	-127.461	   4.604
    114.7694	  11.000	   6.452	-134.452	   4.602
    114.8028	   4.000	   6.443	-141.443	   4.600
    114.8363	  11.000	   6.435	-134.435	   4.598
    114.8697	   8.000	   6.427	-137.427	   4.596
    114.9031	   4.000	   6.419	-141.419	   4.594
    114.9365	   8.000	   6.412	-137.412	   4.592
    114.9699	  14.000	   6.405	-131.405	   4.590
    115.0034	  11.000	   6.398	-134.398	   4.588
    115.0368	   9.000	   6.392	-136.392	   4.586
    115.0702	  13.000	   6.386	-132.386	   4.584
    115.1036	   8.000	   6.381	-137.381	   4.582
    115.1371	   7.000	   6.375	-138.375	   4.580
    115.1705	   6.000	   6.370	-139.370	   4.578
    115.2039	   9.000	   6.366	-136.366	   4.576
    115.2373	   8.000	   6.361	-137.361	   4.574
    115.2707	   9.000	   6.357	-136.357	   4.572
    115.3042	   5.000	   6.353	-140.353	   4.570
    115.3376	   9.000	   6.350	-136.350	   4.568
    115.3710	   6.000	   6.347	-139.347	   4.566
    115.4044	   8.000	   6.344	-137.344	   4.564
    115.4379	   5.000	   6.341	-140.341	   4.562
    115.4713	   8.000	   6.338	-137.338	   4.560
    115.5047	   6.000	   6.336	-139.336	   4.558
    115.5381	   5.000	   6.334	-140.334	   4.557
    115.5715	   9.000	   6.332	-136.332	   4.555
    115.6050	   5.000	   6.330	-140.330	   4.553
    115.6384	   6.000	   6.329	-139.329	   4.551
    115.6718	   5.000	   6.327	-140.327	   4.549
    115.7052	   5.000	   6.326	-140.326	   4.547
    115.7387	  10.000	   6.326	-135.326	   4.546
    115.7721	   4.000	   6.325	-141.325	   4.544
    115.8055	  11.000	   6.325	-134.325	   4.542
    115.8389	   4.000	   6.325	-141.325	   4.540
    115.8723	   6.000	   6.325	-139.325	   4.538
    115.9058	   7.000	   6.326	-138.326	   4.537
    115.9392	   5.000	   6.326	-140.326	   4.535
    115.9726	   8.000	   6.327	-137.327	   4.533
    116.0060	   6.000	   6.329	-139.329	   4.531
    116.0395	   7.000	   6.330	-138.330	   4.530
    116.0729	   9.000	   6.332	-136.332	   4.528
    116.1063	   2.000	   6.334	-143.334	   4.526
    116.1397	   8.000	   6.336	-137.336	   4.525
    116.1731	   5.000	   6.339	-140.339	   4.523
    116.2066	   2.000	   6.342	-143.342	   4.521
    116.2400	   2.000	   6.346	-143.346	   4.520
    116.2734	   5.000	   6.349	-140.349	   4.518
    116.3068	   7.000	   6.353	-138.353	   4.516
    116.3403	   6.000	   6.358	-139.358	   4.515
    116.3737	   6.000	   6.363	-139.363	   4.513
    116.4071	   3.000	   6.368	-142.368	   4.511
    116.4405	   3.000	   6.374	-142.374	   4.510
    116.4740	   8.000	   6.380	-137.380	   4.508
    116.5074	   4.000	   6.386	-141.386	   4.507
    116.5408	   6.000	   6.393	-139.393	   4.505
    116.5742	  11.000	   6.401	-134.401	   4.503
    116.6076	   5.000	   6.409	-140.409	   4.502
    116.6411	   8.000	   6.418	-137.418	   4.500
    116.6745	  14.000	   6.427	-131.427	   4.499
    116.7079	   5.000	   6.437	-140.437	   4.497
    116.7413	  13.000	   6.448	-132.448	   4.496
    116.7748	  11.000	   6.459	-134.459	   4.494
    116.8082	   7.000	   6.471	-138.471	   4.493
    116.8416	  14.000	   6.484	-131.484	   4.491
    116.8750	   6.000	   6.498	-139.498	   4.490
    116.9084	   8.000	   6.513	-137.513	   4.488
    116.9419	  11.000	   6.528	-134.528	   4.487
    116.9753	  14.000	   6.545	-131.545	   4.486
    117.0087	   9.000	   6.563	-136.563	   4.484
    117.0421	   8.000	   6.582	-137.582	   4.483
    117.0756	  11.000	   6.602	-134.602	   4.481
    117.1090	   8.000	   6.623	-137.623	   4.480
    117.1424	   8.000	   6.646	-137.646	   4.478
    117.1758	   8.000	   6.670	-137.670	   4.477
    117.2093	   7.000	   6.695	-138.695	   4.476
    117.2427	   8.000	   6.722	-137.722	   4.474
    117.2761	   5.000	   6.751	-140.751	   4.473
    117.3095	   8.000	   6.781	-137.781	   4.472
    117.3429	   7.000	   6.812	-138.812	   4.470
    117.3764	   2.000	   6.845	-143.845	   4.469
    117.4098	   9.000	   6.880	-136.880	   4.468
    117.4432	   9.000	   6.915	-136.915	   4.467
    117.4766	   7.000	   6.953	-138.953	   4.465
    117.5100	  14.000	   6.991	-131.991	   4.464
    117.5435	   6.000	   7.030	-140.030	   4.463
    117.5769	   3.000	   7.070	-143.070	   4.462
    117.6103	   8.000	   7.111	-138.111	   4.460
    117.6437	   6.000	   7.152	-140.152	   4.459
    117.6772	   6.000	   7.192	-140.192	   4.458
    117.7106	   5.000	   7.232	-141.232	   4.457
    117.7440	  13.000	   7.271	-133.271	   4.456
    117.7774	  11.000	   7.309	-135.309	   4.454
    117.8109	  11.000	   7.346	-135.346	   4.453
    117.8443	   5.000	   7.380	-141.380	   4.452
    117.8777	   6.000	   7.412	-140.412	   4.451
    117.9111	   5.000	   7.443	-141.443	   4.450
    117.9445	   8.000	   7.471	-138.471	   4.449
    117.9780	   7.000	   7.497	-139.497	   4.448
    118.0114	   9.000	   7.521	-137.521	   4.447
    118.0448	  15.000	   7.543	-131.543	   4.446
    118.0782	  13.000	   7.564	-133.564	   4.445
    118.1117	  13.000	   7.583	-133.583	   4.444
    118.1451	   5.000	   7.602	-141.602	   4.442
    118.1785	   8.000	   7.620	-138.620	   4.441
    118.2119	   7.000	   7.637	-139.637	   4.440
    118.2453	   9.000	   7.654	-137.654	   4.439
    118.2788	   8.000	   7.671	-138.671	   4.439
    118.3122	   9.000	   7.688	-137.688	   4.438
    118.3456	  15.000	   7.704	-131.704	   4.437
    118.3790	  11.000	   7.721	-135.721	   4.436
    118.4125	   8.000	   7.736	-138.736	   4.435
    118.4459	   7.000	   7.753	-139.753	   4.434
    118.4793	  14.000	   7.770	-132.770	   4.433
    118.5127	   7.000	   7.787	-139.787	   4.432
    118.5462	   7.000	   7.803	-139.803	   4.431
    118.5796	   5.000	   7.820	-141.820	   4.430
    118.6130	   8.000	   7.836	-138.836	   4.429
    118.6464	   8.000	   7.852	-138.852	   4.429
    118.6798	   9.000	   7.867	-137.867	   4.428
    118.7133	   9.000	   7.882	-137.882	   4.427
    118.7467	   8.000	   7.896	-138.896	   4.426
    118.7801	   3.000	   7.909	-143.909	   4.425
    118.8135	  14.000	   7.921	-132.921	   4.425
    118.8470	   8.000	   7.931	-138.931	   4.424
    118.8804	   6.000	   7.940	-140.940	   4.423
    118.9138	   6.000	   7.947	-140.947	   4.422
    118.9472	   6.000	   7.953	-140.953	   4.422
    118.9806	   7.000	   7.957	-139.957	   4.421
    119.0141	   4.000	   7.959	-142.959	   4.420
    119.0475	   4.000	   7.958	-142.958	   4.420
    119.0809	   8.000	   7.955	-138.955	   4.419
    119.1143	   9.000	   7.949	-137.949	   4.418
    119.1478	   4.000	   7.940	-142.940	   4.418
    119.1812	  10.000	   7.929	-136.929	   4.417
    119.2146	   7.000	   7.914	-139.914	   4.416
    119.2480	   8.000	   7.897	-138.897	   4.416
    119.2814	   7.000	   7.877	-139.877	   4.415
    119.3149	  10.000	   7.855	-136.855	   4.415
    119.3483	   4.000	   7.831	-142.831	   4.414
    119.3817	  13.000	   7.805	-133.805	   4.414
    119.4151	  14.000	   7.777	-132.777	   4.413
    119.4486	   8.000	   7.749	-138.749	   4.413
    119.4820	   8.000	   7.720	-138.720	   4.412
    119.5154	  14.000	   7.690	-132.690	   4.412
    119.5488	   5.000	   7.660	-141.660	   4.411
    119.5822	   6.000	   7.631	-140.631	   4.411
    119.6157	   7.000	   7.601	-139.601	   4.410
    119.6491	  15.000	   7.572	-131.572	   4.410
    119.6825	   8.000	   7.544	-138.544	   4.409
    119.7159	  14.000	   7.517	-132.517	   4.409
    119.7494	  15.000	   7.491	-131.491	   4.409
    119.7828	   7.000	   7.466	-139.466	   4.408
    119.8162	  10.000	   7.443	-136.443	   4.408
    119.8496	   8.000	   7.421	-138.421	   4.408
    119.8830	   7.000	   7.402	-139.402	   4.407
    119.9165	  13.000	   7.384	-133.384	   4.407
    119.9499	   6.000	   7.369	-140.369	   4.407
    119.9833	   8.000	   7.357	-138.357	   4.406
     22.9985	        	        	        	        	       0	(  0  1  2)	  0  1 :  1
     23.0560	        	        	        	        	       0	(  0  1  2)	  0  2 :  1
     29.3402	        	        	        	        	       0	(  1  0  4)	  0  1 :  1
     29.4141	        	        	        	        	       0	(  1  0  4)	  0  2 :  1
     31.3668	        	        	        	        	       0	(  0  0  6)	  0  1 :  1
     31.4462	        	        	        	        	       0	(  0  0  6)	  0  2 :  1
     35.9183	        	        	        	        	       0	(  1  1  0)	  0  1 :  1
     36.0099	        	        	        	        	       0	(  1  1  0)	  0  2 :  1
     39.3548	        	        	        	        	       0	(  1  1  3)	  0  1 :  1
     39.4558	        	        	        	        	       0	(  1  1  3)	  0  2 :  1
     43.1072	        	        	        	        	       0	(  2  0  2)	  0  1 :  1
     43.2188	        	        	        	        	       0	(  2  0  2)	  0  2 :  1
     47.0598	        	        	        	        	       0	(  0  2  4)	  0  1 :  1
     47.1828	        	        	        	        	       0	(  0  2  4)	  0  2 :  1
     47.4360	        	        	        	        	       0	(  0  1  8)	  0  1 :  1
     47.5600	        	        	        	        	       0	(  0  1  8)	  0  2 :  1
     48.4445	        	        	        	        	       0	(  1  1  6)	  0  1 :  1
     48.5715	        	        	        	        	       0	(  1  1  6)	  0  2 :  1
     56.5156	        	        	        	        	       0	(  2  1  1)	  0  1 :  1
     56.6674	        	        	        	        	       0	(  2  1  1)	  0  2 :  1
     57.3508	        	        	        	        	       0	(  1  2  2)	  0  1 :  1
     57.5052	        	        	        	        	       0	(  1  2  2)	  0  2 :  1
     58.0047	        	        	        	        	       0	(  1  0 10)	  0  1 :  1
     58.1612	        	        	        	        	       0	(  1  0 10)	  0  2 :  1
     60.6179	        	        	        	        	       0	(  2  1  4)	  0  1 :  1
     60.7830	        	        	        	        	       0	(  2  1  4)	  0  2 :  1
     60.9345	        	        	        	        	       0	(  2  0  8)	  0  1 :  1
     61.1006	        	        	        	        	       0	(  2  0  8)	  0  2 :  1
     61.3062	        	        	        	        	       0	(  1  1  9)	  0  1 :  1
     61.4735	        	        	        	        	       0	(  1  1  9)	  0  2 :  1
     63.0006	        	        	        	        	       0	(  1  2  5)	  0  1 :  1
     63.1736	        	        	        	        	       0	(  1  2  5)	  0  2 :  1
     64.6156	        	        	        	        	       0	(  3  0  0)	  0  1 :  1
     64.7941	        	        	        	        	       0	(  3  0  0)	  0  2 :  1
     65.5297	        	        	        	        	       0	(  0  0 12)	  0  1 :  1
     65.7115	        	        	        	        	       0	(  0  0 12)	  0  2 :  1
     69.1306	        	        	        	        	       0	(  2  1  7)	  0  1 :  1
     69.3252	        	        	        	        	       0	(  2  1  7)	  0  2 :  1
     70.1721	        	        	        	        	       0	(  0  2 10)	  0  1 :  1
     70.3704	        	        	        	        	       0	(  0  2 10)	  0  2 :  1
     72.8339	        	        	        	        	       0	(  1  2  8)	  0  1 :  1
     73.0422	        	        	        	        	       0	(  1  2  8)	  0  2 :  1
     73.6165	        	        	        	        	       0	(  0  3  6)	  0  1 :  1
     73.6165	        	        	        	        	       0	(  3  0  6)	  0  1 :  1
     73.8278	        	        	        	        	       0	(  0  3  6)	  0  2 :  1
     73.8278	        	        	        	        	       0	(  3  0  6)	  0  2 :  1
     76.2309	        	        	        	        	       0	(  2  2  0)	  0  1 :  1
     76.4525	        	        	        	        	       0	(  2  2  0)	  0  2 :  1
     77.0831	        	        	        	        	       0	(  1  1 12)	  0  1 :  1
     77.3081	        	        	        	        	       0	(  1  1 12)	  0  2 :  1
     78.3842	        	        	        	        	       0	(  2  2  3)	  0  1 :  1
     78.6145	        	        	        	        	       0	(  2  2  3)	  0  2 :  1
     80.1909	        	        	        	        	       0	(  1  3  1)	  0  1 :  1
     80.4287	        	        	        	        	       0	(  1  3  1)	  0  2 :  1
     80.9008	        	        	        	        	       0	(  3  1  2)	  0  1 :  1
     81.1416	        	        	        	        	       0	(  3  1  2)	  0  2 :  1
     81.4602	        	        	        	        	       0	(  2  1 10)	  0  1 :  1
     81.7034	        	        	        	        	       0	(  2  1 10)	  0  2 :  1
     82.0188	        	        	        	        	       0	(  0  1 14)	  0  1 :  1
     82.2645	        	        	        	        	       0	(  0  1 14)	  0  2 :  1
     83.7274	        	        	        	        	       0	(  1  3  4)	  0  1 :  1
     83.9806	        	        	        	        	       0	(  1  3  4)	  0  2 :  1
     84.7585	        	        	        	        	       0	(  2  2  6)	  0  1 :  1
     85.0163	        	        	        	        	       0	(  2  2  6)	  0  2 :  1
     85.8371	        	        	        	        	       0	(  3  1  5)	  0  1 :  1
     86.0998	        	        	        	        	       0	(  3  1  5)	  0  2 :  1
     86.3913	        	        	        	        	       0	(  1  2 11)	  0  1 :  1
     86.6565	        	        	        	        	       0	(  1  2 11)	  0  2 :  1
     91.4435	        	        	        	        	       0	(  1  3  7)	  0  1 :  1
     91.7333	        	        	        	        	       0	(  1  3  7)	  0  2 :  1
     91.8676	        	        	        	        	       0	(  0  4  2)	  0  1 :  1
     92.1595	        	        	        	        	       0	(  0  4  2)	  0  2 :  1
     92.9744	        	        	        	        	       0	(  2  0 14)	  0  1 :  1
     93.2721	        	        	        	        	       0	(  2  0 14)	  0  2 :  1
     94.6739	        	        	        	        	       0	(  4  0  4)	  0  1 :  1
     94.9513	        	        	        	        	       0	(  3  1  8)	  0  1 :  1
     94.9805	        	        	        	        	       0	(  4  0  4)	  0  2 :  1
     95.2595	        	        	        	        	       0	(  3  1  8)	  0  2 :  1
     95.2783	        	        	        	        	       0	(  2  2  9)	  0  1 :  1
     95.5882	        	        	        	        	       0	(  2  2  9)	  0  2 :  1
     96.0624	        	        	        	        	       0	(  1  0 16)	  0  1 :  1
     96.1118	        	        	        	        	       0	(  1  1 15)	  0  1 :  1
     96.3766	        	        	        	        	       0	(  1  0 16)	  0  2 :  1
     96.4263	        	        	        	        	       0	(  1  1 15)	  0  2 :  1
     97.6218	        	        	        	        	       0	(  2  1 13)	  0  1 :  1
     97.9448	        	        	        	        	       0	(  2  1 13)	  0  2 :  1
     99.0873	        	        	        	        	       0	(  0  3 12)	  0  1 :  1
     99.0873	        	        	        	        	       0	(  3  0 12)	  0  1 :  1
     99.4188	        	        	        	        	       0	(  0  3 12)	  0  2 :  1
     99.4188	        	        	        	        	       0	(  3  0 12)	  0  2 :  1
    102.1885	        	        	        	        	       0	(  3  2  1)	  0  1 :  1
    102.5388	        	        	        	        	       0	(  3  2  1)	  0  2 :  1
    102.9061	        	        	        	        	       0	(  2  3  2)	  0  1 :  1
    103.2609	        	        	        	        	       0	(  2  3  2)	  0  2 :  1
    103.4741	        	        	        	        	       0	(  1  3 10)	  0  1 :  1
    103.8326	        	        	        	        	       0	(  1  3 10)	  0  2 :  1
    104.0434	        	        	        	        	       0	(  1  2 14)	  0  1 :  1
    104.4056	        	        	        	        	       0	(  1  2 14)	  0  2 :  1
    105.7985	        	        	        	        	       0	(  3  2  4)	  0  1 :  1
    106.0861	        	        	        	        	       0	(  0  4  8)	  0  1 :  1
    106.1725	        	        	        	        	       0	(  3  2  4)	  0  2 :  1
    106.4620	        	        	        	        	       0	(  0  4  8)	  0  2 :  1
    107.2407	        	        	        	        	       0	(  0  2 16)	  0  1 :  1
    107.6246	        	        	        	        	       0	(  0  2 16)	  0  2 :  1
    107.9949	        	        	        	        	       0	(  2  3  5)	  0  1 :  1
    108.3842	        	        	        	        	       0	(  2  3  5)	  0  2 :  1
    108.5774	        	        	        	        	       0	(  3  1 11)	  0  1 :  1
    108.6098	        	        	        	        	       0	(  0  0 18)	  0  1 :  1
    108.9709	        	        	        	        	       0	(  3  1 11)	  0  2 :  1
    109.0036	        	        	        	        	       0	(  0  0 18)	  0  2 :  1
    109.5265	        	        	        	        	       0	(  4  1  0)	  0  1 :  1
    109.9270	        	        	        	        	       0	(  4  1  0)	  0  2 :  1
    110.4092	        	        	        	        	       0	(  2  2 12)	  0  1 :  1
    110.8163	        	        	        	        	       0	(  2  2 12)	  0  2 :  1
    111.7725	        	        	        	        	       0	(  1  4  3)	  0  1 :  1
    111.7725	        	        	        	        	       0	(  4  1  3)	  0  1 :  1
    112.1902	        	        	        	        	       0	(  1  4  3)	  0  2 :  1
    112.1902	        	        	        	        	       0	(  4  1  3)	  0  2 :  1
    114.0005	        	        	        	        	       0	(  3  2  7)	  0  1 :  1
    114.4363	        	        	        	        	       0	(  3  2  7)	  0  2 :  1
    115.0746	        	        	        	        	       0	(  4  0 10)	  0  1 :  1
    115.5195	        	        	        	        	       0	(  4  0 10)	  0  2 :  1
    117.8967	        	        	        	        	       0	(  2  3  8)	  0  1 :  1
    118.3670	        	        	        	        	       0	(  2  3  8)	  0  2 :  1
    118.7484	        	        	        	        	       0	(  1  4  6)	  0  1 :  1
    118.7484	        	        	        	        	       0	(  4  1  6)	  0  1 :  1
    119.1558	        	        	        	        	       0	(  2  1 16)	  0  1 :  1
    119.2267	        	        	        	        	       0	(  1  4  6)	  0  2 :  1
    119.2267	        	        	        	        	       0	(  4  1  6)	  0  2 :  1
    119.6380	        	        	        	        	       0	(  2  1 16)	  0  2 :  1
    120.6588	        	        	        	        	       0	(  1  1 18)	  0  1 :  1
    120.9450	        	        	        	        	       0	(  1  3 13)	  0  1 :  1
    121.1560	        	        	        	        	       0	(  1  1 18)	  0  2 :  1
    121.4451	        	        	        	        	       0	(  1  3 13)	  0  2 :  1
    127.2258	        	        	        	        	       0	(  5  0  2)	  0  1 :  1
    127.7974	        	        	        	        	       0	(  5  0  2)	  0  2 :  1
    127.9237	        	        	        	        	       0	(  3  2 10)	  0  1 :  1
    128.4398	        	        	        	        	       0	(  1  2 17)	  0  1 :  1
    128.5043	        	        	        	        	       0	(  3  2 10)	  0  2 :  1
    128.6283	        	        	        	        	       0	(  3  1 14)	  0  1 :  1
    129.0271	        	        	        	        	       0	(  1  2 17)	  0  2 :  1
    129.2182	        	        	        	        	       0	(  3  1 14)	  0  2 :  1
    130.8341	        	        	        	        	       0	(  0  5  4)	  0  1 :  1
    131.4546	        	        	        	        	       0	(  0  5  4)	  0  2 :  1
    131.6350	        	        	        	        	       0	(  1  4  9)	  0  1 :  1
    131.6350	        	        	        	        	       0	(  4  1  9)	  0  1 :  1
    132.2673	        	        	        	        	       0	(  1  4  9)	  0  2 :  1
    132.2673	        	        	        	        	       0	(  4  1  9)	  0  2 :  1
    132.7550	        	        	        	        	       0	(  2  2 15)	  0  1 :  1
    133.4044	        	        	        	        	       0	(  2  2 15)	  0  2 :  1
    133.8274	        	        	        	        	       0	(  0  1 20)	  0  1 :  1
    134.4440	        	        	        	        	       0	(  2  3 11)	  0  1 :  1
    134.4940	        	        	        	        	       0	(  0  1 20)	  0  2 :  1
    135.1207	        	        	        	        	       0	(  2  3 11)	  0  2 :  1
    135.7148	        	        	        	        	       0	(  3  3  0)	  0  1 :  1
    136.4135	        	        	        	        	       0	(  3  3  0)	  0  2 :  1
    138.8126	        	        	        	        	       0	(  3  3  3)	  0  1 :  1
    139.5703	        	        	        	        	       0	(  3  3  3)	  0  2 :  1
    141.5879	        	        	        	        	       0	(  2  4  1)	  0  1 :  1
    142.4063	        	        	        	        	       0	(  2  4  1)	  0  2 :  1
    142.7301	        	        	        	        	       0	(  4  2  2)	  0  1 :  1
    143.5762	        	        	        	        	       0	(  4  2  2)	  0  2 :  1
    144.5974	        	        	        	        	       0	(  0  4 14)	  0  1 :  1
    145.4925	        	        	        	        	       0	(  0  4 14)	  0  2 :  1
    147.6409	        	        	        	        	       0	(  2  4  4)	  0  1 :  1
    148.1614	        	        	        	        	       0	(  5  0  8)	  0  1 :  1
    148.6281	        	        	        	        	       0	(  2  4  4)	  0  2 :  1
    149.1662	        	        	        	        	       0	(  5  0  8)	  0  2 :  1
