CaCO3   Chi2:  4.0527  CELL:    4.98828   4.98828  17.06251   90.0000   90.0000  120.0000   SPGR: R -3 C                 TEMP:      0.00
  1   2992     1.54060     1.54439     0.00000    -0.07647     0.00000    0
   168     0     1
       0.00000      10.00000
 2Theta	Yobs	Ycal	Yobs-Ycal	Backg	Posr	(hkl)	K
     20.0165	   43.00	   40.57	 -579.82	   38.64
     20.0499	   39.00	   40.51	 -583.76	   38.57
     20.0834	   40.00	   40.44	 -582.69	   38.50
     20.1168	   47.00	   40.37	 -575.62	   38.43
     20.1502	   30.00	   40.30	 -592.55	   38.36
     20.1836	   37.00	   40.24	 -585.49	   38.29
     20.2170	   46.00	   40.17	 -576.42	   38.22
     20.2505	   36.00	   40.11	 -586.36	   38.15
     20.2839	   37.00	   40.04	 -585.29	   38.08
     20.3173	   41.00	   39.97	 -581.22	   38.01
     20.3507	   29.00	   39.91	 -593.16	   37.94
     20.3842	   37.00	   39.84	 -585.09	   37.87
     20.4176	   46.00	   39.78	 -576.03	   37.80
     20.4510	   39.00	   39.71	 -582.96	   37.73
     20.4844	   36.00	   39.65	 -585.90	   37.66
     20.5179	   43.00	   39.59	 -578.84	   37.59
     20.5513	   42.00	   39.52	 -579.77	   37.52
     20.5847	   28.00	   39.46	 -593.71	   37.45
     20.6181	   27.00	   39.40	 -594.65	   37.38
     20.6515	   41.00	   39.33	 -580.58	   37.32
     20.6850	   47.00	   39.27	 -574.52	   37.25
     20.7184	   34.00	   39.21	 -587.46	   37.18
     20.7518	   36.00	   39.15	 -585.40	   37.11
     20.7852	   49.00	   39.09	 -572.34	   37.04
     20.8187	   43.00	   39.03	 -578.28	   36.97
     20.8521	   52.00	   38.97	 -569.22	   36.90
     20.8855	   36.00	   38.91	 -585.16	   36.84
     20.9189	   37.00	   38.85	 -584.10	   36.77
     20.9523	   35.00	   38.79	 -586.04	   36.70
     20.9858	   43.00	   38.73	 -577.98	   36.63
     21.0192	   35.00	   38.68	 -585.93	   36.57
     21.0526	   46.00	   38.62	 -574.87	   36.50
     21.0860	   42.00	   38.56	 -578.81	   36.43
     21.1195	   41.00	   38.51	 -579.76	   36.36
     21.1529	   45.00	   38.46	 -575.71	   36.30
     21.1863	   30.00	   38.40	 -590.65	   36.23
     21.2197	   36.00	   38.35	 -584.60	   36.16
     21.2531	   44.00	   38.30	 -576.55	   36.09
     21.2866	   41.00	   38.25	 -579.50	   36.03
     21.3200	   41.00	   38.20	 -579.45	   35.96
     21.3534	   40.00	   38.15	 -580.40	   35.89
     21.3868	   31.00	   38.10	 -589.35	   35.83
     21.4203	   33.00	   38.05	 -587.30	   35.76
     21.4537	   27.00	   38.01	 -593.26	   35.70
     21.4871	   34.00	   37.97	 -586.22	   35.63
     21.5205	   43.00	   37.93	 -577.18	   35.56
     21.5539	   37.00	   37.89	 -583.14	   35.50
     21.5874	   29.00	   37.85	 -591.10	   35.43
     21.6208	   43.00	   37.81	 -577.06	   35.37
     21.6542	   47.00	   37.78	 -573.03	   35.30
     21.6876	   41.00	   37.75	 -579.00	   35.23
     21.7211	   27.00	   37.72	 -592.97	   35.17
     21.7545	   43.00	   37.70	 -576.95	   35.10
     21.7879	   29.00	   37.68	 -590.93	   35.04
     21.8213	   27.00	   37.66	 -592.91	   34.97
     21.8548	   28.00	   37.65	 -591.90	   34.91
     21.8882	   37.00	   37.64	 -582.89	   34.84
     21.9216	   34.00	   37.64	 -585.89	   34.78
     21.9550	   53.00	   37.64	 -566.89	   34.71
     21.9884	   46.00	   37.65	 -573.90	   34.65
     22.0219	   39.00	   37.67	 -580.92	   34.58
     22.0553	   39.00	   37.70	 -580.95	   34.52
     22.0887	   35.00	   37.74	 -584.99	   34.46
     22.1221	   37.00	   37.79	 -583.04	   34.39
     22.1556	   37.00	   37.85	 -583.10	   34.33
     22.1890	   33.00	   37.93	 -587.18	   34.26
     22.2224	   32.00	   38.02	 -588.27	   34.20
     22.2558	   43.00	   38.14	 -577.39	   34.14
     22.2892	   40.00	   38.29	 -580.54	   34.07
     22.3227	   37.00	   38.46	 -583.71	   34.01
     22.3561	   37.00	   38.67	 -583.92	   33.94
     22.3895	   41.00	   38.93	 -580.18	   33.88
     22.4229	   40.00	   39.24	 -581.49	   33.82
     22.4564	   47.00	   39.62	 -574.87	   33.75
     22.4898	   44.00	   40.08	 -578.33	   33.69
     22.5232	   45.00	   40.65	 -577.90	   33.63
     22.5566	   46.00	   41.35	 -577.60	   33.57
     22.5900	   43.00	   42.24	 -581.49	   33.50
     22.6235	   45.00	   43.37	 -580.62	   33.44
     22.6569	   34.00	   44.86	 -593.11	   33.38
     22.6903	   46.00	   46.87	 -583.12	   33.31
     22.7237	   52.00	   49.68	 -579.93	   33.25
     22.7572	   53.00	   53.79	 -583.04	   33.19
     22.7906	   61.00	   59.87	 -581.12	   33.13
     22.8240	   70.00	   68.83	 -581.08	   33.07
     22.8574	   79.00	   81.61	 -584.86	   33.00
     22.8909	   85.00	   98.78	 -596.03	   32.94
     22.9243	  120.00	  119.40	 -581.65	   32.88
     22.9577	  135.00	  139.08	 -586.33	   32.82
     22.9911	  141.00	  149.92	 -591.17	   32.76
     23.0245	  137.00	  146.81	 -592.06	   32.69
     23.0580	  114.00	  132.06	 -600.31	   32.63
     23.0914	  101.00	  111.94	 -593.19	   32.57
     23.1248	   72.00	   92.48	 -602.73	   32.51
     23.1582	   58.00	   76.73	 -600.98	   32.45
     23.1917	   52.00	   65.14	 -595.39	   32.39
     23.2251	   46.00	   57.05	 -593.30	   32.33
     23.2585	   47.00	   51.51	 -586.76	   32.27
     23.2919	   49.00	   47.71	 -580.96	   32.21
     23.3253	   54.00	   45.03	 -573.28	   32.14
     23.3588	   48.00	   43.07	 -577.32	   32.08
     23.3922	   41.00	   41.57	 -582.82	   32.02
     23.4256	   52.00	   40.40	 -570.65	   31.96
     23.4590	   35.00	   39.44	 -586.69	   31.90
     23.4925	   42.00	   38.66	 -578.91	   31.84
     23.5259	   55.00	   38.00	 -565.25	   31.78
     23.5593	   35.00	   37.44	 -584.69	   31.72
     23.5927	   47.00	   36.97	 -572.22	   31.66
     23.6261	   32.00	   36.55	 -586.80	   31.60
     23.6596	   42.00	   36.18	 -576.43	   31.54
     23.6930	   39.00	   35.86	 -579.11	   31.48
     23.7264	   52.00	   35.57	 -565.82	   31.42
     23.7598	   26.00	   35.31	 -591.56	   31.37
     23.7933	   26.00	   35.08	 -591.33	   31.31
     23.8267	   39.00	   34.87	 -578.12	   31.25
     23.8601	   41.00	   35.23	 -576.48	   31.19
     23.8935	   37.00	   35.05	 -580.30	   31.13
     23.9269	   39.00	   35.17	 -578.42	   31.07
     23.9604	   37.00	   35.02	 -580.27	   31.01
     23.9938	   34.00	   34.89	 -583.14	   30.95
     24.0272	   45.00	   34.76	 -572.01	   30.89
     24.0606	   29.00	   34.64	 -587.89	   30.83
     24.0941	   39.00	   34.52	 -577.77	   30.78
     24.1275	   33.00	   34.42	 -583.67	   30.72
     24.1609	   26.00	   34.31	 -590.56	   30.66
     24.1943	   34.00	   34.22	 -582.47	   30.60
     24.2278	   29.00	   34.12	 -587.37	   30.54
     24.2612	   30.00	   34.04	 -586.29	   30.49
     24.2946	   24.00	   33.95	 -592.20	   30.43
     24.3280	   30.00	   33.87	 -586.12	   30.37
     24.3614	   27.00	   33.79	 -589.04	   30.31
     24.3949	   37.00	   33.71	 -578.96	   30.25
     24.4283	   34.00	   33.64	 -581.89	   30.20
     24.4617	   33.00	   33.57	 -582.82	   30.14
     24.4951	   32.00	   33.50	 -583.75	   30.08
     24.5286	   34.00	   33.43	 -581.68	   30.03
     24.5620	   30.00	   33.37	 -585.62	   29.97
     24.5954	   28.00	   33.31	 -587.56	   29.91
     24.6288	   31.00	   33.24	 -584.49	   29.85
     24.6622	   34.00	   33.18	 -581.43	   29.80
     24.6957	   29.00	   33.13	 -586.38	   29.74
     24.7291	   30.00	   33.07	 -585.32	   29.68
     24.7625	   28.00	   33.01	 -587.26	   29.63
     24.7959	   26.00	   32.96	 -589.21	   29.57
     24.8294	   18.00	   32.91	 -597.16	   29.51
     24.8628	   26.00	   32.86	 -589.11	   29.46
     24.8962	   22.00	   32.81	 -593.06	   29.40
     24.9296	   30.00	   32.76	 -585.01	   29.35
     24.9630	   29.00	   32.71	 -585.96	   29.29
     24.9965	   30.00	   32.66	 -584.91	   29.23
     25.0299	   28.00	   32.62	 -586.87	   29.18
     25.0633	   28.00	   32.57	 -586.82	   29.12
     25.0967	   27.00	   32.53	 -587.78	   29.07
     25.1302	   23.00	   32.49	 -591.74	   29.01
     25.1636	   30.00	   32.45	 -584.70	   28.96
     25.1970	   30.00	   32.41	 -584.66	   28.90
     25.2304	   24.00	   32.37	 -590.62	   28.85
     25.2639	   37.00	   32.33	 -577.58	   28.79
     25.2973	   34.00	   32.29	 -580.54	   28.73
     25.3307	   28.00	   32.25	 -586.50	   28.68
     25.3641	   29.00	   32.22	 -585.47	   28.62
     25.3975	   35.00	   32.18	 -579.43	   28.57
     25.4310	   40.00	   32.15	 -574.40	   28.52
     25.4644	   21.00	   32.12	 -593.37	   28.46
     25.4978	   39.00	   32.09	 -575.34	   28.41
     25.5312	   24.00	   32.06	 -590.31	   28.35
     25.5647	   31.00	   32.03	 -583.28	   28.30
     25.5981	   40.00	   32.01	 -574.26	   28.24
     25.6315	   28.00	   31.98	 -586.23	   28.19
     25.6649	   26.00	   31.96	 -588.21	   28.13
     25.6983	   26.00	   31.94	 -588.19	   28.08
     25.7318	   34.00	   31.92	 -580.17	   28.03
     25.7652	   31.00	   31.89	 -583.14	   27.97
     25.7986	   35.00	   31.87	 -579.12	   27.92
     25.8320	   27.00	   31.85	 -587.10	   27.87
     25.8655	   28.00	   31.84	 -586.09	   27.81
     25.8989	   23.00	   31.82	 -591.07	   27.76
     25.9323	   29.00	   31.80	 -585.05	   27.71
     25.9657	   32.00	   31.79	 -582.04	   27.65
     25.9991	   35.00	   31.78	 -579.03	   27.60
     26.0326	   28.00	   31.77	 -586.02	   27.55
     26.0660	   26.00	   31.76	 -588.01	   27.49
     26.0994	   28.00	   31.75	 -586.00	   27.44
     26.1328	   42.00	   31.74	 -571.99	   27.39
     26.1663	   33.00	   31.74	 -580.99	   27.33
     26.1997	   30.00	   31.74	 -583.99	   27.28
     26.2331	   24.00	   31.74	 -589.99	   27.23
     26.2665	   21.00	   31.74	 -592.99	   27.18
     26.2999	   27.00	   31.74	 -586.99	   27.12
     26.3334	   20.00	   31.75	 -594.00	   27.07
     26.3668	   32.00	   31.75	 -582.00	   27.02
     26.4002	   37.00	   31.76	 -577.01	   26.97
     26.4336	   36.00	   31.78	 -578.03	   26.92
     26.4671	   27.00	   31.79	 -587.04	   26.86
     26.5005	   32.00	   31.81	 -582.06	   26.81
     26.5339	   29.00	   31.83	 -585.08	   26.76
     26.5673	   21.00	   31.85	 -593.10	   26.71
     26.6008	   24.00	   31.88	 -590.13	   26.66
     26.6342	   29.00	   31.90	 -585.15	   26.61
     26.6676	   33.00	   31.94	 -581.19	   26.55
     26.7010	   32.00	   31.97	 -582.22	   26.50
     26.7344	   31.00	   32.01	 -583.26	   26.45
     26.7679	   35.00	   32.05	 -579.30	   26.40
     26.8013	   32.00	   32.10	 -582.35	   26.35
     26.8347	   16.00	   32.15	 -598.40	   26.30
     26.8681	   27.00	   32.20	 -587.45	   26.25
     26.9016	   45.00	   32.26	 -569.51	   26.20
     26.9350	   30.00	   32.33	 -584.58	   26.15
     26.9684	   40.00	   32.40	 -574.65	   26.10
     27.0018	   35.00	   32.47	 -579.72	   26.05
     27.0352	   31.00	   32.55	 -583.80	   26.00
     27.0687	   35.00	   32.64	 -579.89	   25.94
     27.1021	   19.00	   32.73	 -595.98	   25.89
     27.1355	   28.00	   32.83	 -587.08	   25.84
     27.1689	   26.00	   32.93	 -589.18	   25.79
     27.2024	   26.00	   33.04	 -589.29	   25.74
     27.2358	   28.00	   33.17	 -587.42	   25.69
     27.2692	   20.00	   33.29	 -595.54	   25.64
     27.3026	   45.00	   33.43	 -570.68	   25.60
     27.3360	   29.00	   33.58	 -586.83	   25.55
     27.3695	   28.00	   33.74	 -587.99	   25.50
     27.4029	   43.00	   33.91	 -573.16	   25.45
     27.4363	   30.00	   34.09	 -586.34	   25.40
     27.4697	   37.00	   34.28	 -579.53	   25.35
     27.5032	   29.00	   34.49	 -587.74	   25.30
     27.5366	   26.00	   34.71	 -590.96	   25.25
     27.5700	   40.00	   34.90	 -577.15	   25.20
     27.6034	   31.00	   35.15	 -586.40	   25.15
     27.6369	   36.00	   35.41	 -581.66	   25.10
     27.6703	   42.00	   35.70	 -575.95	   25.05
     27.7037	   29.00	   36.01	 -589.26	   25.00
     27.7371	   37.00	   36.34	 -581.59	   24.96
     27.7705	   41.00	   36.70	 -577.95	   24.91
     27.8040	   24.00	   37.08	 -595.33	   24.86
     27.8374	   35.00	   37.49	 -584.74	   24.81
     27.8708	   35.00	   37.94	 -585.19	   24.76
     27.9042	   43.00	   38.41	 -577.66	   24.71
     27.9377	   30.00	   38.93	 -591.18	   24.67
     27.9711	   44.00	   39.49	 -577.74	   24.62
     28.0045	   45.00	   40.09	 -577.34	   24.57
     28.0379	   35.00	   40.74	 -587.99	   24.52
     28.0713	   44.00	   41.44	 -579.69	   24.47
     28.1048	   26.00	   42.21	 -598.46	   24.43
     28.1382	   47.00	   43.04	 -578.29	   24.38
     28.1716	   35.00	   43.95	 -591.20	   24.33
     28.2050	   42.00	   44.94	 -585.19	   24.28
     28.2385	   39.00	   46.03	 -589.28	   24.24
     28.2719	   52.00	   47.22	 -577.47	   24.19
     28.3053	   70.00	   48.52	 -560.77	   24.14
     28.3387	   40.00	   49.96	 -592.21	   24.10
     28.3721	   39.00	   51.55	 -594.80	   24.05
     28.4056	   65.00	   53.32	 -570.57	   24.00
     28.4390	   72.00	   55.28	 -565.53	   23.96
     28.4724	   62.00	   57.47	 -577.72	   23.91
     28.5058	   72.00	   59.92	 -570.17	   23.86
     28.5393	   56.00	   62.67	 -588.92	   23.82
     28.5727	   77.00	   65.78	 -571.03	   23.77
     28.6061	   80.00	   69.31	 -571.56	   23.72
     28.6395	   93.00	   73.33	 -562.58	   23.68
     28.6729	   84.00	   77.94	 -576.19	   23.63
     28.7064	   75.00	   83.25	 -590.50	   23.58
     28.7398	   92.00	   89.41	 -579.66	   23.54
     28.7732	   97.00	   96.61	 -581.86	   23.49
     28.8066	  110.00	  105.10	 -577.35	   23.45
     28.8401	  110.00	  115.18	 -587.43	   23.40
     28.8735	  128.00	  127.30	 -581.55	   23.35
     28.9069	  137.00	  142.05	 -587.30	   23.31
     28.9403	  165.00	  160.33	 -577.58	   23.26
     28.9738	  179.00	  183.45	 -586.70	   23.22
     29.0072	  218.00	  213.39	 -577.64	   23.17
     29.0406	  248.00	  253.08	 -587.33	   23.13
     29.0740	  269.00	  306.66	 -619.91	   23.08
     29.1074	  329.00	  379.68	 -632.93	   23.04
     29.1409	  416.00	  478.89	 -645.14	   22.99
     29.1743	  502.00	  611.45	 -691.70	   22.95
     29.2077	  627.00	  782.75	 -738.00	   22.90
     29.2411	  878.00	  990.67	 -694.92	   22.86
     29.2746	 1481.00	 1214.59	 -315.84	   22.81
     29.3080	 2225.00	 1405.12	  237.63	   22.77
     29.3414	 2329.00	 1500.09	  246.66	   22.72
     29.3748	 2182.00	 1470.41	  129.34	   22.68
     29.4082	 1790.00	 1335.15	 -127.40	   22.63
     29.4417	 1185.00	 1136.91	 -534.16	   22.59
     29.4751	  840.00	  923.25	 -665.50	   22.54
     29.5085	  620.00	  729.70	 -691.95	   22.50
     29.5419	  448.00	  571.47	 -705.72	   22.46
     29.5754	  376.00	  449.42	 -655.67	   22.41
     29.6088	  324.00	  358.18	 -616.43	   22.37
     29.6422	  282.00	  290.87	 -591.12	   22.32
     29.6756	  251.00	  241.23	 -572.48	   22.28
     29.7090	  221.00	  204.22	 -565.47	   22.24
     29.7425	  182.00	  176.10	 -576.35	   22.19
     29.7759	  158.00	  154.24	 -578.49	   22.15
     29.8093	  181.00	  136.87	 -538.12	   22.11
     29.8427	  152.00	  122.78	 -553.03	   22.06
     29.8762	  123.00	  111.16	 -570.41	   22.02
     29.9096	  123.00	  101.46	 -560.71	   21.98
     29.9430	  124.00	   93.27	 -551.52	   21.93
     29.9764	   90.00	   86.29	 -578.54	   21.89
     30.0098	   91.00	   80.30	 -571.55	   21.85
     30.0433	   80.00	   75.12	 -577.37	   21.80
     30.0767	   90.00	   70.61	 -562.86	   21.76
     30.1101	   86.00	   66.66	 -562.91	   21.72
     30.1435	   79.00	   63.18	 -566.43	   21.67
     30.1770	   61.00	   60.11	 -581.36	   21.63
     30.2104	   74.00	   57.38	 -565.63	   21.59
     30.2438	   69.00	   54.94	 -568.19	   21.55
     30.2772	   59.00	   52.75	 -576.00	   21.50
     30.3107	   58.00	   50.78	 -575.03	   21.46
     30.3441	   62.00	   49.01	 -569.26	   21.42
     30.3775	   72.00	   47.41	 -557.66	   21.38
     30.4109	   39.00	   45.95	 -589.20	   21.34
     30.4443	   49.00	   44.63	 -577.88	   21.29
     30.4778	   44.00	   43.43	 -581.68	   21.25
     30.5112	   58.00	   42.33	 -566.58	   21.21
     30.5446	   55.00	   41.33	 -568.58	   21.17
     30.5780	   45.00	   40.41	 -577.66	   21.13
     30.6115	   43.00	   39.58	 -578.83	   21.08
     30.6449	   44.00	   38.82	 -577.07	   21.04
     30.6783	   58.00	   38.13	 -562.38	   21.00
     30.7117	   42.00	   37.50	 -577.75	   20.96
     30.7451	   35.00	   36.94	 -584.19	   20.92
     30.7786	   32.00	   36.44	 -586.69	   20.88
     30.8120	   45.00	   36.00	 -573.25	   20.84
     30.8454	   43.00	   35.62	 -574.87	   20.80
     30.8788	   46.00	   35.31	 -571.56	   20.75
     30.9123	   40.00	   35.08	 -577.33	   20.71
     30.9457	   40.00	   34.93	 -577.18	   20.67
     30.9791	   47.00	   34.88	 -570.13	   20.63
     31.0125	   42.00	   34.96	 -575.21	   20.59
     31.0459	   49.00	   35.20	 -568.45	   20.55
     31.0794	   40.00	   35.67	 -577.92	   20.51
     31.1128	   50.00	   36.44	 -568.69	   20.47
     31.1462	   41.00	   37.60	 -578.85	   20.43
     31.1796	   53.00	   39.26	 -568.51	   20.39
     31.2131	   50.00	   41.53	 -573.78	   20.35
     31.2465	   47.00	   44.45	 -579.70	   20.31
     31.2799	   44.00	   47.88	 -586.13	   20.27
     31.3133	   65.00	   51.35	 -568.60	   20.23
     31.3468	   61.00	   53.96	 -575.21	   20.19
     31.3802	   70.00	   54.82	 -567.07	   20.15
     31.4136	   72.00	   53.70	 -563.95	   20.11
     31.4470	   60.00	   51.00	 -573.25	   20.07
     31.4804	   56.00	   47.37	 -573.62	   20.03
     31.5139	   53.00	   43.55	 -572.80	   19.99
     31.5473	   31.00	   40.06	 -591.31	   19.95
     31.5807	   36.00	   37.14	 -583.39	   19.91
     31.6141	   50.00	   34.81	 -567.06	   19.87
     31.6476	   36.00	   33.00	 -579.25	   19.83
     31.6810	   24.00	   31.60	 -589.85	   19.79
     31.7144	   37.00	   30.51	 -575.76	   19.75
     31.7478	   26.00	   29.65	 -585.90	   19.72
     31.7812	   26.00	   28.96	 -585.21	   19.68
     31.8147	   32.00	   28.39	 -578.64	   19.64
     31.8481	   24.00	   27.91	 -586.16	   19.60
     31.8815	   35.00	   27.50	 -574.75	   19.56
     31.9149	   31.00	   27.14	 -578.39	   19.52
     31.9484	   20.00	   26.82	 -589.07	   19.48
     31.9818	   33.00	   26.53	 -575.78	   19.44
     32.0152	   21.00	   26.27	 -587.52	   19.41
     32.0486	   31.00	   26.03	 -577.28	   19.37
     32.0820	   28.00	   25.82	 -580.07	   19.33
     32.1155	   20.00	   25.61	 -587.86	   19.29
     32.1489	   21.00	   25.43	 -586.68	   19.25
     32.1823	   27.00	   25.25	 -580.50	   19.22
     32.2157	   24.00	   25.08	 -583.33	   19.18
     32.2492	   35.00	   24.93	 -572.18	   19.14
     32.2826	   31.00	   24.78	 -576.03	   19.10
     32.3160	   30.00	   24.71	 -576.96	   19.06
     32.3494	   29.00	   24.58	 -577.83	   19.03
     32.3829	   27.00	   24.49	 -579.74	   18.99
     32.4163	   24.00	   24.37	 -582.62	   18.95
     32.4497	   22.00	   24.25	 -584.50	   18.91
     32.4831	   18.00	   24.14	 -588.39	   18.88
     32.5165	   40.00	   24.03	 -566.28	   18.84
     32.5500	   21.00	   23.93	 -585.18	   18.80
     32.5834	   22.00	   23.83	 -584.08	   18.76
     32.6168	   22.00	   23.74	 -583.99	   18.73
     32.6502	   19.00	   23.65	 -586.90	   18.69
     32.6837	   29.00	   23.56	 -576.81	   18.65
     32.7171	   19.00	   23.47	 -586.72	   18.62
     32.7505	   23.00	   23.39	 -582.64	   18.58
     32.7839	   22.00	   23.31	 -583.56	   18.54
     32.8173	   23.00	   23.23	 -582.48	   18.51
     32.8508	   23.00	   23.15	 -582.40	   18.47
     32.8842	   19.00	   23.08	 -586.33	   18.43
     32.9176	   30.00	   23.01	 -575.26	   18.40
     32.9510	   27.00	   22.94	 -578.19	   18.36
     32.9845	   23.00	   22.87	 -582.12	   18.32
     33.0179	   26.00	   22.81	 -579.06	   18.29
     33.0513	   21.00	   22.74	 -583.99	   18.25
     33.0847	   26.00	   22.68	 -578.93	   18.22
     33.1181	   13.00	   22.62	 -591.87	   18.18
     33.1516	   16.00	   22.56	 -588.81	   18.14
     33.1850	   18.00	   22.51	 -586.76	   18.11
     33.2184	   27.00	   22.45	 -577.70	   18.07
     33.2518	   21.00	   22.40	 -583.65	   18.04
     33.2853	   21.00	   22.35	 -583.60	   18.00
     33.3187	   20.00	   22.30	 -584.55	   17.96
     33.3521	   20.00	   22.25	 -584.50	   17.93
     33.3855	   24.00	   22.21	 -580.46	   17.89
     33.4189	   27.00	   22.16	 -577.41	   17.86
     33.4524	   22.00	   22.12	 -582.37	   17.82
     33.4858	   22.00	   22.08	 -582.33	   17.79
     33.5192	   21.00	   22.04	 -583.29	   17.75
     33.5526	   29.00	   22.00	 -575.25	   17.72
     33.5861	   29.00	   21.97	 -575.22	   17.68
     33.6195	   28.00	   21.93	 -576.18	   17.65
     33.6529	   26.00	   21.90	 -578.15	   17.61
     33.6863	   14.00	   21.87	 -590.12	   17.58
     33.7198	   21.00	   21.84	 -583.09	   17.54
     33.7532	   28.00	   21.81	 -576.06	   17.51
     33.7866	   27.00	   21.79	 -577.04	   17.47
     33.8200	   27.00	   21.77	 -577.02	   17.44
     33.8534	   19.00	   21.75	 -585.00	   17.40
     33.8869	   29.00	   21.73	 -574.98	   17.37
     33.9203	   30.00	   21.71	 -573.96	   17.34
     33.9537	   16.00	   21.70	 -587.95	   17.30
     33.9871	   20.00	   21.69	 -583.94	   17.27
     34.0206	   17.00	   21.68	 -586.93	   17.23
     34.0540	   24.00	   21.67	 -579.92	   17.20
     34.0874	   18.00	   21.67	 -585.92	   17.16
     34.1208	   20.00	   21.67	 -583.92	   17.13
     34.1542	   26.00	   21.67	 -577.92	   17.10
     34.1877	   23.00	   21.68	 -580.93	   17.06
     34.2211	   35.00	   21.69	 -568.94	   17.03
     34.2545	   28.00	   21.71	 -575.96	   17.00
     34.2879	   18.00	   21.73	 -585.98	   16.96
     34.3214	   23.00	   21.75	 -581.00	   16.93
     34.3548	   26.00	   21.78	 -578.03	   16.89
     34.3882	   21.00	   21.81	 -583.06	   16.86
     34.4216	   22.00	   21.85	 -582.10	   16.83
     34.4550	   21.00	   21.90	 -583.15	   16.80
     34.4885	   19.00	   21.95	 -585.20	   16.76
     34.5219	   22.00	   22.01	 -582.26	   16.73
     34.5553	   26.00	   22.08	 -578.33	   16.70
     34.5887	   17.00	   22.15	 -587.40	   16.66
     34.6222	   22.00	   22.24	 -582.49	   16.63
     34.6556	   22.00	   22.33	 -582.58	   16.60
     34.6890	   24.00	   22.44	 -580.69	   16.56
     34.7224	   18.00	   22.56	 -586.81	   16.53
     34.7559	   28.00	   22.69	 -576.94	   16.50
     34.7893	   19.00	   22.84	 -586.09	   16.47
     34.8227	   20.00	   22.45	 -584.70	   16.43
     34.8561	   19.00	   22.65	 -585.90	   16.40
     34.8895	   20.00	   22.86	 -585.11	   16.37
     34.9230	   21.00	   22.82	 -584.07	   16.34
     34.9564	   19.00	   23.09	 -586.34	   16.30
     34.9898	   23.00	   23.39	 -582.64	   16.27
     35.0232	   21.00	   23.73	 -584.98	   16.24
     35.0567	   22.00	   24.10	 -584.35	   16.21
     35.0901	   23.00	   24.53	 -583.78	   16.18
     35.1235	   21.00	   25.01	 -586.26	   16.14
     35.1569	   22.00	   25.55	 -585.80	   16.11
     35.1903	   29.00	   26.17	 -579.42	   16.08
     35.2238	   16.00	   26.87	 -593.12	   16.05
     35.2572	   33.00	   27.68	 -576.93	   16.02
     35.2906	   29.00	   28.61	 -581.86	   15.99
     35.3240	   23.00	   29.70	 -588.95	   15.95
     35.3575	   24.00	   30.97	 -589.22	   15.92
     35.3909	   36.00	   32.46	 -578.71	   15.89
     35.4243	   26.00	   34.30	 -590.55	   15.86
     35.4577	   30.00	   36.44	 -588.69	   15.83
     35.4911	   32.00	   39.06	 -589.31	   15.80
     35.5246	   20.00	   42.33	 -604.58	   15.77
     35.5580	   35.00	   46.41	 -593.66	   15.74
     35.5914	   41.00	   51.60	 -592.85	   15.70
     35.6248	   44.00	   58.27	 -596.52	   15.67
     35.6583	   47.00	   66.87	 -602.12	   15.64
     35.6917	   50.00	   77.92	 -610.17	   15.61
     35.7251	   32.00	   91.99	 -642.24	   15.58
     35.7585	   67.00	  109.48	 -624.73	   15.55
     35.7920	   66.00	  130.38	 -646.63	   15.52
     35.8254	   77.00	  153.60	 -658.85	   15.49
     35.8588	   98.00	  176.20	 -660.45	   15.46
     35.8922	  133.00	  193.52	 -642.77	   15.43
     35.9256	  151.00	  201.21	 -632.46	   15.40
     35.9591	  147.00	  197.88	 -633.13	   15.37
     35.9925	  123.00	  185.20	 -644.45	   15.34
     36.0259	   85.00	  166.14	 -663.39	   15.31
     36.0593	   90.00	  144.15	 -636.40	   15.28
     36.0928	   55.00	  122.43	 -649.68	   15.25
     36.1262	   50.00	  103.07	 -635.32	   15.22
     36.1596	   58.00	   86.90	 -611.15	   15.19
     36.1930	   47.00	   73.91	 -609.16	   15.16
     36.2264	   34.00	   63.68	 -611.93	   15.13
     36.2599	   31.00	   55.69	 -606.94	   15.10
     36.2933	   31.00	   49.47	 -600.72	   15.07
     36.3267	   42.00	   44.60	 -584.85	   15.04
     36.3601	   32.00	   40.75	 -591.00	   15.01
     36.3936	   39.00	   37.67	 -580.92	   14.98
     36.4270	   32.00	   35.16	 -585.41	   14.95
     36.4604	   34.00	   33.09	 -581.34	   14.92
     36.4938	   27.00	   31.36	 -586.61	   14.89
     36.5272	   20.00	   29.90	 -592.15	   14.86
     36.5607	   16.00	   28.65	 -594.90	   14.83
     36.5941	   34.00	   27.58	 -575.83	   14.80
     36.6275	   20.00	   26.65	 -588.90	   14.78
     36.6609	   16.00	   25.83	 -592.08	   14.75
     36.6944	   30.00	   25.12	 -577.37	   14.72
     36.7278	   19.00	   24.49	 -587.74	   14.69
     36.7612	   22.00	   23.93	 -584.18	   14.66
     36.7946	   24.00	   23.44	 -581.69	   14.63
     36.8280	   19.00	   22.99	 -586.24	   14.60
     36.8615	   18.00	   22.60	 -586.85	   14.57
     36.8949	   23.00	   22.24	 -581.49	   14.55
     36.9283	   18.00	   21.91	 -586.16	   14.52
     36.9617	   19.00	   21.62	 -584.87	   14.49
     36.9952	   18.00	   21.36	 -585.61	   14.46
     37.0286	   17.00	   21.12	 -586.37	   14.43
     37.0620	   24.00	   20.90	 -579.15	   14.40
     37.0954	   18.00	   20.70	 -584.95	   14.38
     37.1289	   29.00	   20.52	 -573.77	   14.35
     37.1623	   21.00	   20.34	 -581.59	   14.32
     37.1957	   21.00	   20.19	 -581.44	   14.29
     37.2291	   28.00	   20.06	 -574.31	   14.26
     37.2625	   19.00	   19.93	 -583.18	   14.24
     37.2960	   24.00	   19.81	 -578.06	   14.21
     37.3294	   30.00	   19.71	 -571.96	   14.18
     37.3628	   20.00	   19.62	 -581.87	   14.15
     37.3962	   22.00	   19.54	 -579.79	   14.13
     37.4297	   11.00	   19.46	 -590.71	   14.10
     37.4631	   29.00	   19.40	 -572.65	   14.07
     37.4965	   15.00	   19.34	 -586.59	   14.04
     37.5299	   19.00	   19.29	 -582.54	   14.02
     37.5633	   20.00	   19.25	 -581.50	   13.99
     37.5968	   20.00	   19.21	 -581.46	   13.96
     37.6302	   29.00	   19.18	 -572.43	   13.93
     37.6636	   10.00	   19.16	 -591.41	   13.91
     37.6970	   20.00	   19.15	 -581.40	   13.88
     37.7305	   22.00	   19.15	 -579.40	   13.85
     37.7639	   23.00	   19.15	 -578.40	   13.83
     37.7973	   24.00	   19.16	 -577.41	   13.80
     37.8307	   14.00	   19.18	 -587.43	   13.77
     37.8641	   17.00	   19.21	 -584.46	   13.75
     37.8976	   21.00	   19.24	 -580.49	   13.72
     37.9310	   23.00	   19.29	 -578.54	   13.69
     37.9644	   14.00	   19.34	 -587.59	   13.67
     37.9978	   19.00	   19.41	 -582.66	   13.64
     38.0313	   20.00	   19.48	 -581.73	   13.61
     38.0647	   15.00	   19.57	 -586.82	   13.59
     38.0981	   14.00	   19.67	 -587.92	   13.56
     38.1315	   27.00	   19.79	 -575.04	   13.53
     38.1649	   15.00	   19.91	 -587.16	   13.51
     38.1984	   18.00	   20.06	 -584.31	   13.48
     38.2318	   18.00	   20.23	 -584.48	   13.45
     38.2652	   23.00	   20.41	 -579.66	   13.43
     38.2986	   19.00	   20.62	 -583.87	   13.40
     38.3321	   24.00	   20.85	 -579.10	   13.38
     38.3655	   16.00	   21.11	 -587.36	   13.35
     38.3989	   13.00	   21.40	 -590.65	   13.33
     38.4323	   21.00	   21.73	 -582.98	   13.30
     38.4658	   23.00	   22.10	 -581.35	   13.27
     38.4992	   20.00	   22.51	 -584.76	   13.25
     38.5326	   22.00	   22.98	 -583.23	   13.22
     38.5660	   23.00	   23.51	 -582.76	   13.20
     38.5994	   22.00	   24.11	 -584.36	   13.17
     38.6329	   17.00	   24.80	 -590.05	   13.15
     38.6663	   26.00	   25.58	 -581.83	   13.12
     38.6997	   19.00	   26.50	 -589.75	   13.10
     38.7331	   22.00	   27.54	 -587.79	   13.07
     38.7666	   29.00	   28.75	 -582.00	   13.05
     38.8000	   22.00	   30.17	 -590.42	   13.02
     38.8334	   27.00	   31.83	 -587.08	   13.00
     38.8668	   24.00	   33.81	 -592.06	   12.97
     38.9002	   33.00	   36.20	 -585.45	   12.95
     38.9337	   30.00	   39.11	 -591.36	   12.92
     38.9671	   42.00	   42.69	 -582.94	   12.90
     39.0005	   30.00	   47.23	 -599.48	   12.87
     39.0339	   45.00	   52.84	 -590.09	   12.85
     39.0674	   40.00	   59.90	 -602.15	   12.82
     39.1008	   58.00	   68.80	 -593.05	   12.80
     39.1342	   66.00	   79.98	 -596.23	   12.77
     39.1676	   62.00	   93.76	 -614.01	   12.75
     39.2010	   85.00	  110.34	 -607.59	   12.72
     39.2345	   90.00	  129.44	 -621.69	   12.70
     39.2679	  120.00	  149.76	 -612.01	   12.67
     39.3013	  138.00	  168.64	 -612.89	   12.65
     39.3347	  171.00	  182.44	 -593.69	   12.63
     39.3682	  171.00	  188.18	 -599.43	   12.60
     39.4016	  161.00	  185.17	 -606.42	   12.58
     39.4350	  138.00	  174.67	 -618.92	   12.55
     39.4684	  118.00	  158.86	 -623.11	   12.53
     39.5019	  116.00	  140.19	 -606.44	   12.51
     39.5353	   66.00	  121.09	 -637.34	   12.48
     39.5687	   66.00	  103.42	 -619.67	   12.46
     39.6021	   58.00	   88.13	 -612.38	   12.43
     39.6355	   43.00	   75.43	 -614.68	   12.41
     39.6690	   43.00	   65.14	 -604.39	   12.39
     39.7024	   43.00	   56.90	 -596.15	   12.36
     39.7358	   42.00	   50.34	 -590.59	   12.34
     39.7692	   33.00	   45.10	 -594.35	   12.32
     39.8027	   35.00	   40.91	 -588.16	   12.29
     39.8361	   32.00	   37.58	 -587.83	   12.27
     39.8695	   28.00	   34.81	 -589.06	   12.25
     39.9029	   30.00	   32.52	 -584.77	   12.22
     39.9363	   30.00	   30.63	 -582.88	   12.20
     39.9698	   30.00	   29.01	 -581.26	   12.18
     40.0032	   31.00	   27.63	 -578.88	   12.15
     40.0366	   21.00	   26.43	 -587.68	   12.13
     40.0700	   27.00	   25.40	 -580.65	   12.11
     40.1035	   16.00	   24.49	 -590.74	   12.09
     40.1369	   17.00	   23.70	 -588.95	   12.06
     40.1703	   16.00	   22.99	 -589.24	   12.04
     40.2037	   20.00	   22.37	 -584.62	   12.02
     40.2371	   19.00	   21.81	 -585.06	   11.99
     40.2706	   23.00	   21.32	 -580.57	   11.97
     40.3040	   22.00	   20.87	 -581.12	   11.95
     40.3374	   24.00	   20.47	 -578.72	   11.93
     40.3708	   24.00	   20.10	 -578.35	   11.90
     40.4043	   23.00	   19.77	 -579.02	   11.88
     40.4377	   18.00	   19.47	 -583.72	   11.86
     40.4711	   10.00	   19.20	 -591.45	   11.84
     40.5045	   20.00	   18.95	 -581.20	   11.81
     40.5379	   18.00	   18.72	 -582.97	   11.79
     40.5714	   16.00	   18.51	 -584.76	   11.77
     40.6048	   21.00	   18.32	 -579.57	   11.75
     40.6382	   15.00	   18.14	 -585.39	   11.73
     40.6716	   16.00	   17.98	 -584.23	   11.70
     40.7051	   15.00	   17.83	 -585.08	   11.68
     40.7385	   18.00	   17.70	 -581.95	   11.66
     40.7719	   23.00	   17.57	 -576.82	   11.64
     40.8053	   19.00	   17.46	 -580.71	   11.62
     40.8388	   16.00	   17.35	 -583.60	   11.59
     40.8722	    9.00	   17.25	 -590.50	   11.57
     40.9056	   14.00	   17.16	 -585.41	   11.55
     40.9390	   18.00	   17.08	 -581.33	   11.53
     40.9724	   15.00	   17.01	 -584.26	   11.51
     41.0059	   16.00	   16.94	 -583.19	   11.49
     41.0393	    9.00	   16.88	 -590.13	   11.47
     41.0727	   19.00	   16.83	 -580.08	   11.44
     41.1061	   14.00	   16.78	 -585.03	   11.42
     41.1396	   16.00	   16.74	 -582.99	   11.40
     41.1730	   18.00	   16.70	 -580.95	   11.38
     41.2064	   14.00	   16.67	 -584.92	   11.36
     41.2398	   16.00	   16.65	 -582.90	   11.34
     41.2732	   10.00	   16.63	 -588.88	   11.32
     41.3067	   18.00	   16.61	 -580.86	   11.30
     41.3401	   17.00	   16.61	 -581.86	   11.28
     41.3735	   17.00	   16.60	 -581.85	   11.25
     41.4069	   20.00	   16.61	 -578.86	   11.23
     41.4404	   22.00	   16.62	 -576.87	   11.21
     41.4738	   17.00	   16.63	 -581.88	   11.19
     41.5072	   15.00	   16.66	 -583.91	   11.17
     41.5406	   16.00	   16.68	 -582.93	   11.15
     41.5741	   26.00	   16.72	 -572.97	   11.13
     41.6075	   26.00	   16.76	 -573.01	   11.11
     41.6409	   16.00	   16.81	 -583.06	   11.09
     41.6743	   16.00	   16.87	 -583.12	   11.07
     41.7077	   18.00	   16.94	 -581.19	   11.05
     41.7412	   15.00	   17.02	 -584.27	   11.03
     41.7746	   21.00	   17.11	 -578.36	   11.01
     41.8080	   19.00	   17.20	 -580.45	   10.99
     41.8414	   21.00	   17.31	 -578.56	   10.97
     41.8749	   21.00	   17.44	 -578.69	   10.95
     41.9083	   20.00	   17.57	 -579.82	   10.93
     41.9417	   20.00	   17.73	 -579.98	   10.91
     41.9751	   11.00	   17.90	 -589.15	   10.89
     42.0085	   18.00	   18.09	 -582.34	   10.87
     42.0420	   22.00	   18.29	 -578.54	   10.85
     42.0754	   18.00	   18.53	 -582.78	   10.83
     42.1088	   18.00	   18.79	 -583.04	   10.81
     42.1422	   10.00	   19.08	 -591.33	   10.79
     42.1757	   13.00	   19.40	 -588.65	   10.77
     42.2091	   14.00	   19.76	 -588.01	   10.75
     42.2425	   23.00	   20.16	 -579.41	   10.73
     42.2759	   22.00	   20.61	 -580.86	   10.71
     42.3093	   17.00	   21.12	 -586.37	   10.69
     42.3428	   15.00	   21.70	 -588.95	   10.67
     42.3762	   21.00	   22.35	 -583.60	   10.65
     42.4096	   22.00	   23.02	 -583.27	   10.63
     42.4430	   15.00	   23.87	 -591.12	   10.61
     42.4765	   29.00	   24.84	 -578.09	   10.59
     42.5099	   17.00	   25.97	 -591.22	   10.57
     42.5433	   17.00	   27.24	 -592.49	   10.56
     42.5767	   40.00	   28.78	 -571.03	   10.54
     42.6101	   23.00	   30.60	 -589.85	   10.52
     42.6436	   28.00	   32.77	 -587.02	   10.50
     42.6770	   21.00	   35.39	 -596.64	   10.48
     42.7104	   26.00	   38.58	 -594.83	   10.46
     42.7438	   35.00	   42.48	 -589.73	   10.44
     42.7773	   43.00	   47.30	 -586.55	   10.42
     42.8107	   31.00	   53.24	 -604.49	   10.40
     42.8441	   30.00	   60.56	 -612.81	   10.39
     42.8775	   41.00	   69.54	 -610.79	   10.37
     42.9109	   54.00	   80.39	 -608.64	   10.35
     42.9444	   56.00	   93.22	 -619.47	   10.33
     42.9778	   57.00	  107.78	 -633.03	   10.31
     43.0112	   77.00	  123.23	 -628.48	   10.29
     43.0446	  130.00	  137.88	 -590.13	   10.27
     43.0781	  145.00	  149.40	 -586.65	   10.26
     43.1115	  154.00	  155.67	 -583.92	   10.24
     43.1449	  137.00	  155.78	 -601.03	   10.22
     43.1783	  110.00	  150.22	 -622.47	   10.20
     43.2118	  114.00	  140.21	 -608.46	   10.18
     43.2452	  104.00	  127.21	 -605.46	   10.16
     43.2786	   77.00	  112.80	 -618.05	   10.15
     43.3120	   66.00	   98.47	 -614.72	   10.13
     43.3454	   60.00	   85.29	 -607.54	   10.11
     43.3789	   47.00	   73.80	 -609.05	   10.09
     43.4123	   47.00	   64.12	 -599.37	   10.08
     43.4457	   31.00	   56.12	 -607.37	   10.06
     43.4791	   43.00	   49.59	 -588.84	   10.04
     43.5126	   44.00	   44.28	 -582.53	   10.02
     43.5460	   26.00	   39.97	 -596.22	   10.00
     43.5794	   26.00	   36.44	 -592.69	    9.99
     43.6128	   30.00	   33.55	 -585.80	    9.97
     43.6462	   23.00	   31.16	 -590.41	    9.95
     43.6797	   28.00	   29.16	 -583.41	    9.93
     43.7131	   13.00	   27.47	 -596.72	    9.92
     43.7465	   26.00	   26.04	 -582.29	    9.90
     43.7799	   31.00	   24.81	 -576.06	    9.88
     43.8134	   27.00	   23.74	 -578.99	    9.86
     43.8468	   22.00	   22.81	 -583.06	    9.85
     43.8802	   24.00	   22.00	 -580.25	    9.83
     43.9136	   17.00	   21.29	 -586.54	    9.81
     43.9470	   20.00	   20.65	 -582.90	    9.80
     43.9805	   13.00	   20.09	 -589.34	    9.78
     44.0139	   26.00	   19.59	 -575.84	    9.76
     44.0473	   22.00	   19.14	 -579.39	    9.74
     44.0807	   13.00	   18.74	 -587.99	    9.73
     44.1142	   22.00	   18.38	 -578.63	    9.71
     44.1476	   11.00	   18.05	 -589.30	    9.69
     44.1810	   29.00	   17.75	 -571.00	    9.68
     44.2144	   16.00	   17.49	 -583.74	    9.66
     44.2478	   24.00	   17.24	 -575.49	    9.64
     44.2813	   18.00	   17.02	 -581.27	    9.63
     44.3147	   16.00	   16.82	 -583.07	    9.61
     44.3481	   19.00	   16.64	 -579.89	    9.59
     44.3815	   13.00	   16.47	 -585.72	    9.58
     44.4150	   17.00	   16.32	 -581.57	    9.56
     44.4484	   20.00	   16.18	 -578.43	    9.54
     44.4818	   19.00	   16.05	 -579.30	    9.53
     44.5152	   21.00	   15.94	 -577.19	    9.51
     44.5487	   10.00	   15.83	 -588.08	    9.50
     44.5821	   17.00	   15.74	 -580.99	    9.48
     44.6155	   20.00	   15.65	 -577.90	    9.46
     44.6489	   13.00	   15.57	 -584.82	    9.45
     44.6823	   15.00	   15.50	 -582.75	    9.43
     44.7158	   22.00	   15.44	 -575.69	    9.42
     44.7492	   19.00	   15.39	 -578.64	    9.40
     44.7826	   19.00	   15.34	 -578.59	    9.38
     44.8160	   17.00	   15.30	 -580.55	    9.37
     44.8495	   18.00	   15.26	 -579.51	    9.35
     44.8829	   20.00	   15.23	 -577.48	    9.34
     44.9163	   11.00	   15.21	 -586.46	    9.32
     44.9497	   19.00	   15.19	 -578.44	    9.30
     44.9831	   31.00	   15.18	 -566.43	    9.29
     45.0166	   18.00	   15.17	 -579.42	    9.27
     45.0500	   10.00	   15.17	 -587.42	    9.26
     45.0834	   16.00	   15.17	 -581.42	    9.24
     45.1168	   17.00	   15.18	 -580.43	    9.23
     45.1503	   33.00	   15.20	 -564.45	    9.21
     45.1837	   16.00	   15.22	 -581.47	    9.19
     45.2171	   22.00	   15.24	 -575.49	    9.18
     45.2505	    9.00	   15.27	 -588.52	    9.16
     45.2840	   18.00	   15.31	 -579.56	    9.15
     45.3174	   17.00	   15.35	 -580.60	    9.13
     45.3508	   17.00	   15.40	 -580.65	    9.12
     45.3842	   18.00	   15.46	 -579.71	    9.10
     45.4176	   15.00	   15.52	 -582.77	    9.09
     45.4511	   18.00	   15.58	 -579.83	    9.07
     45.4845	   22.00	   15.66	 -575.91	    9.06
     45.5179	   13.00	   15.74	 -584.99	    9.04
     45.5513	   16.00	   15.83	 -582.08	    9.03
     45.5848	   16.00	   15.93	 -582.18	    9.01
     45.6182	   29.00	   16.04	 -569.29	    9.00
     45.6516	   20.00	   16.15	 -578.40	    8.98
     45.6850	   14.00	   16.28	 -584.53	    8.97
     45.7184	   26.00	   16.42	 -572.67	    8.95
     45.7519	   24.00	   16.56	 -574.81	    8.94
     45.7853	   17.00	   16.72	 -581.97	    8.92
     45.8187	   17.00	   16.90	 -582.15	    8.91
     45.8521	   21.00	   17.09	 -578.34	    8.90
     45.8856	   14.00	   17.29	 -585.54	    8.88
     45.9190	   24.00	   17.51	 -575.76	    8.87
     45.9524	   16.00	   17.74	 -583.99	    8.85
     45.9858	   26.00	   18.00	 -574.25	    8.84
     46.0192	   15.00	   18.28	 -585.53	    8.82
     46.0527	   24.00	   18.58	 -576.83	    8.81
     46.0861	   23.00	   18.91	 -578.16	    8.79
     46.1195	   19.00	   19.27	 -582.52	    8.78
     46.1529	   20.00	   19.66	 -581.91	    8.77
     46.1864	   16.00	   20.09	 -586.34	    8.75
     46.2198	   17.00	   20.56	 -585.81	    8.74
     46.2532	   20.00	   21.07	 -583.32	    8.72
     46.2866	   26.00	   21.64	 -577.89	    8.71
     46.3200	   27.00	   22.26	 -577.51	    8.70
     46.3535	   33.00	   22.95	 -572.20	    8.68
     46.3869	   36.00	   23.73	 -569.98	    8.67
     46.4203	   22.00	   24.52	 -584.77	    8.65
     46.4537	   26.00	   25.48	 -581.73	    8.64
     46.4872	   23.00	   26.56	 -585.81	    8.63
     46.5206	   30.00	   27.76	 -580.01	    8.61
     46.5540	   42.00	   29.16	 -569.41	    8.60
     46.5874	   36.00	   30.76	 -577.01	    8.59
     46.6208	   20.00	   32.62	 -594.87	    8.57
     46.6543	   52.00	   34.78	 -565.03	    8.56
     46.6877	   30.00	   37.30	 -589.55	    8.54
     46.7211	   34.00	   40.27	 -588.52	    8.53
     46.7545	   43.00	   43.78	 -583.03	    8.52
     46.7880	   48.00	   47.92	 -582.17	    8.50
     46.8214	   34.00	   52.81	 -601.06	    8.49
     46.8548	   46.00	   58.55	 -594.80	    8.48
     46.8882	   65.00	   65.21	 -582.46	    8.46
     46.9217	   55.00	   72.77	 -600.02	    8.45
     46.9551	   55.00	   81.05	 -608.30	    8.44
     46.9885	   65.00	   89.68	 -606.93	    8.42
     47.0219	   73.00	   98.09	 -607.34	    8.41
     47.0553	   87.00	  105.78	 -601.03	    8.40
     47.0888	   87.00	  112.55	 -607.80	    8.39
     47.1222	   73.00	  118.56	 -627.81	    8.37
     47.1556	   81.00	  124.38	 -625.63	    8.36
     47.1890	   96.00	  130.67	 -616.92	    8.35
     47.2225	   90.00	  138.08	 -630.33	    8.33
     47.2559	  100.00	  147.21	 -629.46	    8.32
     47.2893	   86.00	  158.36	 -654.61	    8.31
     47.3227	   92.00	  171.27	 -661.52	    8.30
     47.3561	  121.00	  184.85	 -646.10	    8.28
     47.3896	  190.00	  197.19	 -589.44	    8.27
     47.4230	  193.00	  206.00	 -595.25	    8.26
     47.4564	  190.00	  209.50	 -601.75	    8.24
     47.4898	  175.00	  207.12	 -614.37	    8.23
     47.5233	  154.00	  199.44	 -627.69	    8.22
     47.5567	  183.00	  187.55	 -586.80	    8.21
     47.5901	  120.00	  172.76	 -635.01	    8.19
     47.6235	  106.00	  156.47	 -632.72	    8.18
     47.6570	   64.00	  140.10	 -658.35	    8.17
     47.6904	   81.00	  124.78	 -626.03	    8.16
     47.7238	   73.00	  111.22	 -620.47	    8.15
     47.7572	   65.00	   99.70	 -616.95	    8.13
     47.7906	   81.00	   90.22	 -591.47	    8.12
     47.8241	   67.00	   82.64	 -597.89	    8.11
     47.8575	   80.00	   76.76	 -579.01	    8.10
     47.8909	   48.00	   72.40	 -606.65	    8.08
     47.9243	   41.00	   69.40	 -610.65	    8.07
     47.9578	   46.00	   67.63	 -603.88	    8.06
     47.9912	   54.00	   67.02	 -595.27	    8.05
     48.0246	   55.00	   67.57	 -594.82	    8.04
     48.0580	   61.00	   69.28	 -590.53	    8.02
     48.0914	   64.00	   72.25	 -590.50	    8.01
     48.1249	   75.00	   76.58	 -583.83	    8.00
     48.1583	   73.00	   82.45	 -591.70	    7.99
     48.1917	   83.00	   90.01	 -589.26	    7.98
     48.2251	   69.00	   99.43	 -612.68	    7.97
     48.2586	   75.00	  110.79	 -618.04	    7.95
     48.2920	   75.00	  123.95	 -631.20	    7.94
     48.3254	  116.00	  138.41	 -604.66	    7.93
     48.3588	  110.00	  153.10	 -625.35	    7.92
     48.3922	  167.00	  166.33	 -581.58	    7.91
     48.4257	  194.00	  176.15	 -564.40	    7.90
     48.4591	  193.00	  181.00	 -570.25	    7.88
     48.4925	  148.00	  180.35	 -614.60	    7.87
     48.5259	  146.00	  174.66	 -610.91	    7.86
     48.5594	  133.00	  164.87	 -614.12	    7.85
     48.5928	  107.00	  152.12	 -627.37	    7.84
     48.6262	  109.00	  137.62	 -610.87	    7.83
     48.6596	   81.00	  122.62	 -623.87	    7.82
     48.6930	   77.00	  108.19	 -613.44	    7.81
     48.7265	   53.00	   95.01	 -624.26	    7.79
     48.7599	   66.00	   83.43	 -599.68	    7.78
     48.7933	   52.00	   73.49	 -603.74	    7.77
     48.8267	   45.00	   65.08	 -602.33	    7.76
     48.8602	   34.00	   58.02	 -606.27	    7.75
     48.8936	   42.00	   52.11	 -592.36	    7.74
     48.9270	   32.00	   47.17	 -597.42	    7.73
     48.9604	   34.00	   43.02	 -591.27	    7.72
     48.9939	   32.00	   39.52	 -589.77	    7.71
     49.0273	   31.00	   36.56	 -587.81	    7.70
     49.0607	   29.00	   34.02	 -587.27	    7.69
     49.0941	   22.00	   31.85	 -592.10	    7.67
     49.1275	   43.00	   29.96	 -569.21	    7.66
     49.1610	   31.00	   28.31	 -579.56	    7.65
     49.1944	   21.00	   26.86	 -588.11	    7.64
     49.2278	   20.00	   25.58	 -587.83	    7.63
     49.2612	   24.00	   24.44	 -582.69	    7.62
     49.2947	   19.00	   23.42	 -586.67	    7.61
     49.3281	   19.00	   22.51	 -585.76	    7.60
     49.3615	   26.00	   21.69	 -577.94	    7.59
     49.3949	   22.00	   20.94	 -581.19	    7.58
     49.4283	   19.00	   20.26	 -583.51	    7.57
     49.4618	   20.00	   19.64	 -581.89	    7.56
     49.4952	   21.00	   19.08	 -580.33	    7.55
     49.5286	   30.00	   18.56	 -570.81	    7.54
     49.5620	   16.00	   18.08	 -584.33	    7.53
     49.5955	   10.00	   17.64	 -589.89	    7.52
     49.6289	   15.00	   17.24	 -584.49	    7.51
     49.6623	   26.00	   16.86	 -573.11	    7.50
     49.6957	   24.00	   16.52	 -574.77	    7.49
     49.7291	   23.00	   16.20	 -575.45	    7.48
     49.7626	   15.00	   15.89	 -583.14	    7.47
     49.7960	   19.00	   15.61	 -578.86	    7.46
     49.8294	   22.00	   15.35	 -575.60	    7.45
     49.8628	   19.00	   15.10	 -578.35	    7.44
     49.8963	   20.00	   14.87	 -577.12	    7.43
     49.9297	   16.00	   14.65	 -580.90	    7.42
     49.9631	   24.00	   14.45	 -572.70	    7.41
     49.9965	   23.00	   14.25	 -573.50	    7.40
     50.0300	   14.00	   14.07	 -582.32	    7.39
     50.0634	   16.00	   13.90	 -580.15	    7.38
     50.0968	   18.00	   13.73	 -577.98	    7.37
     50.1302	    8.00	   13.57	 -587.82	    7.36
     50.1636	   16.00	   13.42	 -579.67	    7.35
     50.1971	   18.00	   13.28	 -577.53	    7.34
     50.2305	   22.00	   13.15	 -573.40	    7.33
     50.2639	   20.00	   13.02	 -575.27	    7.32
     50.2973	   16.00	   12.90	 -579.15	    7.31
     50.3308	   18.00	   12.78	 -577.03	    7.30
     50.3642	   20.00	   12.68	 -574.93	    7.29
     50.3976	   15.00	   12.57	 -579.82	    7.28
     50.4310	   20.00	   12.47	 -574.72	    7.27
     50.4644	   19.00	   12.37	 -575.62	    7.26
     50.4979	   13.00	   12.27	 -581.52	    7.25
     50.5313	   14.00	   12.18	 -580.43	    7.25
     50.5647	   10.00	   12.10	 -584.35	    7.24
     50.5981	   16.00	   12.01	 -578.26	    7.23
     50.6316	   15.00	   11.93	 -579.18	    7.22
     50.6650	   16.00	   11.86	 -578.11	    7.21
     50.6984	    8.00	   11.78	 -586.03	    7.20
     50.7318	   16.00	   11.71	 -577.96	    7.19
     50.7652	   17.00	   11.64	 -576.89	    7.18
     50.7987	   15.00	   11.52	 -578.77	    7.17
     50.8321	   14.00	   11.45	 -579.70	    7.16
     50.8655	   15.00	   11.39	 -578.64	    7.16
     50.8989	   23.00	   11.33	 -570.58	    7.15
     50.9324	   14.00	   11.25	 -579.50	    7.14
     50.9658	   18.00	   11.19	 -575.44	    7.13
     50.9992	   17.00	   11.14	 -576.39	    7.12
     51.0326	   15.00	   11.09	 -578.34	    7.11
     51.0660	    9.00	   11.04	 -584.29	    7.10
     51.0995	   20.00	   10.99	 -573.24	    7.09
     51.1329	   11.00	   10.94	 -582.19	    7.09
     51.1663	   14.00	   10.90	 -579.15	    7.08
     51.1997	   13.00	   10.85	 -580.10	    7.07
     51.2332	   19.00	   10.81	 -574.06	    7.06
     51.2666	   17.00	   10.77	 -576.02	    7.05
     51.3000	   14.00	   10.73	 -578.98	    7.04
     51.3334	    9.00	   10.69	 -583.94	    7.03
     51.3669	   11.00	   10.65	 -581.90	    7.03
     51.4003	   15.00	   10.61	 -577.86	    7.02
     51.4337	   17.00	   10.58	 -575.83	    7.01
     51.4671	   11.00	   10.54	 -581.79	    7.00
     51.5005	   11.00	   10.51	 -581.76	    6.99
     51.5340	    9.00	   10.48	 -583.73	    6.98
     51.5674	    9.00	   10.45	 -583.70	    6.98
     51.6008	   10.00	   10.42	 -582.67	    6.97
     51.6342	   19.00	   10.39	 -573.64	    6.96
     51.6677	   16.00	   10.36	 -576.61	    6.95
     51.7011	   17.00	   10.33	 -575.58	    6.94
     51.7345	   15.00	   10.31	 -577.56	    6.93
     51.7679	    9.00	   10.28	 -583.53	    6.93
     51.8013	   15.00	   10.25	 -577.50	    6.92
     51.8348	   10.00	   10.23	 -582.48	    6.91
     51.8682	   14.00	   10.20	 -578.45	    6.90
     51.9016	   16.00	   10.18	 -576.43	    6.90
     51.9350	   16.00	   10.15	 -576.40	    6.89
     51.9685	   16.00	   10.13	 -576.38	    6.88
     52.0019	   10.00	   10.11	 -582.36	    6.87
     52.0353	   11.00	   10.09	 -581.34	    6.86
     52.0687	   13.00	   10.06	 -579.31	    6.86
     52.1021	   13.00	   10.04	 -579.29	    6.85
     52.1356	    8.00	   10.02	 -584.27	    6.84
     52.1690	   10.00	   10.00	 -582.25	    6.83
     52.2024	   19.00	    9.98	 -573.23	    6.83
     52.2358	   13.00	    9.97	 -579.22	    6.82
     52.2693	   14.00	    9.95	 -578.20	    6.81
     52.3027	   15.00	    9.93	 -577.18	    6.80
     52.3361	   14.00	    9.91	 -578.16	    6.80
     52.3695	   11.00	    9.90	 -581.15	    6.79
     52.4030	   11.00	    9.88	 -581.13	    6.78
     52.4364	   14.00	    9.86	 -578.11	    6.77
     52.4698	    5.00	    9.85	 -587.10	    6.77
     52.5032	   10.00	    9.83	 -582.08	    6.76
     52.5366	   11.00	    9.82	 -581.07	    6.75
     52.5701	   11.00	    9.80	 -581.05	    6.74
     52.6035	   17.00	    9.79	 -575.04	    6.74
     52.6369	    9.00	    9.78	 -583.03	    6.73
     52.6703	    9.00	    9.76	 -583.01	    6.72
     52.7038	    9.00	    9.75	 -583.00	    6.71
     52.7372	   14.00	    9.74	 -577.99	    6.71
     52.7706	   14.00	    9.73	 -577.98	    6.70
     52.8040	   11.00	    9.72	 -580.97	    6.69
     52.8374	   16.00	    9.72	 -575.97	    6.69
     52.8709	    9.00	    9.71	 -582.96	    6.68
     52.9043	   14.00	    9.70	 -577.95	    6.67
     52.9377	   11.00	    9.69	 -580.94	    6.66
     52.9711	   11.00	    9.68	 -580.93	    6.66
     53.0046	   10.00	    9.68	 -581.93	    6.65
     53.0380	   10.00	    9.67	 -581.92	    6.64
     53.0714	    4.00	    9.66	 -587.91	    6.64
     53.1048	   11.00	    9.66	 -580.91	    6.63
     53.1382	    9.00	    9.65	 -582.90	    6.62
     53.1717	   11.00	    9.64	 -580.89	    6.62
     53.2051	   10.00	    9.64	 -581.89	    6.61
     53.2385	   10.00	    9.63	 -581.88	    6.60
     53.2719	   15.00	    9.63	 -576.88	    6.60
     53.3054	    9.00	    9.62	 -582.87	    6.59
     53.3388	    9.00	    9.62	 -582.87	    6.58
     53.3722	   11.00	    9.61	 -580.86	    6.58
     53.4056	   13.00	    9.61	 -578.86	    6.57
     53.4390	   13.00	    9.61	 -578.86	    6.56
     53.4725	   10.00	    9.60	 -581.85	    6.56
     53.5059	    9.00	    9.60	 -582.85	    6.55
     53.5393	   10.00	    9.60	 -581.85	    6.54
     53.5727	    9.00	    9.61	 -582.86	    6.54
     53.6062	   11.00	    9.61	 -580.86	    6.53
     53.6396	    8.00	    9.61	 -583.86	    6.53
     53.6730	   17.00	    9.61	 -574.86	    6.52
     53.7064	   15.00	    9.61	 -576.86	    6.51
     53.7399	   10.00	    9.61	 -581.86	    6.51
     53.7733	   16.00	    9.61	 -575.86	    6.50
     53.8067	    8.00	    9.62	 -583.87	    6.49
     53.8401	   10.00	    9.62	 -581.87	    6.49
     53.8735	   13.00	    9.62	 -578.87	    6.48
     53.9070	   10.00	    9.63	 -581.88	    6.48
     53.9404	   10.00	    9.63	 -581.88	    6.47
     53.9738	   13.00	    9.64	 -578.89	    6.46
     54.0072	   17.00	    9.64	 -574.89	    6.46
     54.0407	    8.00	    9.65	 -583.90	    6.45
     54.0741	    7.00	    9.66	 -584.91	    6.45
     54.1075	   13.00	    9.67	 -578.92	    6.44
     54.1409	   14.00	    9.68	 -577.93	    6.43
     54.1743	   10.00	    9.68	 -581.93	    6.43
     54.2078	   14.00	    9.70	 -577.95	    6.42
     54.2412	   17.00	    9.71	 -574.96	    6.42
     54.2746	   13.00	    9.72	 -578.97	    6.41
     54.3080	   10.00	    9.73	 -581.98	    6.40
     54.3415	   15.00	    9.75	 -577.00	    6.40
     54.3749	   13.00	    9.76	 -579.01	    6.39
     54.4083	    8.00	    9.78	 -584.03	    6.39
     54.4417	   11.00	    9.80	 -581.05	    6.38
     54.4752	   24.00	    9.81	 -568.06	    6.38
     54.5086	   13.00	    9.83	 -579.08	    6.37
     54.5420	   11.00	    9.86	 -581.11	    6.36
     54.5754	    9.00	    9.88	 -583.13	    6.36
     54.6088	   11.00	    9.90	 -581.15	    6.35
     54.6423	   15.00	    9.93	 -577.18	    6.35
     54.6757	   15.00	    9.95	 -577.20	    6.34
     54.7091	   15.00	    9.98	 -577.23	    6.34
     54.7425	   11.00	   10.01	 -581.26	    6.33
     54.7759	   18.00	   10.05	 -574.30	    6.33
     54.8094	    8.00	   10.08	 -584.33	    6.32
     54.8428	    9.00	   10.12	 -583.37	    6.31
     54.8762	   13.00	   10.16	 -579.41	    6.31
     54.9096	   15.00	   10.20	 -577.45	    6.30
     54.9431	   11.00	   10.24	 -581.49	    6.30
     54.9765	   14.00	   10.29	 -578.54	    6.29
     55.0099	    8.00	   10.34	 -584.59	    6.29
     55.0433	    6.00	   10.39	 -586.64	    6.28
     55.0768	   11.00	   10.44	 -581.69	    6.28
     55.1102	   10.00	   10.50	 -582.75	    6.27
     55.1436	   10.00	   10.57	 -582.82	    6.27
     55.1770	   13.00	   10.64	 -579.89	    6.26
     55.2104	    9.00	   10.71	 -583.96	    6.26
     55.2439	   14.00	   10.79	 -579.04	    6.25
     55.2773	   20.00	   10.87	 -573.12	    6.25
     55.3107	   18.00	   10.96	 -575.21	    6.24
     55.3441	   11.00	   11.05	 -582.30	    6.24
     55.3776	   11.00	   11.16	 -582.41	    6.23
     55.4110	    6.00	   11.27	 -587.52	    6.23
     55.4444	    5.00	   11.36	 -588.61	    6.22
     55.4778	    4.00	   11.49	 -589.74	    6.22
     55.5112	   21.00	   11.63	 -572.88	    6.21
     55.5447	   17.00	   11.78	 -577.03	    6.21
     55.5781	    3.00	   11.93	 -591.18	    6.20
     55.6115	   16.00	   12.11	 -578.36	    6.20
     55.6449	   14.00	   12.30	 -580.55	    6.19
     55.6784	   19.00	   12.51	 -575.76	    6.19
     55.7118	   14.00	   12.74	 -580.99	    6.18
     55.7452	    7.00	   13.00	 -588.25	    6.18
     55.7786	    8.00	   13.28	 -587.53	    6.17
     55.8120	   10.00	   13.60	 -585.85	    6.17
     55.8455	   11.00	   13.94	 -585.19	    6.17
     55.8789	   17.00	   14.26	 -579.51	    6.16
     55.9123	   13.00	   14.70	 -583.95	    6.16
     55.9457	   13.00	   15.19	 -584.44	    6.15
     55.9792	    9.00	   15.76	 -589.01	    6.15
     56.0126	   11.00	   16.40	 -587.65	    6.14
     56.0460	   15.00	   17.09	 -584.34	    6.14
     56.0794	   14.00	   17.94	 -586.19	    6.13
     56.1129	   10.00	   18.91	 -591.16	    6.13
     56.1463	   19.00	   20.04	 -583.29	    6.12
     56.1797	   16.00	   21.34	 -587.59	    6.12
     56.2131	   18.00	   22.84	 -587.09	    6.12
     56.2465	   10.00	   24.56	 -596.81	    6.11
     56.2800	   16.00	   26.53	 -592.78	    6.11
     56.3134	   13.00	   28.74	 -597.99	    6.10
     56.3468	   21.00	   31.16	 -592.41	    6.10
     56.3802	   17.00	   33.74	 -598.99	    6.09
     56.4137	   24.00	   36.35	 -594.60	    6.09
     56.4471	   22.00	   38.80	 -599.05	    6.09
     56.4805	   22.00	   40.89	 -601.14	    6.08
     56.5139	   36.00	   42.45	 -588.70	    6.08
     56.5473	   28.00	   43.36	 -597.61	    6.07
     56.5808	   21.00	   43.63	 -604.88	    6.07
     56.6142	   30.00	   43.35	 -595.60	    6.07
     56.6476	   26.00	   42.64	 -598.89	    6.06
     56.6810	   24.00	   41.63	 -599.88	    6.06
     56.7145	   21.00	   40.45	 -601.70	    6.05
     56.7479	   17.00	   39.26	 -604.51	    6.05
     56.7813	   27.00	   38.20	 -593.45	    6.05
     56.8147	   23.00	   37.40	 -596.65	    6.04
     56.8481	   21.00	   36.96	 -598.21	    6.04
     56.8816	   21.00	   36.94	 -598.19	    6.03
     56.9150	   18.00	   37.40	 -601.65	    6.03
     56.9484	   20.00	   38.37	 -600.62	    6.03
     56.9818	   20.00	   39.89	 -602.14	    6.02
     57.0153	   19.00	   42.00	 -605.25	    6.02
     57.0487	   36.00	   44.73	 -590.98	    6.01
     57.0821	   20.00	   48.06	 -610.31	    6.01
     57.1155	   21.00	   52.13	 -613.38	    6.01
     57.1489	   23.00	   56.86	 -616.11	    6.00
     57.1824	   33.00	   62.17	 -611.42	    6.00
     57.2158	   27.00	   67.81	 -623.06	    6.00
     57.2492	   35.00	   73.51	 -620.76	    5.99
     57.2826	   47.00	   78.77	 -614.02	    5.99
     57.3161	   53.00	   83.04	 -612.29	    5.99
     57.3495	   47.00	   85.84	 -621.09	    5.98
     57.3829	   48.00	   86.90	 -621.15	    5.98
     57.4163	   54.00	   86.21	 -614.46	    5.97
     57.4498	   47.00	   83.96	 -619.21	    5.97
     57.4832	   40.00	   80.43	 -622.68	    5.97
     57.5166	   45.00	   75.91	 -613.16	    5.96
     57.5500	   31.00	   70.72	 -621.97	    5.96
     57.5834	   26.00	   65.19	 -621.44	    5.96
     57.6169	   26.00	   59.66	 -615.91	    5.95
     57.6503	   15.00	   54.39	 -621.64	    5.95
     57.6837	   19.00	   49.56	 -612.81	    5.95
     57.7171	   18.00	   45.28	 -609.53	    5.94
     57.7506	   18.00	   41.57	 -605.82	    5.94
     57.7840	   20.00	   38.42	 -600.67	    5.94
     57.8174	   18.00	   35.79	 -600.04	    5.93
     57.8508	   23.00	   33.61	 -592.86	    5.93
     57.8842	   19.00	   31.82	 -595.07	    5.93
     57.9177	   18.00	   30.34	 -594.59	    5.92
     57.9511	   20.00	   29.08	 -591.33	    5.92
     57.9845	   23.00	   27.96	 -587.21	    5.92
     58.0179	   22.00	   26.91	 -587.16	    5.92
     58.0514	   23.00	   25.89	 -585.14	    5.91
     58.0848	    7.00	   24.88	 -600.13	    5.91
     58.1182	   16.00	   23.86	 -590.11	    5.91
     58.1516	   16.00	   22.85	 -589.10	    5.90
     58.1851	   14.00	   21.84	 -590.09	    5.90
     58.2185	   22.00	   20.86	 -581.11	    5.90
     58.2519	   21.00	   19.92	 -581.17	    5.89
     58.2853	    9.00	   19.02	 -592.27	    5.89
     58.3187	   14.00	   18.20	 -586.45	    5.89
     58.3522	   11.00	   17.44	 -588.69	    5.89
     58.3856	   15.00	   16.76	 -584.01	    5.88
     58.4190	   15.00	   16.15	 -583.40	    5.88
     58.4524	   14.00	   15.61	 -583.86	    5.88
     58.4859	   14.00	   15.13	 -583.38	    5.87
     58.5193	    8.00	   14.71	 -588.96	    5.87
     58.5527	   13.00	   14.33	 -583.58	    5.87
     58.5861	    8.00	   14.00	 -588.25	    5.87
     58.6195	   19.00	   13.70	 -576.95	    5.86
     58.6530	   10.00	   13.44	 -585.69	    5.86
     58.6864	   14.00	   13.20	 -581.45	    5.86
     58.7198	   10.00	   12.99	 -585.24	    5.85
     58.7532	   17.00	   12.81	 -578.06	    5.85
     58.7867	    8.00	   12.64	 -586.89	    5.85
     58.8201	    9.00	   12.50	 -585.75	    5.85
     58.8535	   16.00	   12.36	 -578.61	    5.84
     58.8869	    9.00	   12.25	 -585.50	    5.84
     58.9203	   10.00	   12.15	 -584.40	    5.84
     58.9538	   14.00	   12.06	 -580.31	    5.84
     58.9872	    7.00	   11.98	 -587.23	    5.83
     59.0206	   11.00	   11.91	 -583.16	    5.83
     59.0540	    5.00	   11.86	 -589.11	    5.83
     59.0875	   10.00	   11.81	 -584.06	    5.83
     59.1209	   14.00	   11.78	 -580.03	    5.82
     59.1543	   15.00	   11.75	 -579.00	    5.82
     59.1877	    6.00	   11.73	 -587.98	    5.82
     59.2211	   10.00	   11.73	 -583.98	    5.82
     59.2546	    5.00	   11.73	 -588.98	    5.81
     59.2880	    7.00	   11.74	 -586.99	    5.81
     59.3214	   15.00	   11.76	 -579.01	    5.81
     59.3548	    9.00	   11.79	 -585.04	    5.81
     59.3883	    7.00	   11.84	 -587.09	    5.81
     59.4217	    9.00	   11.89	 -585.14	    5.80
     59.4551	   11.00	   11.95	 -583.20	    5.80
     59.4885	    8.00	   12.02	 -586.27	    5.80
     59.5219	    8.00	   12.10	 -586.35	    5.80
     59.5554	   18.00	   12.20	 -576.45	    5.79
     59.5888	   15.00	   12.31	 -579.56	    5.79
     59.6222	    8.00	   12.44	 -586.69	    5.79
     59.6556	   11.00	   12.58	 -583.83	    5.79
     59.6891	   15.00	   12.74	 -579.99	    5.79
     59.7225	   10.00	   12.92	 -585.17	    5.78
     59.7559	    7.00	   13.12	 -588.37	    5.78
     59.7893	    9.00	   13.34	 -586.59	    5.78
     59.8228	   13.00	   13.60	 -582.85	    5.78
     59.8562	    9.00	   13.89	 -587.14	    5.77
     59.8896	   15.00	   14.21	 -581.46	    5.77
     59.9230	   16.00	   14.57	 -580.82	    5.77
     59.9564	   10.00	   14.98	 -587.23	    5.77
     59.9899	   18.00	   15.44	 -579.69	    5.77
     60.0233	    9.00	   15.96	 -589.21	    5.77
     60.0567	   13.00	   16.56	 -585.81	    5.76
     60.0901	   13.00	   17.24	 -586.49	    5.76
     60.1236	   13.00	   18.02	 -587.27	    5.76
     60.1570	   10.00	   18.92	 -591.17	    5.76
     60.1904	   17.00	   19.95	 -585.20	    5.76
     60.2238	   10.00	   21.14	 -593.39	    5.75
     60.2572	   14.00	   22.50	 -590.75	    5.75
     60.2907	   11.00	   24.07	 -595.32	    5.75
     60.3241	   21.00	   25.86	 -587.11	    5.75
     60.3575	   18.00	   27.90	 -592.15	    5.75
     60.3909	   24.00	   30.20	 -588.45	    5.75
     60.4244	   22.00	   32.75	 -593.00	    5.74
     60.4578	   39.00	   35.50	 -578.75	    5.74
     60.4912	   22.00	   38.39	 -598.64	    5.74
     60.5246	   20.00	   41.28	 -603.53	    5.74
     60.5581	   41.00	   44.00	 -585.25	    5.74
     60.5915	   39.00	   46.39	 -589.64	    5.73
     60.6249	   46.00	   48.30	 -584.55	    5.73
     60.6583	   36.00	   49.67	 -595.92	    5.73
     60.6917	   40.00	   50.53	 -592.78	    5.73
     60.7252	   32.00	   50.93	 -601.18	    5.73
     60.7586	   35.00	   50.97	 -598.22	    5.73
     60.7920	   35.00	   50.73	 -597.98	    5.73
     60.8254	   37.00	   50.27	 -595.52	    5.72
     60.8588	   27.00	   49.62	 -604.87	    5.72
     60.8923	   53.00	   48.83	 -578.08	    5.72
     60.9257	   40.00	   47.91	 -590.16	    5.72
     60.9591	   32.00	   46.89	 -597.14	    5.72
     60.9925	   40.00	   45.79	 -588.04	    5.72
     61.0260	   43.00	   44.67	 -583.92	    5.72
     61.0594	   30.00	   43.58	 -595.83	    5.71
     61.0928	   26.00	   42.55	 -598.80	    5.71
     61.1262	   22.00	   41.61	 -601.86	    5.71
     61.1597	   29.00	   40.77	 -594.02	    5.71
     61.1931	   24.00	   40.01	 -598.26	    5.71
     61.2265	   32.00	   39.30	 -589.55	    5.71
     61.2599	   32.00	   38.59	 -588.84	    5.71
     61.2933	   27.00	   37.79	 -593.04	    5.70
     61.3268	   28.00	   36.86	 -591.11	    5.70
     61.3602	   27.00	   35.76	 -591.01	    5.70
     61.3936	   26.00	   34.48	 -590.73	    5.70
     61.4270	   13.00	   33.07	 -602.32	    5.70
     61.4605	   21.00	   31.54	 -592.79	    5.70
     61.4939	   18.00	   29.93	 -594.18	    5.70
     61.5273	   18.00	   28.29	 -592.54	    5.70
     61.5607	   19.00	   26.66	 -589.91	    5.70
     61.5941	   15.00	   25.08	 -592.33	    5.69
     61.6276	   13.00	   23.59	 -592.84	    5.69
     61.6610	   16.00	   22.21	 -588.46	    5.69
     61.6944	   13.00	   20.97	 -590.22	    5.69
     61.7278	   11.00	   19.87	 -591.12	    5.69
     61.7613	   11.00	   18.89	 -590.14	    5.69
     61.7947	   16.00	   18.04	 -584.29	    5.69
     61.8281	    8.00	   17.29	 -591.54	    5.69
     61.8615	   16.00	   16.64	 -582.89	    5.69
     61.8950	   15.00	   16.08	 -583.33	    5.68
     61.9284	   11.00	   15.60	 -586.85	    5.68
     61.9618	    6.00	   15.18	 -591.43	    5.68
     61.9952	    6.00	   14.82	 -591.07	    5.68
     62.0286	   14.00	   14.51	 -582.76	    5.68
     62.0621	   14.00	   14.26	 -582.51	    5.68
     62.0955	   11.00	   14.04	 -585.29	    5.68
     62.1289	   13.00	   13.86	 -583.11	    5.68
     62.1623	   15.00	   13.72	 -580.97	    5.68
     62.1958	    6.00	   13.61	 -589.86	    5.68
     62.2292	   11.00	   13.54	 -584.79	    5.68
     62.2626	   19.00	   13.50	 -576.75	    5.67
     62.2960	   15.00	   13.49	 -580.74	    5.67
     62.3294	   11.00	   13.51	 -584.76	    5.67
     62.3629	    7.00	   13.57	 -588.82	    5.67
     62.3963	   14.00	   13.66	 -581.91	    5.67
     62.4297	   14.00	   13.80	 -582.05	    5.67
     62.4631	    7.00	   13.98	 -589.23	    5.67
     62.4966	    7.00	   14.20	 -589.45	    5.67
     62.5300	    6.00	   14.48	 -590.73	    5.67
     62.5634	   16.00	   14.82	 -581.07	    5.67
     62.5968	   13.00	   15.23	 -584.48	    5.67
     62.6302	    9.00	   15.71	 -588.96	    5.67
     62.6637	   14.00	   16.28	 -584.53	    5.67
     62.6971	    8.00	   16.94	 -591.19	    5.67
     62.7305	   15.00	   17.70	 -584.95	    5.67
     62.7639	   14.00	   18.56	 -586.81	    5.66
     62.7974	   11.00	   19.51	 -590.76	    5.66
     62.8308	   15.00	   20.54	 -587.79	    5.66
     62.8642	    9.00	   21.60	 -594.85	    5.66
     62.8976	   19.00	   22.65	 -585.90	    5.66
     62.9311	   14.00	   23.62	 -591.87	    5.66
     62.9645	   14.00	   24.42	 -592.67	    5.66
     62.9979	   20.00	   24.98	 -587.23	    5.66
     63.0313	   17.00	   25.27	 -590.52	    5.66
     63.0647	    9.00	   25.28	 -598.53	    5.66
     63.0982	   21.00	   25.01	 -586.26	    5.66
     63.1316	   16.00	   24.53	 -590.78	    5.66
     63.1650	   19.00	   23.86	 -587.11	    5.66
     63.1984	   19.00	   23.04	 -586.29	    5.66
     63.2318	   14.00	   22.13	 -590.38	    5.66
     63.2653	    8.00	   21.18	 -595.43	    5.66
     63.2987	   14.00	   20.23	 -588.48	    5.66
     63.3321	    9.00	   19.31	 -592.56	    5.66
     63.3655	    7.00	   18.46	 -593.71	    5.66
     63.3990	    9.00	   17.70	 -590.95	    5.66
     63.4324	   10.00	   17.03	 -589.28	    5.66
     63.4658	    6.00	   16.45	 -592.70	    5.66
     63.4992	    8.00	   15.97	 -590.22	    5.66
     63.5327	    6.00	   15.56	 -591.81	    5.66
     63.5661	   10.00	   15.23	 -587.48	    5.65
     63.5995	   10.00	   14.97	 -587.22	    5.65
     63.6329	   10.00	   14.77	 -587.02	    5.65
     63.6663	    7.00	   14.64	 -589.89	    5.65
     63.6998	   16.00	   14.55	 -580.80	    5.65
     63.7332	   16.00	   14.52	 -580.77	    5.65
     63.7666	   15.00	   14.54	 -581.79	    5.65
     63.8000	   10.00	   14.60	 -586.85	    5.65
     63.8335	   13.00	   14.71	 -583.96	    5.65
     63.8669	   13.00	   14.87	 -584.12	    5.65
     63.9003	    7.00	   15.09	 -590.34	    5.65
     63.9337	    5.00	   15.35	 -592.60	    5.65
     63.9671	   11.00	   15.68	 -586.93	    5.65
     64.0006	   15.00	   16.07	 -583.32	    5.65
     64.0340	   16.00	   16.54	 -582.79	    5.65
     64.0674	   11.00	   17.08	 -588.33	    5.65
     64.1008	   14.00	   17.72	 -585.97	    5.65
     64.1343	   16.00	   18.46	 -584.71	    5.65
     64.1677	   15.00	   19.33	 -586.58	    5.65
     64.2011	   13.00	   20.33	 -589.58	    5.65
     64.2345	    7.00	   21.48	 -596.73	    5.65
     64.2680	    9.00	   22.80	 -596.05	    5.65
     64.3014	    9.00	   24.30	 -597.55	    5.65
     64.3348	   11.00	   26.01	 -597.26	    5.65
     64.3682	   24.00	   27.92	 -586.17	    5.65
     64.4016	   15.00	   30.02	 -597.27	    5.65
     64.4351	   21.00	   32.28	 -593.53	    5.65
     64.4685	   19.00	   34.63	 -597.88	    5.65
     64.5019	   21.00	   36.96	 -598.21	    5.65
     64.5353	   18.00	   39.15	 -603.40	    5.65
     64.5688	   20.00	   41.03	 -603.28	    5.65
     64.6022	   39.00	   42.45	 -585.70	    5.65
     64.6356	   35.00	   43.32	 -590.57	    5.65
     64.6690	   21.00	   43.60	 -604.85	    5.65
     64.7024	   31.00	   43.32	 -594.57	    5.65
     64.7359	   28.00	   42.55	 -596.80	    5.65
     64.7693	   41.00	   41.38	 -582.63	    5.65
     64.8027	   24.00	   39.88	 -598.13	    5.65
     64.8361	   36.00	   38.16	 -584.41	    5.66
     64.8696	   23.00	   36.32	 -595.57	    5.66
     64.9030	   26.00	   34.44	 -590.69	    5.66
     64.9364	   21.00	   32.63	 -593.88	    5.66
     64.9698	   15.00	   30.96	 -598.21	    5.66
     65.0033	    7.00	   29.49	 -604.74	    5.66
     65.0367	   15.00	   28.24	 -595.49	    5.66
     65.0701	   17.00	   27.23	 -592.48	    5.66
     65.1035	   18.00	   26.47	 -590.72	    5.66
     65.1369	   13.00	   25.96	 -595.21	    5.66
     65.1704	   17.00	   25.69	 -590.94	    5.66
     65.2038	   15.00	   25.66	 -592.91	    5.66
     65.2372	   21.00	   25.87	 -587.12	    5.66
     65.2706	   20.00	   26.29	 -588.54	    5.66
     65.3040	   19.00	   26.93	 -590.18	    5.66
     65.3375	   21.00	   27.76	 -589.01	    5.66
     65.3709	   18.00	   28.73	 -592.98	    5.66
     65.4043	   23.00	   29.79	 -589.04	    5.66
     65.4377	   29.00	   30.86	 -584.11	    5.66
     65.4712	   21.00	   31.84	 -593.09	    5.66
     65.5046	   26.00	   32.63	 -588.88	    5.66
     65.5380	   19.00	   33.12	 -596.37	    5.66
     65.5714	   37.00	   33.27	 -578.52	    5.66
     65.6049	   24.00	   33.06	 -591.31	    5.66
     65.6383	   22.00	   32.51	 -592.76	    5.66
     65.6717	   27.00	   31.68	 -586.93	    5.66
     65.7051	   30.00	   30.59	 -582.84	    5.67
     65.7385	   23.00	   29.31	 -588.56	    5.67
     65.7720	   23.00	   27.90	 -587.15	    5.67
     65.8054	   26.00	   26.40	 -582.65	    5.67
     65.8388	   20.00	   24.89	 -587.14	    5.67
     65.8722	   10.00	   23.40	 -595.65	    5.67
     65.9057	   11.00	   21.99	 -593.24	    5.67
     65.9391	    8.00	   20.68	 -594.93	    5.67
     65.9725	   17.00	   19.49	 -584.74	    5.67
     66.0059	   11.00	   18.41	 -589.66	    5.67
     66.0393	   16.00	   17.45	 -583.70	    5.67
     66.0728	   15.00	   16.60	 -583.85	    5.67
     66.1062	   15.00	   15.84	 -583.09	    5.67
     66.1396	   13.00	   15.17	 -584.42	    5.67
     66.1730	   20.00	   14.58	 -576.83	    5.67
     66.2065	   15.00	   14.06	 -581.31	    5.67
     66.2399	   11.00	   13.60	 -584.85	    5.68
     66.2733	    9.00	   13.19	 -586.44	    5.68
     66.3067	    7.00	   12.82	 -588.07	    5.68
     66.3401	    5.00	   12.49	 -589.74	    5.68
     66.3736	   13.00	   12.20	 -581.45	    5.68
     66.4070	    9.00	   11.94	 -585.19	    5.68
     66.4404	    8.00	   11.70	 -585.95	    5.68
     66.4738	    9.00	   11.48	 -584.73	    5.68
     66.5073	    7.00	   11.29	 -586.54	    5.68
     66.5407	   14.00	   11.11	 -579.36	    5.68
     66.5741	    7.00	   10.95	 -586.20	    5.68
     66.6075	   10.00	   10.80	 -583.05	    5.68
     66.6410	   11.00	   10.66	 -581.91	    5.68
     66.6744	    9.00	   10.53	 -583.78	    5.69
     66.7078	    6.00	   10.42	 -586.67	    5.69
     66.7412	    7.00	   10.31	 -585.56	    5.69
     66.7746	   16.00	   10.22	 -576.47	    5.69
     66.8081	   14.00	   10.13	 -578.38	    5.69
     66.8415	    8.00	   10.04	 -584.29	    5.69
     66.8749	   16.00	    9.96	 -576.21	    5.69
     66.9083	    8.00	    9.89	 -584.14	    5.69
     66.9418	    5.00	    9.83	 -587.08	    5.69
     66.9752	    6.00	    9.77	 -586.02	    5.69
     67.0086	   11.00	    9.71	 -580.96	    5.69
     67.0420	    8.00	    9.66	 -583.91	    5.70
     67.0754	    8.00	    9.61	 -583.86	    5.70
     67.1089	    9.00	    9.57	 -582.82	    5.70
     67.1423	   17.00	    9.53	 -574.78	    5.70
     67.1757	    9.00	    9.49	 -582.74	    5.70
     67.2091	    7.00	    9.45	 -584.70	    5.70
     67.2426	   11.00	    9.42	 -580.67	    5.70
     67.2760	   11.00	    9.39	 -580.64	    5.70
     67.3094	    5.00	    9.37	 -586.62	    5.70
     67.3428	   11.00	    9.35	 -580.60	    5.70
     67.3762	    9.00	    9.33	 -582.58	    5.71
     67.4097	    7.00	    9.31	 -584.56	    5.71
     67.4431	    4.00	    9.29	 -587.54	    5.71
     67.4765	    6.00	    9.28	 -585.53	    5.71
     67.5099	    7.00	    9.27	 -584.52	    5.71
     67.5434	    8.00	    9.26	 -583.51	    5.71
     67.5768	    8.00	    9.25	 -583.50	    5.71
     67.6102	   13.00	    9.25	 -578.50	    5.71
     67.6436	    8.00	    9.21	 -583.46	    5.71
     67.6770	   15.00	    9.21	 -576.46	    5.72
     67.7105	    5.00	    9.21	 -586.46	    5.72
     67.7439	    6.00	    9.22	 -585.47	    5.72
     67.7773	    4.00	    9.22	 -587.47	    5.72
     67.8107	   10.00	    9.23	 -581.48	    5.72
     67.8442	    7.00	    9.22	 -584.47	    5.72
     67.8776	    7.00	    9.24	 -584.49	    5.72
     67.9110	    8.00	    9.25	 -583.50	    5.72
     67.9444	   15.00	    9.27	 -576.52	    5.72
     67.9779	    6.00	    9.29	 -585.54	    5.73
     68.0113	    6.00	    9.32	 -585.57	    5.73
     68.0447	   10.00	    9.35	 -581.60	    5.73
     68.0781	    9.00	    9.39	 -582.64	    5.73
     68.1115	   11.00	    9.42	 -580.67	    5.73
     68.1450	   10.00	    9.46	 -581.71	    5.73
     68.1784	    6.00	    9.51	 -585.76	    5.73
     68.2118	   11.00	    9.56	 -580.81	    5.73
     68.2452	   10.00	    9.62	 -581.87	    5.74
     68.2787	    9.00	    9.69	 -582.94	    5.74
     68.3121	   13.00	    9.76	 -579.01	    5.74
     68.3455	    4.00	    9.84	 -588.09	    5.74
     68.3789	    7.00	    9.93	 -585.18	    5.74
     68.4123	   13.00	   10.03	 -579.28	    5.74
     68.4458	   10.00	   10.14	 -582.39	    5.74
     68.4792	   10.00	   10.26	 -582.51	    5.74
     68.5126	   13.00	   10.40	 -579.65	    5.75
     68.5460	    8.00	   10.56	 -584.81	    5.75
     68.5795	    9.00	   10.74	 -583.99	    5.75
     68.6129	    9.00	   10.94	 -584.19	    5.75
     68.6463	    7.00	   11.17	 -586.42	    5.75
     68.6797	    7.00	   11.43	 -586.68	    5.75
     68.7132	    9.00	   11.71	 -584.96	    5.75
     68.7466	   16.00	   12.04	 -578.29	    5.76
     68.7800	    8.00	   12.41	 -586.66	    5.76
     68.8134	   15.00	   12.82	 -580.07	    5.76
     68.8468	   13.00	   13.27	 -582.52	    5.76
     68.8803	   13.00	   13.78	 -583.03	    5.76
     68.9137	   13.00	   14.32	 -583.57	    5.76
     68.9471	    7.00	   14.90	 -590.15	    5.76
     68.9805	    8.00	   15.49	 -589.74	    5.76
     69.0140	   15.00	   16.08	 -583.33	    5.77
     69.0474	   11.00	   16.64	 -587.89	    5.77
     69.0808	   16.00	   17.14	 -583.39	    5.77
     69.1142	   17.00	   17.54	 -582.79	    5.77
     69.1476	   11.00	   17.82	 -589.07	    5.77
     69.1811	   17.00	   17.97	 -583.22	    5.77
     69.2145	   17.00	   18.00	 -583.25	    5.78
     69.2479	    7.00	   17.92	 -593.17	    5.78
     69.2813	   17.00	   17.73	 -582.98	    5.78
     69.3148	   14.00	   17.47	 -585.72	    5.78
     69.3482	   11.00	   17.15	 -588.40	    5.78
     69.3816	   10.00	   16.79	 -589.04	    5.78
     69.4150	   10.00	   16.41	 -588.66	    5.78
     69.4484	    6.00	   16.03	 -592.28	    5.79
     69.4819	    7.00	   15.67	 -590.92	    5.79
     69.5153	   10.00	   15.35	 -587.60	    5.79
     69.5487	   15.00	   15.08	 -582.33	    5.79
     69.5821	    7.00	   14.88	 -590.13	    5.79
     69.6156	   11.00	   14.73	 -585.98	    5.79
     69.6490	    8.00	   14.66	 -588.91	    5.79
     69.6824	   15.00	   14.66	 -581.91	    5.80
     69.7158	    9.00	   14.73	 -587.98	    5.80
     69.7492	   10.00	   14.88	 -587.13	    5.80
     69.7827	    9.00	   15.10	 -588.35	    5.80
     69.8161	   14.00	   15.40	 -583.65	    5.80
     69.8495	   10.00	   15.79	 -588.04	    5.80
     69.8829	   11.00	   16.25	 -587.50	    5.81
     69.9164	    8.00	   16.80	 -591.05	    5.81
     69.9498	    8.00	   17.41	 -591.66	    5.81
     69.9832	   11.00	   18.09	 -589.34	    5.81
     70.0166	   16.00	   18.80	 -585.05	    5.81
     70.0500	   20.00	   19.53	 -581.78	    5.81
     70.0835	    8.00	   20.22	 -594.47	    5.82
     70.1169	   14.00	   20.83	 -589.08	    5.82
     70.1503	   17.00	   21.32	 -586.57	    5.82
     70.1837	   13.00	   21.64	 -590.89	    5.82
     70.2172	   17.00	   21.79	 -587.04	    5.82
     70.2506	    8.00	   21.75	 -596.00	    5.82
     70.2840	    7.00	   21.54	 -596.79	    5.83
     70.3174	   17.00	   21.17	 -586.42	    5.83
     70.3509	   10.00	   20.67	 -592.92	    5.83
     70.3843	   19.00	   20.07	 -583.32	    5.83
     70.4177	   10.00	   19.39	 -591.64	    5.83
     70.4511	   21.00	   18.65	 -579.90	    5.83
     70.4845	   14.00	   17.89	 -586.14	    5.84
     70.5180	    9.00	   17.12	 -590.37	    5.84
     70.5514	   14.00	   16.38	 -584.63	    5.84
     70.5848	   14.00	   15.67	 -583.92	    5.84
     70.6182	    5.00	   15.02	 -592.27	    5.84
     70.6517	   10.00	   14.42	 -586.67	    5.84
     70.6851	   13.00	   13.88	 -583.13	    5.85
     70.7185	   13.00	   13.39	 -582.64	    5.85
     70.7519	   15.00	   12.95	 -580.20	    5.85
     70.7853	    7.00	   12.57	 -587.82	    5.85
     70.8188	    6.00	   12.23	 -588.48	    5.85
     70.8522	   11.00	   11.93	 -583.18	    5.85
     70.8856	    4.00	   11.66	 -589.91	    5.86
     70.9190	    9.00	   11.42	 -584.67	    5.86
     70.9525	   13.00	   11.21	 -580.46	    5.86
     70.9859	    3.00	   11.03	 -590.28	    5.86
     71.0193	   11.00	   10.87	 -582.12	    5.86
     71.0527	    7.00	   10.73	 -585.98	    5.87
     71.0862	   10.00	   10.60	 -582.85	    5.87
     71.1196	   15.00	   10.49	 -577.74	    5.87
     71.1530	    7.00	   10.39	 -585.64	    5.87
     71.1864	    9.00	   10.30	 -583.55	    5.87
     71.2198	   13.00	   10.23	 -579.48	    5.87
     71.2533	   13.00	   10.16	 -579.41	    5.88
     71.2867	   13.00	   10.10	 -579.35	    5.88
     71.3201	    7.00	   10.06	 -585.31	    5.88
     71.3535	    8.00	   10.02	 -584.27	    5.88
     71.3870	    8.00	    9.98	 -584.23	    5.88
     71.4204	    7.00	    9.96	 -585.21	    5.89
     71.4538	   16.00	    9.93	 -576.18	    5.89
     71.4872	   10.00	    9.92	 -582.17	    5.89
     71.5206	   13.00	    9.91	 -579.16	    5.89
     71.5541	    9.00	    9.91	 -583.16	    5.89
     71.5875	    4.00	    9.90	 -588.15	    5.90
     71.6209	    7.00	    9.91	 -585.16	    5.90
     71.6543	   17.00	    9.92	 -575.17	    5.90
     71.6878	    9.00	    9.95	 -583.20	    5.90
     71.7212	    3.00	    9.97	 -589.22	    5.90
     71.7546	   10.00	   10.01	 -582.26	    5.90
     71.7880	    9.00	   10.04	 -583.29	    5.91
     71.8214	   10.00	   10.09	 -582.34	    5.91
     71.8549	   19.00	   10.15	 -573.40	    5.91
     71.8883	   11.00	   10.21	 -581.46	    5.91
     71.9217	    7.00	   10.28	 -585.53	    5.91
     71.9551	   11.00	   10.36	 -581.61	    5.92
     71.9886	    8.00	   10.45	 -584.70	    5.92
     72.0220	   10.00	   10.56	 -582.81	    5.92
     72.0554	   10.00	   10.68	 -582.93	    5.92
     72.0888	    5.00	   10.81	 -588.06	    5.92
     72.1222	    9.00	   10.96	 -584.21	    5.93
     72.1557	   17.00	   11.13	 -576.38	    5.93
     72.1891	    7.00	   11.32	 -586.57	    5.93
     72.2225	   13.00	   11.53	 -580.78	    5.93
     72.2559	    9.00	   11.77	 -585.02	    5.93
     72.2894	    5.00	   12.04	 -589.29	    5.94
     72.3228	   11.00	   12.35	 -583.60	    5.94
     72.3562	   16.00	   12.69	 -578.94	    5.94
     72.3896	    9.00	   13.07	 -586.32	    5.94
     72.4230	   10.00	   13.50	 -585.75	    5.94
     72.4565	    8.00	   13.98	 -588.23	    5.95
     72.4899	   14.00	   14.52	 -582.77	    5.95
     72.5233	   13.00	   15.12	 -584.37	    5.95
     72.5567	   11.00	   15.78	 -587.03	    5.95
     72.5902	    8.00	   16.49	 -590.74	    5.95
     72.6236	   13.00	   17.25	 -586.50	    5.96
     72.6570	   18.00	   18.04	 -582.29	    5.96
     72.6904	   16.00	   18.85	 -585.10	    5.96
     72.7239	    8.00	   19.64	 -593.89	    5.96
     72.7573	   13.00	   20.37	 -589.62	    5.96
     72.7907	   16.00	   21.00	 -587.25	    5.97
     72.8241	   27.00	   21.50	 -576.75	    5.97
     72.8575	   23.00	   21.85	 -581.10	    5.97
     72.8910	   16.00	   22.02	 -588.27	    5.97
     72.9244	   20.00	   22.03	 -584.28	    5.97
     72.9578	   11.00	   21.90	 -593.15	    5.98
     72.9912	   16.00	   21.63	 -587.88	    5.98
     73.0247	   17.00	   21.26	 -586.51	    5.98
     73.0581	   19.00	   20.80	 -584.05	    5.98
     73.0915	   13.00	   20.28	 -589.53	    5.98
     73.1249	   16.00	   19.73	 -585.98	    5.99
     73.1583	   24.00	   19.16	 -577.41	    5.99
     73.1918	   18.00	   18.61	 -582.86	    5.99
     73.2252	   20.00	   18.09	 -580.34	    5.99
     73.2586	   17.00	   17.63	 -582.88	    5.99
     73.2920	   15.00	   17.23	 -584.48	    6.00
     73.3255	   14.00	   16.91	 -585.16	    6.00
     73.3589	    7.00	   16.65	 -591.90	    6.00
     73.3923	    7.00	   16.47	 -591.72	    6.00
     73.4257	   13.00	   16.35	 -585.60	    6.00
     73.4592	   14.00	   16.27	 -584.52	    6.01
     73.4926	   11.00	   16.24	 -587.49	    6.01
     73.5260	   10.00	   16.22	 -588.47	    6.01
     73.5594	   10.00	   16.20	 -588.45	    6.01
     73.5928	   18.00	   16.16	 -580.41	    6.02
     73.6263	   17.00	   16.08	 -581.33	    6.02
     73.6597	   13.00	   15.96	 -585.21	    6.02
     73.6931	   14.00	   15.80	 -584.05	    6.02
     73.7265	   14.00	   15.58	 -583.83	    6.02
     73.7599	   15.00	   15.32	 -582.57	    6.03
     73.7934	   11.00	   15.03	 -586.28	    6.03
     73.8268	    7.00	   14.71	 -589.96	    6.03
     73.8602	   14.00	   14.37	 -582.62	    6.03
     73.8936	    9.00	   14.01	 -587.26	    6.03
     73.9271	   13.00	   13.64	 -582.89	    6.04
     73.9605	   15.00	   13.28	 -580.53	    6.04
     73.9939	    8.00	   12.93	 -587.18	    6.04
     74.0273	    7.00	   12.59	 -587.84	    6.04
     74.0608	    7.00	   12.28	 -587.53	    6.05
     74.0942	   11.00	   11.99	 -583.24	    6.05
     74.1276	   16.00	   11.72	 -577.97	    6.05
     74.1610	    4.00	   11.48	 -589.73	    6.05
     74.1944	    9.00	   11.25	 -584.51	    6.05
     74.2279	   15.00	   11.06	 -578.31	    6.06
     74.2613	   11.00	   10.88	 -582.13	    6.06
     74.2947	   13.00	   10.72	 -579.97	    6.06
     74.3281	    7.00	   10.58	 -585.83	    6.06
     74.3616	   14.00	   10.45	 -578.70	    6.06
     74.3950	   11.00	   10.34	 -581.59	    6.07
     74.4284	    9.00	   10.24	 -583.49	    6.07
     74.4618	   15.00	   10.14	 -577.39	    6.07
     74.4952	    8.00	   10.06	 -584.31	    6.07
     74.5287	   10.00	    9.99	 -582.24	    6.08
     74.5621	   13.00	    9.92	 -579.17	    6.08
     74.5955	   11.00	    9.87	 -581.12	    6.08
     74.6289	    6.00	    9.82	 -586.07	    6.08
     74.6624	    8.00	    9.77	 -584.02	    6.08
     74.6958	    9.00	    9.73	 -582.98	    6.09
     74.7292	    7.00	    9.70	 -584.95	    6.09
     74.7626	   10.00	    9.67	 -581.92	    6.09
     74.7961	    6.00	    9.65	 -585.90	    6.09
     74.8295	    6.00	    9.63	 -585.88	    6.09
     74.8629	   16.00	    9.61	 -575.86	    6.10
     74.8963	    4.00	    9.61	 -587.86	    6.10
     74.9297	    6.00	    9.60	 -585.85	    6.10
     74.9632	   10.00	    9.60	 -581.85	    6.10
     74.9966	    9.00	    9.60	 -582.85	    6.11
     75.0300	    9.00	    9.60	 -582.85	    6.11
     75.0634	    5.00	    9.61	 -586.86	    6.11
     75.0969	    5.00	    9.62	 -586.87	    6.11
     75.1303	   10.00	    9.64	 -581.89	    6.11
     75.1637	    8.00	    9.65	 -583.90	    6.12
     75.1971	   15.00	    9.68	 -576.93	    6.12
     75.2305	   14.00	    9.70	 -577.95	    6.12
     75.2640	    5.00	    9.74	 -586.99	    6.12
     75.2974	    7.00	    9.77	 -585.02	    6.13
     75.3308	   13.00	    9.81	 -579.06	    6.13
     75.3642	    9.00	    9.86	 -583.11	    6.13
     75.3977	    3.00	    9.91	 -589.16	    6.13
     75.4311	   15.00	    9.97	 -577.22	    6.13
     75.4645	    9.00	   10.03	 -583.28	    6.14
     75.4979	   10.00	   10.11	 -582.36	    6.14
     75.5313	   14.00	   10.19	 -578.44	    6.14
     75.5648	   13.00	   10.28	 -579.53	    6.14
     75.5982	    9.00	   10.38	 -583.63	    6.15
     75.6316	    8.00	   10.50	 -584.75	    6.15
     75.6650	   15.00	   10.63	 -577.88	    6.15
     75.6985	   17.00	   10.77	 -576.02	    6.15
     75.7319	   13.00	   10.93	 -580.18	    6.15
     75.7653	    5.00	   11.10	 -588.35	    6.16
     75.7987	   11.00	   11.30	 -582.55	    6.16
     75.8321	    7.00	   11.52	 -586.77	    6.16
     75.8656	   13.00	   11.76	 -581.01	    6.16
     75.8990	   11.00	   12.02	 -583.27	    6.17
     75.9324	   14.00	   12.31	 -580.56	    6.17
     75.9658	   17.00	   12.62	 -577.87	    6.17
     75.9993	   21.00	   12.96	 -574.21	    6.17
     76.0327	   10.00	   13.31	 -585.56	    6.17
     76.0661	   10.00	   13.66	 -585.91	    6.18
     76.0995	   16.00	   14.02	 -580.27	    6.18
     76.1329	   11.00	   14.37	 -585.62	    6.18
     76.1664	   13.00	   14.69	 -583.94	    6.18
     76.1998	   14.00	   14.97	 -583.22	    6.19
     76.2332	   13.00	   15.21	 -584.46	    6.19
     76.2666	   14.00	   15.39	 -583.64	    6.19
     76.3001	   13.00	   15.52	 -584.77	    6.19
     76.3335	   23.00	   15.59	 -574.84	    6.19
     76.3669	    9.00	   15.62	 -588.87	    6.20
     76.4003	   15.00	   15.61	 -582.86	    6.20
     76.4338	   10.00	   15.58	 -587.83	    6.20
     76.4672	   16.00	   15.54	 -581.79	    6.20
     76.5006	   19.00	   15.49	 -578.74	    6.21
     76.5340	   13.00	   15.44	 -584.69	    6.21
     76.5674	   18.00	   15.41	 -579.66	    6.21
     76.6009	   13.00	   15.41	 -584.66	    6.21
     76.6343	   22.00	   15.43	 -575.68	    6.21
     76.6677	    7.00	   15.50	 -590.75	    6.22
     76.7011	   14.00	   15.63	 -583.88	    6.22
     76.7346	   15.00	   15.81	 -583.06	    6.22
     76.7680	   16.00	   16.05	 -582.30	    6.22
     76.8014	    9.00	   16.35	 -589.60	    6.23
     76.8348	   14.00	   16.70	 -584.95	    6.23
     76.8682	   11.00	   17.11	 -588.36	    6.23
     76.9017	   11.00	   17.54	 -588.79	    6.23
     76.9351	   17.00	   18.00	 -583.25	    6.23
     76.9685	    6.00	   18.46	 -594.71	    6.24
     77.0019	   21.00	   18.89	 -580.14	    6.24
     77.0354	   18.00	   19.26	 -583.51	    6.24
     77.0688	   24.00	   19.55	 -577.80	    6.24
     77.1022	   27.00	   19.74	 -574.99	    6.25
     77.1356	   21.00	   19.82	 -581.07	    6.25
     77.1691	   21.00	   19.79	 -581.04	    6.25
     77.2025	   14.00	   19.64	 -587.89	    6.25
     77.2359	   14.00	   19.39	 -587.64	    6.25
     77.2693	   21.00	   19.06	 -580.31	    6.26
     77.3027	   17.00	   18.65	 -583.90	    6.26
     77.3362	   20.00	   18.19	 -580.44	    6.26
     77.3696	   20.00	   17.67	 -579.92	    6.26
     77.4030	    9.00	   17.12	 -590.37	    6.27
     77.4364	   18.00	   16.56	 -580.81	    6.27
     77.4699	   14.00	   15.99	 -584.24	    6.27
     77.5033	   13.00	   15.44	 -584.69	    6.27
     77.5367	   10.00	   14.90	 -587.15	    6.27
     77.5701	   17.00	   14.40	 -579.65	    6.28
     77.6035	    8.00	   13.93	 -588.18	    6.28
     77.6370	   11.00	   13.50	 -584.75	    6.28
     77.6704	    7.00	   13.10	 -588.35	    6.28
     77.7038	   17.00	   12.74	 -577.99	    6.29
     77.7372	    6.00	   12.42	 -588.67	    6.29
     77.7707	    8.00	   12.13	 -586.38	    6.29
     77.8041	   21.00	   11.86	 -573.11	    6.29
     77.8375	   13.00	   11.63	 -580.88	    6.29
     77.8709	   14.00	   11.41	 -579.66	    6.30
     77.9043	   14.00	   11.22	 -579.47	    6.30
     77.9378	    9.00	   11.05	 -584.30	    6.30
     77.9712	    9.00	   10.90	 -584.15	    6.30
     78.0046	    9.00	   10.76	 -584.01	    6.31
     78.0380	   15.00	   10.63	 -577.88	    6.31
     78.0715	    4.00	   10.52	 -588.77	    6.31
     78.1049	   16.00	   10.42	 -576.67	    6.31
     78.1383	   11.00	   10.32	 -581.57	    6.31
     78.1717	   11.00	   10.24	 -581.49	    6.32
     78.2051	   14.00	   10.17	 -578.42	    6.32
     78.2386	    8.00	   10.10	 -584.35	    6.32
     78.2720	   14.00	   10.03	 -578.28	    6.32
     78.3054	    8.00	    9.98	 -584.23	    6.33
     78.3388	   10.00	    9.93	 -582.18	    6.33
     78.3723	    6.00	    9.88	 -586.13	    6.33
     78.4057	    9.00	    9.84	 -583.09	    6.33
     78.4391	    9.00	    9.80	 -583.05	    6.33
     78.4725	    5.00	    9.76	 -587.01	    6.34
     78.5060	    9.00	    9.73	 -582.98	    6.34
     78.5394	   13.00	    9.69	 -578.94	    6.34
     78.5728	    6.00	    9.67	 -585.92	    6.34
     78.6062	    8.00	    9.64	 -583.89	    6.35
     78.6396	    8.00	    9.62	 -583.87	    6.35
     78.6731	   13.00	    9.59	 -578.84	    6.35
     78.7065	   19.00	    9.57	 -572.82	    6.35
     78.7399	    9.00	    9.56	 -582.81	    6.35
     78.7733	    5.00	    9.54	 -586.79	    6.36
     78.8068	   16.00	    9.53	 -575.78	    6.36
     78.8402	   15.00	    9.52	 -576.77	    6.36
     78.8736	    9.00	    9.51	 -582.76	    6.36
     78.9070	    7.00	    9.50	 -584.75	    6.37
     78.9404	    6.00	    9.49	 -585.74	    6.37
     78.9739	    7.00	    9.49	 -584.74	    6.37
     79.0073	   10.00	    9.48	 -581.73	    6.37
     79.0407	    7.00	    9.48	 -584.73	    6.37
     79.0741	   13.00	    9.48	 -578.73	    6.38
     79.1076	   17.00	    9.48	 -574.73	    6.38
     79.1410	    8.00	    9.49	 -583.74	    6.38
     79.1744	   11.00	    9.49	 -580.74	    6.38
     79.2078	   14.00	    9.50	 -577.75	    6.39
     79.2412	    6.00	    9.50	 -585.75	    6.39
     79.2747	   14.00	    9.51	 -577.76	    6.39
     79.3081	   10.00	    9.52	 -581.77	    6.39
     79.3415	   17.00	    9.53	 -574.78	    6.39
     79.3749	   10.00	    9.55	 -581.80	    6.40
     79.4084	   13.00	    9.56	 -578.81	    6.40
     79.4418	   14.00	    9.58	 -577.83	    6.40
     79.4752	   13.00	    9.60	 -578.85	    6.40
     79.5086	   13.00	    9.62	 -578.87	    6.40
     79.5421	   13.00	    9.64	 -578.89	    6.41
     79.5755	    7.00	    9.66	 -584.91	    6.41
     79.6089	    8.00	    9.69	 -583.94	    6.41
     79.6423	   11.00	    9.72	 -580.97	    6.41
     79.6757	   11.00	    9.75	 -581.00	    6.42
     79.7092	   10.00	    9.78	 -582.03	    6.42
     79.7426	    7.00	    9.81	 -585.06	    6.42
     79.7760	    6.00	    9.85	 -586.10	    6.42
     79.8094	   14.00	    9.89	 -578.14	    6.42
     79.8428	    7.00	    9.93	 -585.18	    6.43
     79.8763	   10.00	    9.98	 -582.23	    6.43
     79.9097	   15.00	   10.03	 -577.28	    6.43
     79.9431	   14.00	   10.08	 -578.33	    6.43
     79.9765	    7.00	   10.14	 -585.39	    6.43
     80.0100	    7.00	   10.20	 -585.45	    6.44
     80.0434	    7.00	   10.27	 -585.52	    6.44
     80.0768	    6.00	   10.35	 -586.60	    6.44
     80.1102	   11.00	   10.42	 -581.67	    6.44
     80.1437	   15.00	   10.51	 -577.76	    6.45
     80.1771	    7.00	   10.60	 -585.85	    6.45
     80.2105	   13.00	   10.70	 -579.95	    6.45
     80.2439	    9.00	   10.81	 -584.06	    6.45
     80.2773	   10.00	   10.92	 -583.17	    6.45
     80.3108	    8.00	   11.05	 -585.30	    6.46
     80.3442	   15.00	   11.19	 -578.44	    6.46
     80.3776	   22.00	   11.34	 -571.59	    6.46
     80.4110	   14.00	   11.50	 -579.75	    6.46
     80.4445	    7.00	   11.68	 -586.93	    6.46
     80.4779	    6.00	   11.88	 -588.13	    6.47
     80.5113	    9.00	   12.09	 -585.34	    6.47
     80.5447	   16.00	   12.32	 -578.57	    6.47
     80.5781	   11.00	   12.57	 -583.82	    6.47
     80.6116	    9.00	   12.85	 -586.10	    6.47
     80.6450	    5.00	   13.14	 -590.39	    6.48
     80.6784	   14.00	   13.45	 -581.70	    6.48
     80.7118	   14.00	   13.78	 -582.03	    6.48
     80.7453	   11.00	   14.13	 -585.38	    6.48
     80.7787	   14.00	   14.48	 -582.73	    6.49
     80.8121	   18.00	   14.84	 -579.09	    6.49
     80.8455	   18.00	   15.21	 -579.46	    6.49
     80.8790	   18.00	   15.58	 -579.83	    6.49
     80.9124	   10.00	   15.94	 -588.19	    6.49
     80.9458	   20.00	   16.30	 -578.55	    6.50
     80.9792	   10.00	   16.66	 -588.91	    6.50
     81.0126	   27.00	   17.03	 -572.28	    6.50
     81.0461	   14.00	   17.41	 -585.66	    6.50
     81.0795	   19.00	   17.80	 -581.05	    6.50
     81.1129	   15.00	   18.21	 -585.46	    6.51
     81.1463	   18.00	   18.64	 -582.89	    6.51
     81.1798	    9.00	   19.10	 -592.35	    6.51
     81.2132	   18.00	   19.58	 -583.83	    6.51
     81.2466	   16.00	   20.09	 -586.34	    6.51
     81.2800	   16.00	   20.60	 -586.85	    6.52
     81.3134	   18.00	   21.11	 -585.36	    6.52
     81.3469	   18.00	   21.60	 -585.85	    6.52
     81.3803	   26.00	   22.05	 -578.30	    6.52
     81.4137	   29.00	   22.44	 -575.69	    6.52
     81.4471	   19.00	   22.75	 -586.00	    6.53
     81.4806	   26.00	   22.96	 -579.21	    6.53
     81.5140	   18.00	   23.05	 -587.30	    6.53
     81.5474	   21.00	   23.04	 -584.29	    6.53
     81.5808	   11.00	   22.93	 -594.18	    6.53
     81.6143	   13.00	   22.72	 -591.97	    6.54
     81.6477	   24.00	   22.43	 -580.68	    6.54
     81.6811	   21.00	   22.07	 -583.32	    6.54
     81.7145	   22.00	   21.65	 -581.90	    6.54
     81.7479	   13.00	   21.19	 -590.44	    6.54
     81.7814	   18.00	   20.69	 -584.94	    6.55
     81.8148	   17.00	   20.18	 -585.43	    6.55
     81.8482	   15.00	   19.65	 -586.90	    6.55
     81.8816	    5.00	   19.13	 -596.38	    6.55
     81.9151	   21.00	   18.62	 -579.87	    6.55
     81.9485	   10.00	   18.13	 -590.38	    6.56
     81.9819	   14.00	   17.67	 -585.92	    6.56
     82.0153	   14.00	   17.23	 -585.48	    6.56
     82.0487	   16.00	   16.82	 -583.07	    6.56
     82.0822	   22.00	   16.44	 -576.69	    6.56
     82.1156	   10.00	   16.08	 -588.33	    6.57
     82.1490	   19.00	   15.75	 -579.00	    6.57
     82.1824	   13.00	   15.44	 -584.69	    6.57
     82.2159	   13.00	   15.16	 -584.41	    6.57
     82.2493	    9.00	   14.89	 -588.14	    6.57
     82.2827	   13.00	   14.65	 -583.90	    6.58
     82.3161	   11.00	   14.43	 -585.68	    6.58
     82.3495	   24.00	   14.23	 -572.48	    6.58
     82.3830	   19.00	   14.05	 -577.30	    6.58
     82.4164	   14.00	   13.88	 -582.14	    6.58
     82.4498	    9.00	   13.74	 -586.99	    6.59
     82.4832	   13.00	   13.62	 -582.87	    6.59
     82.5167	   14.00	   13.52	 -581.77	    6.59
     82.5501	   17.00	   13.43	 -578.68	    6.59
     82.5835	   16.00	   13.37	 -579.62	    6.59
     82.6169	   15.00	   13.33	 -580.58	    6.60
     82.6503	   16.00	   13.31	 -579.56	    6.60
     82.6838	   16.00	   13.30	 -579.55	    6.60
     82.7172	   17.00	   13.32	 -578.57	    6.60
     82.7506	   15.00	   13.36	 -580.61	    6.60
     82.7840	   14.00	   13.41	 -581.66	    6.60
     82.8175	   14.00	   13.49	 -581.74	    6.61
     82.8509	   17.00	   13.59	 -578.84	    6.61
     82.8843	   15.00	   13.71	 -580.96	    6.61
     82.9177	   15.00	   13.86	 -581.11	    6.61
     82.9511	   19.00	   14.03	 -577.28	    6.61
     82.9846	   27.00	   14.23	 -569.48	    6.62
     83.0180	    8.00	   14.45	 -588.70	    6.62
     83.0514	   17.00	   14.71	 -579.96	    6.62
     83.0848	   15.00	   15.00	 -582.25	    6.62
     83.1183	   13.00	   15.33	 -584.58	    6.62
     83.1517	   13.00	   15.69	 -584.94	    6.63
     83.1851	   16.00	   16.10	 -582.35	    6.63
     83.2185	   10.00	   16.55	 -588.80	    6.63
     83.2520	   15.00	   17.05	 -584.30	    6.63
     83.2854	   18.00	   17.61	 -581.86	    6.63
     83.3188	   11.00	   18.22	 -589.47	    6.63
     83.3522	   13.00	   18.89	 -588.14	    6.64
     83.3856	   10.00	   19.62	 -591.87	    6.64
     83.4191	   11.00	   20.40	 -591.65	    6.64
     83.4525	   22.00	   21.23	 -581.48	    6.64
     83.4859	   20.00	   22.11	 -584.36	    6.64
     83.5193	   14.00	   23.01	 -591.26	    6.65
     83.5528	   17.00	   23.93	 -589.18	    6.65
     83.5862	   15.00	   24.82	 -592.07	    6.65
     83.6196	   19.00	   25.68	 -588.93	    6.65
     83.6530	   31.00	   26.45	 -577.70	    6.65
     83.6864	   14.00	   27.12	 -595.37	    6.65
     83.7199	   29.00	   27.66	 -580.91	    6.66
     83.7533	   22.00	   28.05	 -588.30	    6.66
     83.7867	   23.00	   28.27	 -587.52	    6.66
     83.8201	   28.00	   28.34	 -582.59	    6.66
     83.8536	   18.00	   28.26	 -592.51	    6.66
     83.8870	   18.00	   28.05	 -592.30	    6.67
     83.9204	   21.00	   27.73	 -588.98	    6.67
     83.9538	   13.00	   27.30	 -596.55	    6.67
     83.9873	   19.00	   26.80	 -590.05	    6.67
     84.0207	   28.00	   26.23	 -580.48	    6.67
     84.0541	   23.00	   25.61	 -584.86	    6.67
     84.0875	   18.00	   24.97	 -589.22	    6.68
     84.1209	   14.00	   24.33	 -592.58	    6.68
     84.1544	   20.00	   23.70	 -585.95	    6.68
     84.1878	   16.00	   23.11	 -589.36	    6.68
     84.2212	   10.00	   22.56	 -594.81	    6.68
     84.2546	   18.00	   22.07	 -586.32	    6.68
     84.2880	   20.00	   21.66	 -583.91	    6.69
     84.3215	   20.00	   21.31	 -583.56	    6.69
     84.3549	   13.00	   21.04	 -590.29	    6.69
     84.3883	    9.00	   20.85	 -594.10	    6.69
     84.4217	   10.00	   20.73	 -592.98	    6.69
     84.4552	   19.00	   20.68	 -583.93	    6.69
     84.4886	   18.00	   20.70	 -584.95	    6.70
     84.5220	   22.00	   20.78	 -581.03	    6.70
     84.5554	   15.00	   20.90	 -588.15	    6.70
     84.5889	   22.00	   21.06	 -581.31	    6.70
     84.6223	   10.00	   21.23	 -593.48	    6.70
     84.6557	   15.00	   21.40	 -588.65	    6.70
     84.6891	   23.00	   21.54	 -580.79	    6.71
     84.7225	   19.00	   21.65	 -584.90	    6.71
     84.7560	   19.00	   21.70	 -584.95	    6.71
     84.7894	   17.00	   21.69	 -586.93	    6.71
     84.8228	   22.00	   21.60	 -581.85	    6.71
     84.8562	   20.00	   21.44	 -583.69	    6.71
     84.8897	   11.00	   21.21	 -592.46	    6.72
     84.9231	   18.00	   20.92	 -585.17	    6.72
     84.9565	   13.00	   20.57	 -589.82	    6.72
     84.9899	    8.00	   20.17	 -594.42	    6.72
     85.0233	   14.00	   19.74	 -587.99	    6.72
     85.0568	   23.00	   19.27	 -578.52	    6.72
     85.0902	   10.00	   18.78	 -591.03	    6.73
     85.1236	   19.00	   18.27	 -581.52	    6.73
     85.1570	   16.00	   17.76	 -584.01	    6.73
     85.1905	   18.00	   17.25	 -581.50	    6.73
     85.2239	   13.00	   16.76	 -586.01	    6.73
     85.2573	    9.00	   16.28	 -589.53	    6.73
     85.2907	   13.00	   15.82	 -585.07	    6.74
     85.3242	   14.00	   15.39	 -583.64	    6.74
     85.3576	   15.00	   15.00	 -582.25	    6.74
     85.3910	   18.00	   14.63	 -578.88	    6.74
     85.4244	   13.00	   14.29	 -583.54	    6.74
     85.4578	   20.00	   13.98	 -576.23	    6.74
     85.4913	    7.00	   13.70	 -588.95	    6.74
     85.5247	   11.00	   13.44	 -584.69	    6.75
     85.5581	   17.00	   13.21	 -578.46	    6.75
     85.5915	   18.00	   13.01	 -577.26	    6.75
     85.6250	   10.00	   12.82	 -585.07	    6.75
     85.6584	   13.00	   12.66	 -581.91	    6.75
     85.6918	   11.00	   12.51	 -583.76	    6.75
     85.7252	   14.00	   12.39	 -580.64	    6.76
     85.7586	   13.00	   12.28	 -581.53	    6.76
     85.7921	   13.00	   12.18	 -581.43	    6.76
     85.8255	   14.00	   12.11	 -580.36	    6.76
     85.8589	   14.00	   12.04	 -580.29	    6.76
     85.8923	    4.00	   12.00	 -590.25	    6.76
     85.9258	   13.00	   11.96	 -581.21	    6.76
     85.9592	   13.00	   11.94	 -581.19	    6.77
     85.9926	   13.00	   11.93	 -581.18	    6.77
     86.0260	   11.00	   11.94	 -583.19	    6.77
     86.0594	   14.00	   11.95	 -580.20	    6.77
     86.0929	    9.00	   11.98	 -585.23	    6.77
     86.1263	    5.00	   12.02	 -589.27	    6.77
     86.1597	    8.00	   12.07	 -586.32	    6.77
     86.1931	    8.00	   12.12	 -586.37	    6.78
     86.2266	   10.00	   12.18	 -584.43	    6.78
     86.2600	    7.00	   12.23	 -587.48	    6.78
     86.2934	   19.00	   12.29	 -575.54	    6.78
     86.3268	   21.00	   12.33	 -573.58	    6.78
     86.3602	    8.00	   12.36	 -586.61	    6.78
     86.3937	   13.00	   12.38	 -581.63	    6.78
     86.4271	   10.00	   12.39	 -584.64	    6.79
     86.4605	   11.00	   12.37	 -583.62	    6.79
     86.4939	   18.00	   12.33	 -576.58	    6.79
     86.5274	    8.00	   12.28	 -586.53	    6.79
     86.5608	   10.00	   12.21	 -584.46	    6.79
     86.5942	    7.00	   12.13	 -587.38	    6.79
     86.6276	   15.00	   12.04	 -579.29	    6.79
     86.6610	   16.00	   11.93	 -578.18	    6.80
     86.6945	    9.00	   11.82	 -585.07	    6.80
     86.7279	   11.00	   11.70	 -582.95	    6.80
     86.7613	   10.00	   11.57	 -583.82	    6.80
     86.7947	   11.00	   11.45	 -582.70	    6.80
     86.8282	   15.00	   11.32	 -578.57	    6.80
     86.8616	   13.00	   11.20	 -580.45	    6.80
     86.8950	   15.00	   11.07	 -578.32	    6.81
     86.9284	   13.00	   10.96	 -580.21	    6.81
     86.9619	   11.00	   10.84	 -582.09	    6.81
     86.9953	   10.00	   10.74	 -582.99	    6.81
     87.0287	   11.00	   10.64	 -581.89	    6.81
     87.0621	   10.00	   10.55	 -582.80	    6.81
     87.0955	   10.00	   10.46	 -582.71	    6.81
     87.1290	    9.00	   10.38	 -583.63	    6.81
     87.1624	   13.00	   10.31	 -579.56	    6.82
     87.1958	    7.00	   10.24	 -585.49	    6.82
     87.2292	   11.00	   10.18	 -581.43	    6.82
     87.2627	    7.00	   10.12	 -585.37	    6.82
     87.2961	   13.00	   10.06	 -579.31	    6.82
     87.3295	    8.00	   10.02	 -584.27	    6.82
     87.3629	   11.00	    9.97	 -581.22	    6.82
     87.3963	    5.00	    9.93	 -587.18	    6.82
     87.4298	   10.00	    9.89	 -582.14	    6.83
     87.4632	    7.00	    9.85	 -585.10	    6.83
     87.4966	   10.00	    9.81	 -582.06	    6.83
     87.5300	   10.00	    9.78	 -582.03	    6.83
     87.5635	    8.00	    9.75	 -584.00	    6.83
     87.5969	   10.00	    9.73	 -581.98	    6.83
     87.6303	   10.00	    9.70	 -581.95	    6.83
     87.6637	   13.00	    9.68	 -578.93	    6.83
     87.6972	   10.00	    9.66	 -581.91	    6.84
     87.7306	   11.00	    9.63	 -580.88	    6.84
     87.7640	    9.00	    9.61	 -582.86	    6.84
     87.7974	    6.00	    9.59	 -585.84	    6.84
     87.8308	   11.00	    9.58	 -580.83	    6.84
     87.8643	   15.00	    9.56	 -576.81	    6.84
     87.8977	   13.00	    9.55	 -578.80	    6.84
     87.9311	    8.00	    9.53	 -583.78	    6.84
     87.9645	    6.00	    9.52	 -585.77	    6.84
     87.9979	   10.00	    9.51	 -581.76	    6.85
     88.0314	   13.00	    9.49	 -578.74	    6.85
     88.0648	    9.00	    9.48	 -582.73	    6.85
     88.0982	   11.00	    9.47	 -580.72	    6.85
     88.1316	   10.00	    9.46	 -581.71	    6.85
     88.1651	    5.00	    9.45	 -586.70	    6.85
     88.1985	    7.00	    9.44	 -584.69	    6.85
     88.2319	   10.00	    9.43	 -581.68	    6.85
     88.2653	    7.00	    9.43	 -584.68	    6.85
     88.2988	   15.00	    9.42	 -576.67	    6.86
     88.3322	    5.00	    9.41	 -586.66	    6.86
     88.3656	    6.00	    9.40	 -585.65	    6.86
     88.3990	    4.00	    9.40	 -587.65	    6.86
     88.4324	   11.00	    9.39	 -580.64	    6.86
     88.4659	   10.00	    9.39	 -581.64	    6.86
     88.4993	   11.00	    9.38	 -580.63	    6.86
     88.5327	    4.00	    9.38	 -587.63	    6.86
     88.5661	   13.00	    9.37	 -578.62	    6.86
     88.5996	   10.00	    9.37	 -581.62	    6.87
     88.6330	    4.00	    9.36	 -587.61	    6.87
     88.6664	    9.00	    9.36	 -582.61	    6.87
     88.6998	   11.00	    9.35	 -580.60	    6.87
     88.7332	    5.00	    9.35	 -586.60	    6.87
     88.7667	   11.00	    9.35	 -580.60	    6.87
     88.8001	    9.00	    9.35	 -582.60	    6.87
     88.8335	    9.00	    9.34	 -582.59	    6.87
     88.8669	   13.00	    9.34	 -578.59	    6.87
     88.9004	    9.00	    9.34	 -582.59	    6.87
     88.9338	   10.00	    9.34	 -581.59	    6.88
     88.9672	    7.00	    9.34	 -584.59	    6.88
     89.0006	   11.00	    9.33	 -580.58	    6.88
     89.0340	    6.00	    9.33	 -585.58	    6.88
     89.0675	   18.00	    9.33	 -573.58	    6.88
     89.1009	    6.00	    9.33	 -585.58	    6.88
     89.1343	    9.00	    9.33	 -582.58	    6.88
     89.1677	    7.00	    9.33	 -584.58	    6.88
     89.2012	    6.00	    9.33	 -585.58	    6.88
     89.2346	    8.00	    9.33	 -583.58	    6.88
     89.2680	    8.00	    9.33	 -583.58	    6.89
     89.3014	    7.00	    9.33	 -584.58	    6.89
     89.3349	   11.00	    9.33	 -580.58	    6.89
     89.3683	   11.00	    9.33	 -580.58	    6.89
     89.4017	   13.00	    9.33	 -578.58	    6.89
     89.4351	    8.00	    9.33	 -583.58	    6.89
     89.4685	    8.00	    9.33	 -583.58	    6.89
     89.5020	    8.00	    9.33	 -583.58	    6.89
     89.5354	   10.00	    9.33	 -581.58	    6.89
     89.5688	    8.00	    9.33	 -583.58	    6.89
     89.6022	    8.00	    9.34	 -583.59	    6.89
     89.6357	    7.00	    9.34	 -584.59	    6.89
     89.6691	   10.00	    9.34	 -581.59	    6.90
     89.7025	   13.00	    9.34	 -578.59	    6.90
     89.7359	   16.00	    9.34	 -575.59	    6.90
     89.7693	    6.00	    9.35	 -585.60	    6.90
     89.8028	    2.00	    9.35	 -589.60	    6.90
     89.8362	    3.00	    9.35	 -588.60	    6.90
     89.8696	    7.00	    9.35	 -584.60	    6.90
     89.9030	    7.00	    9.36	 -584.61	    6.90
     89.9365	   10.00	    9.36	 -581.61	    6.90
     89.9699	    8.00	    9.36	 -583.61	    6.90
     90.0033	    7.00	    9.37	 -584.62	    6.90
     90.0367	   11.00	    9.37	 -580.62	    6.90
     90.0701	    5.00	    9.37	 -586.62	    6.91
     90.1036	   18.00	    9.38	 -573.63	    6.91
     90.1370	    9.00	    9.38	 -582.63	    6.91
     90.1704	   13.00	    9.39	 -578.64	    6.91
     90.2038	    5.00	    9.39	 -586.64	    6.91
     90.2373	   10.00	    9.40	 -581.65	    6.91
     90.2707	    6.00	    9.40	 -585.65	    6.91
     90.3041	    5.00	    9.41	 -586.66	    6.91
     90.3375	    7.00	    9.41	 -584.66	    6.91
     90.3709	   10.00	    9.42	 -581.67	    6.91
     90.4044	    8.00	    9.42	 -583.67	    6.91
     90.4378	    7.00	    9.43	 -584.68	    6.91
     90.4712	    6.00	    9.43	 -585.68	    6.91
     90.5046	    9.00	    9.44	 -582.69	    6.91
     90.5381	   13.00	    9.45	 -578.70	    6.92
     90.5715	    7.00	    9.46	 -584.71	    6.92
     90.6049	    6.00	    9.46	 -585.71	    6.92
     90.6383	    8.00	    9.47	 -583.72	    6.92
     90.6718	   10.00	    9.48	 -581.73	    6.92
     90.7052	    5.00	    9.48	 -586.73	    6.92
     90.7386	   10.00	    9.49	 -581.74	    6.92
     90.7720	    6.00	    9.50	 -585.75	    6.92
     90.8054	   10.00	    9.51	 -581.76	    6.92
     90.8389	    2.00	    9.52	 -589.77	    6.92
     90.8723	   13.00	    9.53	 -578.78	    6.92
     90.9057	   11.00	    9.54	 -580.79	    6.92
     90.9391	    8.00	    9.55	 -583.80	    6.92
     90.9726	    4.00	    9.57	 -587.82	    6.92
     91.0060	    6.00	    9.58	 -585.83	    6.92
     91.0394	   14.00	    9.59	 -577.84	    6.92
     91.0728	    6.00	    9.60	 -585.85	    6.93
     91.1062	    6.00	    9.61	 -585.86	    6.93
     91.1397	   11.00	    9.63	 -580.88	    6.93
     91.1731	    5.00	    9.64	 -586.89	    6.93
     91.2065	    9.00	    9.66	 -582.91	    6.93
     91.2399	   14.00	    9.68	 -577.93	    6.93
     91.2734	   11.00	    9.69	 -580.94	    6.93
     91.3068	    6.00	    9.71	 -585.96	    6.93
     91.3402	    4.00	    9.73	 -587.98	    6.93
     91.3736	    8.00	    9.75	 -584.00	    6.93
     91.4071	    7.00	    9.76	 -585.01	    6.93
     91.4405	   14.00	    9.78	 -578.03	    6.93
     91.4739	    7.00	    9.81	 -585.06	    6.93
     91.5073	   11.00	    9.83	 -581.08	    6.93
     91.5407	   13.00	    9.85	 -579.10	    6.93
     91.5742	   16.00	    9.87	 -576.12	    6.93
     91.6076	    5.00	    9.90	 -587.15	    6.93
     91.6410	    9.00	    9.93	 -583.18	    6.93
     91.6744	    7.00	    9.95	 -585.20	    6.93
     91.7079	   10.00	    9.98	 -582.23	    6.94
     91.7413	   13.00	   10.01	 -579.26	    6.94
     91.7747	   13.00	   10.04	 -579.29	    6.94
     91.8081	    8.00	   10.07	 -584.32	    6.94
     91.8415	    7.00	   10.10	 -585.35	    6.94
     91.8750	    6.00	   10.14	 -586.39	    6.94
     91.9084	    4.00	   10.18	 -588.43	    6.94
     91.9418	    7.00	   10.22	 -585.47	    6.94
     91.9752	    9.00	   10.26	 -583.51	    6.94
     92.0087	    8.00	   10.30	 -584.55	    6.94
     92.0421	    8.00	   10.35	 -584.60	    6.94
     92.0755	   13.00	   10.39	 -579.64	    6.94
     92.1089	    8.00	   10.44	 -584.69	    6.94
     92.1423	   14.00	   10.50	 -578.75	    6.94
     92.1758	    9.00	   10.56	 -583.81	    6.94
     92.2092	    9.00	   10.62	 -583.87	    6.94
     92.2426	   13.00	   10.69	 -579.94	    6.94
     92.2760	   15.00	   10.76	 -578.01	    6.94
     92.3095	   11.00	   10.83	 -582.08	    6.94
     92.3429	    9.00	   10.92	 -584.17	    6.94
     92.3763	    6.00	   11.00	 -587.25	    6.94
     92.4097	   11.00	   11.10	 -582.35	    6.94
     92.4431	   10.00	   11.20	 -583.45	    6.94
     92.4766	   17.00	   11.31	 -576.56	    6.94
     92.5100	    8.00	   11.43	 -585.68	    6.94
     92.5434	   10.00	   11.55	 -583.80	    6.94
     92.5768	    7.00	   11.69	 -586.94	    6.94
     92.6103	    4.00	   11.83	 -590.08	    6.94
     92.6437	   13.00	   11.98	 -581.23	    6.94
     92.6771	   10.00	   12.14	 -584.39	    6.95
     92.7105	    5.00	   12.30	 -589.55	    6.95
     92.7439	    9.00	   12.47	 -585.72	    6.95
     92.7774	    9.00	   12.64	 -585.89	    6.95
     92.8108	   10.00	   12.81	 -585.06	    6.95
     92.8442	   11.00	   12.97	 -584.22	    6.95
     92.8776	    6.00	   13.13	 -589.38	    6.95
     92.9111	    9.00	   13.28	 -586.53	    6.95
     92.9445	   17.00	   13.42	 -578.67	    6.95
     92.9779	    8.00	   13.54	 -587.79	    6.95
     93.0113	    9.00	   13.65	 -586.90	    6.95
     93.0448	   14.00	   13.73	 -581.98	    6.95
     93.0782	   13.00	   13.80	 -583.05	    6.95
     93.1116	    7.00	   13.84	 -589.09	    6.95
     93.1450	    8.00	   13.87	 -588.12	    6.95
     93.1784	   11.00	   13.89	 -585.14	    6.95
     93.2119	   10.00	   13.89	 -586.14	    6.95
     93.2453	   16.00	   13.88	 -580.13	    6.95
     93.2787	   13.00	   13.86	 -583.11	    6.95
     93.3121	    5.00	   13.83	 -591.08	    6.95
     93.3456	   14.00	   13.80	 -582.05	    6.95
     93.3790	   15.00	   13.77	 -581.02	    6.95
     93.4124	   15.00	   13.74	 -580.99	    6.95
     93.4458	    6.00	   13.71	 -589.96	    6.95
     93.4792	   11.00	   13.68	 -584.93	    6.95
     93.5127	   10.00	   13.67	 -585.92	    6.95
     93.5461	   13.00	   13.66	 -582.91	    6.95
     93.5795	    6.00	   13.66	 -589.91	    6.95
     93.6129	    7.00	   13.68	 -588.93	    6.95
     93.6464	    9.00	   13.71	 -586.96	    6.95
     93.6798	   10.00	   13.75	 -586.00	    6.95
     93.7132	    9.00	   13.82	 -587.07	    6.95
     93.7466	   14.00	   13.90	 -582.15	    6.95
     93.7801	    6.00	   13.99	 -590.24	    6.95
     93.8135	   16.00	   14.11	 -580.36	    6.95
     93.8469	    9.00	   14.25	 -587.50	    6.95
     93.8803	    7.00	   14.41	 -589.66	    6.95
     93.9137	   10.00	   14.59	 -586.84	    6.95
     93.9472	   15.00	   14.79	 -582.04	    6.95
     93.9806	    5.00	   15.02	 -592.27	    6.95
     94.0140	   14.00	   15.27	 -583.52	    6.95
     94.0474	   10.00	   15.56	 -587.81	    6.95
     94.0808	   16.00	   15.87	 -582.12	    6.95
     94.1143	   14.00	   16.21	 -584.46	    6.95
     94.1477	   10.00	   16.58	 -588.83	    6.95
     94.1811	    9.00	   16.99	 -590.24	    6.95
     94.2145	   10.00	   17.43	 -589.68	    6.95
     94.2480	    8.00	   17.91	 -592.16	    6.95
     94.2814	   19.00	   18.42	 -581.67	    6.95
     94.3148	   13.00	   18.97	 -588.22	    6.95
     94.3482	   14.00	   19.56	 -587.81	    6.95
     94.3817	    6.00	   20.19	 -596.43	    6.95
     94.4151	   10.00	   20.84	 -593.09	    6.95
     94.4485	    6.00	   21.52	 -597.77	    6.95
     94.4819	    9.00	   22.22	 -595.47	    6.95
     94.5153	   15.00	   22.93	 -590.18	    6.95
     94.5488	   19.00	   23.64	 -586.89	    6.95
     94.5822	   24.00	   24.35	 -582.60	    6.95
     94.6156	   16.00	   25.03	 -591.28	    6.95
     94.6490	   19.00	   25.69	 -588.94	    6.95
     94.6825	   24.00	   26.30	 -584.55	    6.95
     94.7159	   20.00	   26.86	 -589.11	    6.95
     94.7493	   15.00	   27.37	 -594.62	    6.95
     94.7827	   11.00	   27.80	 -599.05	    6.95
     94.8161	   24.00	   28.17	 -586.42	    6.95
     94.8496	   23.00	   28.45	 -587.70	    6.95
     94.8830	   26.00	   28.65	 -584.90	    6.95
     94.9164	   24.00	   28.76	 -587.01	    6.95
     94.9498	   31.00	   28.78	 -580.03	    6.95
     94.9833	   21.00	   28.71	 -589.96	    6.95
     95.0167	   24.00	   28.55	 -586.80	    6.95
     95.0501	   20.00	   28.30	 -590.55	    6.95
     95.0835	   17.00	   27.98	 -593.23	    6.95
     95.1170	   21.00	   27.60	 -588.85	    6.95
     95.1504	   15.00	   27.15	 -594.40	    6.95
     95.1838	   18.00	   26.67	 -590.92	    6.94
     95.2172	   20.00	   26.15	 -588.40	    6.94
     95.2506	   27.00	   25.60	 -580.85	    6.94
     95.2841	   23.00	   25.04	 -584.29	    6.94
     95.3175	   15.00	   24.48	 -591.73	    6.94
     95.3509	   22.00	   23.91	 -584.16	    6.94
     95.3843	   17.00	   23.36	 -588.61	    6.94
     95.4178	   15.00	   22.82	 -590.07	    6.94
     95.4512	   23.00	   22.31	 -581.56	    6.94
     95.4846	    9.00	   21.82	 -595.07	    6.94
     95.5180	   14.00	   21.37	 -589.62	    6.94
     95.5514	   14.00	   20.96	 -589.21	    6.94
     95.5849	   13.00	   20.58	 -589.83	    6.94
     95.6183	   13.00	   20.25	 -589.50	    6.94
     95.6517	   15.00	   19.97	 -587.22	    6.94
     95.6851	   16.00	   19.72	 -585.97	    6.94
     95.7186	   13.00	   19.52	 -588.77	    6.94
     95.7520	   18.00	   19.36	 -583.61	    6.94
     95.7854	   17.00	   19.24	 -584.49	    6.94
     95.8188	   17.00	   19.14	 -584.39	    6.94
     95.8522	   28.00	   19.08	 -573.33	    6.94
     95.8857	    6.00	   19.04	 -595.29	    6.94
     95.9191	   13.00	   19.02	 -588.27	    6.94
     95.9525	    9.00	   19.00	 -592.25	    6.94
     95.9859	   14.00	   18.99	 -587.24	    6.94
     96.0194	   14.00	   18.97	 -587.22	    6.94
     96.0528	   15.00	   18.94	 -586.19	    6.94
     96.0862	   16.00	   18.89	 -585.14	    6.94
     96.1196	   18.00	   18.82	 -583.07	    6.93
     96.1531	   18.00	   18.73	 -582.98	    6.93
     96.1865	   17.00	   18.61	 -583.86	    6.93
     96.2199	   19.00	   18.46	 -581.71	    6.93
     96.2533	   11.00	   18.29	 -589.54	    6.93
     96.2867	    6.00	   18.10	 -594.35	    6.93
     96.3202	   13.00	   17.88	 -587.13	    6.93
     96.3536	    6.00	   17.65	 -593.90	    6.93
     96.3870	   13.00	   17.40	 -586.65	    6.93
     96.4204	   11.00	   17.14	 -588.39	    6.93
     96.4538	   10.00	   16.87	 -589.12	    6.93
     96.4873	   15.00	   16.59	 -583.84	    6.93
     96.5207	    9.00	   16.31	 -589.56	    6.93
     96.5541	   15.00	   16.02	 -583.27	    6.93
     96.5875	   17.00	   15.74	 -580.99	    6.93
     96.6210	   14.00	   15.46	 -583.71	    6.93
     96.6544	    8.00	   15.19	 -589.44	    6.93
     96.6878	   11.00	   14.93	 -586.18	    6.93
     96.7212	    9.00	   14.68	 -587.93	    6.93
     96.7547	    8.00	   14.44	 -588.69	    6.92
     96.7881	   13.00	   14.22	 -583.47	    6.92
     96.8215	    7.00	   14.02	 -589.27	    6.92
     96.8549	   13.00	   13.82	 -583.07	    6.92
     96.8883	   22.00	   13.65	 -573.90	    6.92
     96.9218	   15.00	   13.48	 -580.73	    6.92
     96.9552	   11.00	   13.34	 -584.59	    6.92
     96.9886	   10.00	   13.21	 -585.46	    6.92
     97.0220	    6.00	   13.09	 -589.34	    6.92
     97.0555	    9.00	   12.98	 -586.23	    6.92
     97.0889	   11.00	   12.89	 -584.14	    6.92
     97.1223	    9.00	   12.81	 -586.06	    6.92
     97.1557	    6.00	   12.74	 -588.99	    6.92
     97.1891	    7.00	   12.68	 -587.93	    6.92
     97.2226	   11.00	   12.64	 -583.89	    6.92
     97.2560	   14.00	   12.60	 -580.85	    6.92
     97.2894	    6.00	   12.57	 -588.82	    6.91
     97.3228	    8.00	   12.55	 -586.80	    6.91
     97.3563	   18.00	   12.54	 -576.79	    6.91
     97.3897	   11.00	   12.53	 -583.78	    6.91
     97.4231	    7.00	   12.53	 -587.78	    6.91
     97.4565	    7.00	   12.54	 -587.79	    6.91
     97.4900	    7.00	   12.55	 -587.80	    6.91
     97.5234	   13.00	   12.56	 -581.81	    6.91
     97.5568	   11.00	   12.57	 -583.82	    6.91
     97.5902	    6.00	   12.58	 -588.83	    6.91
     97.6236	   15.00	   12.59	 -579.84	    6.91
     97.6571	   10.00	   12.59	 -584.84	    6.91
     97.6905	   14.00	   12.60	 -580.85	    6.91
     97.7239	    6.00	   12.60	 -588.85	    6.91
     97.7573	   13.00	   12.60	 -581.85	    6.90
     97.7908	    9.00	   12.60	 -585.85	    6.90
     97.8242	   10.00	   12.59	 -584.84	    6.90
     97.8576	   13.00	   12.58	 -581.83	    6.90
     97.8910	    8.00	   12.58	 -586.83	    6.90
     97.9244	    8.00	   12.57	 -586.82	    6.90
     97.9579	   16.00	   12.57	 -578.82	    6.90
     97.9913	   13.00	   12.56	 -581.81	    6.90
     98.0247	    7.00	   12.56	 -587.81	    6.90
     98.0581	   10.00	   12.56	 -584.81	    6.90
     98.0916	    9.00	   12.57	 -585.82	    6.90
     98.1250	   14.00	   12.58	 -580.83	    6.90
     98.1584	   11.00	   12.60	 -583.85	    6.89
     98.1918	    8.00	   12.63	 -586.88	    6.89
     98.2253	   11.00	   12.67	 -583.92	    6.89
     98.2587	    6.00	   12.71	 -588.96	    6.89
     98.2921	    6.00	   12.77	 -589.02	    6.89
     98.3255	   11.00	   12.84	 -584.09	    6.89
     98.3589	   10.00	   12.92	 -585.17	    6.89
     98.3924	   14.00	   13.02	 -581.27	    6.89
     98.4258	   15.00	   13.12	 -580.37	    6.89
     98.4592	   15.00	   13.25	 -580.50	    6.89
     98.4926	    7.00	   13.39	 -588.64	    6.89
     98.5260	    8.00	   13.54	 -587.79	    6.88
     98.5595	   13.00	   13.71	 -582.96	    6.88
     98.5929	    7.00	   13.90	 -589.15	    6.88
     98.6263	   15.00	   14.11	 -581.36	    6.88
     98.6597	   15.00	   14.33	 -581.58	    6.88
     98.6932	   15.00	   14.57	 -581.82	    6.88
     98.7266	   20.00	   14.82	 -577.07	    6.88
     98.7600	    7.00	   15.08	 -590.33	    6.88
     98.7934	    8.00	   15.36	 -589.61	    6.88
     98.8269	   19.00	   15.65	 -578.90	    6.88
     98.8603	    8.00	   15.94	 -590.19	    6.87
     98.8937	   18.00	   16.22	 -580.47	    6.87
     98.9271	    9.00	   16.51	 -589.76	    6.87
     98.9605	   11.00	   16.77	 -588.02	    6.87
     98.9940	   11.00	   17.02	 -588.27	    6.87
     99.0274	   18.00	   17.24	 -581.49	    6.87
     99.0608	   21.00	   17.43	 -578.68	    6.87
     99.0942	   17.00	   17.58	 -582.83	    6.87
     99.1277	   21.00	   17.69	 -578.94	    6.87
     99.1611	   22.00	   17.75	 -578.00	    6.86
     99.1945	   16.00	   17.77	 -584.02	    6.86
     99.2279	   18.00	   17.75	 -582.00	    6.86
     99.2613	   19.00	   17.69	 -580.94	    6.86
     99.2948	   15.00	   17.59	 -584.84	    6.86
     99.3282	   20.00	   17.45	 -579.70	    6.86
     99.3616	   13.00	   17.29	 -586.54	    6.86
     99.3950	   11.00	   17.09	 -588.34	    6.86
     99.4285	   13.00	   16.87	 -586.12	    6.86
     99.4619	    7.00	   16.63	 -591.88	    6.85
     99.4953	   17.00	   16.37	 -581.62	    6.85
     99.5287	   11.00	   16.10	 -587.35	    6.85
     99.5621	    7.00	   15.82	 -591.07	    6.85
     99.5956	   10.00	   15.53	 -587.78	    6.85
     99.6290	   13.00	   15.23	 -584.48	    6.85
     99.6624	   11.00	   14.94	 -586.19	    6.85
     99.6958	   11.00	   14.66	 -585.91	    6.85
     99.7293	   11.00	   14.38	 -585.63	    6.85
     99.7627	    7.00	   14.10	 -589.35	    6.84
     99.7961	    4.00	   13.84	 -592.09	    6.84
     99.8295	    9.00	   13.59	 -586.84	    6.84
     99.8630	   11.00	   13.36	 -584.61	    6.84
     99.8964	   11.00	   13.14	 -584.39	    6.84
     99.9298	    7.00	   12.93	 -588.18	    6.84
     99.9632	   19.00	   12.73	 -575.98	    6.84
     99.9966	    8.00	   12.55	 -586.80	    6.84
    100.0301	    9.00	   12.38	 -585.63	    6.83
    100.0635	   13.00	   12.22	 -581.47	    6.83
    100.0969	    8.00	   12.07	 -586.32	    6.83
    100.1303	   14.00	   11.94	 -580.19	    6.83
    100.1638	   10.00	   11.81	 -584.06	    6.83
    100.1972	    8.00	   11.68	 -585.93	    6.83
    100.2306	   11.00	   11.57	 -582.82	    6.83
    100.2640	    9.00	   11.47	 -584.72	    6.83
    100.2974	   11.00	   11.38	 -582.63	    6.82
    100.3309	   14.00	   11.29	 -579.54	    6.82
    100.3643	    8.00	   11.22	 -585.47	    6.82
    100.3977	   14.00	   11.14	 -579.39	    6.82
    100.4311	    5.00	   11.07	 -588.32	    6.82
    100.4646	    9.00	   11.01	 -584.26	    6.82
    100.4980	   13.00	   10.95	 -580.20	    6.82
    100.5314	   13.00	   10.90	 -580.15	    6.82
    100.5648	   15.00	   10.85	 -578.10	    6.81
    100.5982	    7.00	   10.80	 -586.05	    6.81
    100.6317	    5.00	   10.76	 -588.01	    6.81
    100.6651	   14.00	   10.73	 -578.98	    6.81
    100.6985	   10.00	   10.69	 -582.94	    6.81
    100.7319	   11.00	   10.66	 -581.91	    6.81
    100.7654	    9.00	   10.64	 -583.89	    6.81
    100.7988	   10.00	   10.61	 -582.86	    6.80
    100.8322	   11.00	   10.59	 -581.84	    6.80
    100.8656	    8.00	   10.57	 -584.82	    6.80
    100.8990	    7.00	   10.56	 -585.81	    6.80
    100.9325	   11.00	   10.54	 -581.79	    6.80
    100.9659	   10.00	   10.53	 -582.78	    6.80
    100.9993	    6.00	   10.52	 -586.77	    6.80
    101.0327	   10.00	   10.52	 -582.77	    6.79
    101.0662	    9.00	   10.52	 -583.77	    6.79
    101.0996	    3.00	   10.51	 -589.76	    6.79
    101.1330	    8.00	   10.52	 -584.77	    6.79
    101.1664	    6.00	   10.52	 -586.77	    6.79
    101.1999	    9.00	   10.53	 -583.78	    6.79
    101.2333	    8.00	   10.54	 -584.79	    6.79
    101.2667	    1.00	   10.55	 -591.80	    6.78
    101.3001	    7.00	   10.56	 -585.81	    6.78
    101.3335	    8.00	   10.58	 -584.83	    6.78
    101.3670	    4.00	   10.60	 -588.85	    6.78
    101.4004	   13.00	   10.62	 -579.87	    6.78
    101.4338	   19.00	   10.65	 -573.90	    6.78
    101.4672	   10.00	   10.68	 -582.93	    6.77
    101.5007	    6.00	   10.71	 -586.96	    6.77
    101.5341	   14.00	   10.74	 -578.99	    6.77
    101.5675	    8.00	   10.78	 -585.03	    6.77
    101.6009	    8.00	   10.82	 -585.07	    6.77
    101.6343	   11.00	   10.87	 -582.12	    6.77
    101.6678	   10.00	   10.92	 -583.17	    6.77
    101.7012	    7.00	   10.98	 -586.23	    6.76
    101.7346	   13.00	   11.04	 -580.29	    6.76
    101.7680	   13.00	   11.10	 -580.35	    6.76
    101.8015	    8.00	   11.17	 -585.42	    6.76
    101.8349	   11.00	   11.24	 -582.49	    6.76
    101.8683	    4.00	   11.31	 -589.56	    6.76
    101.9017	    9.00	   11.40	 -584.65	    6.75
    101.9352	   10.00	   11.48	 -583.73	    6.75
    101.9686	    8.00	   11.57	 -585.82	    6.75
    102.0020	   10.00	   11.66	 -583.91	    6.75
    102.0354	    8.00	   11.76	 -586.01	    6.75
    102.0688	    5.00	   11.86	 -589.11	    6.75
    102.1023	   11.00	   11.96	 -583.21	    6.74
    102.1357	   10.00	   12.07	 -584.32	    6.74
    102.1691	    8.00	   12.17	 -586.42	    6.74
    102.2025	   11.00	   12.28	 -583.53	    6.74
    102.2360	   10.00	   12.39	 -584.64	    6.74
    102.2694	    9.00	   12.51	 -585.76	    6.74
    102.3028	    9.00	   12.62	 -585.87	    6.73
    102.3362	    7.00	   12.74	 -587.99	    6.73
    102.3696	    7.00	   12.87	 -588.12	    6.73
    102.4031	    9.00	   13.00	 -586.25	    6.73
    102.4365	    6.00	   13.13	 -589.38	    6.73
    102.4699	   15.00	   13.27	 -580.52	    6.73
    102.5033	    6.00	   13.41	 -589.66	    6.72
    102.5368	    8.00	   13.56	 -587.81	    6.72
    102.5702	   10.00	   13.71	 -585.96	    6.72
    102.6036	    9.00	   13.87	 -587.12	    6.72
    102.6370	   10.00	   14.03	 -586.28	    6.72
    102.6704	    7.00	   14.19	 -589.44	    6.72
    102.7039	   10.00	   14.35	 -586.60	    6.71
    102.7373	   10.00	   14.50	 -586.75	    6.71
    102.7707	   11.00	   14.66	 -585.91	    6.71
    102.8041	   16.00	   14.80	 -581.05	    6.71
    102.8376	   16.00	   14.94	 -581.19	    6.71
    102.8710	   13.00	   15.07	 -584.32	    6.71
    102.9044	    9.00	   15.18	 -588.43	    6.70
    102.9378	    7.00	   15.28	 -590.53	    6.70
    102.9712	   15.00	   15.37	 -582.62	    6.70
    103.0047	   10.00	   15.44	 -587.69	    6.70
    103.0381	    9.00	   15.50	 -588.75	    6.70
    103.0715	    7.00	   15.55	 -590.80	    6.69
    103.1049	   10.00	   15.58	 -587.83	    6.69
    103.1384	    9.00	   15.61	 -588.86	    6.69
    103.1718	   10.00	   15.63	 -587.88	    6.69
    103.2052	   16.00	   15.63	 -581.88	    6.69
    103.2386	   13.00	   15.64	 -584.89	    6.69
    103.2720	    9.00	   15.63	 -588.88	    6.68
    103.3055	    7.00	   15.62	 -590.87	    6.68
    103.3389	    7.00	   15.61	 -590.86	    6.68
    103.3723	   17.00	   15.60	 -580.85	    6.68
    103.4057	   11.00	   15.58	 -586.83	    6.68
    103.4392	    9.00	   15.57	 -588.82	    6.67
    103.4726	   14.00	   15.55	 -583.80	    6.67
    103.5060	    7.00	   15.54	 -590.79	    6.67
    103.5394	   15.00	   15.53	 -582.78	    6.67
    103.5729	    8.00	   15.52	 -589.77	    6.67
    103.6063	   17.00	   15.52	 -580.77	    6.67
    103.6397	   11.00	   15.53	 -586.78	    6.66
    103.6731	    6.00	   15.54	 -591.79	    6.66
    103.7065	    8.00	   15.56	 -589.81	    6.66
    103.7400	    6.00	   15.58	 -591.83	    6.66
    103.7734	   11.00	   15.61	 -586.86	    6.66
    103.8068	   10.00	   15.64	 -587.89	    6.65
    103.8402	    8.00	   15.68	 -589.93	    6.65
    103.8737	    6.00	   15.71	 -591.96	    6.65
    103.9071	   13.00	   15.74	 -584.99	    6.65
    103.9405	    7.00	   15.77	 -591.02	    6.65
    103.9739	    7.00	   15.79	 -591.04	    6.64
    104.0073	   10.00	   15.80	 -588.05	    6.64
    104.0408	   15.00	   15.80	 -583.05	    6.64
    104.0742	   10.00	   15.79	 -588.04	    6.64
    104.1076	   20.00	   15.76	 -578.01	    6.64
    104.1410	    8.00	   15.72	 -589.97	    6.63
    104.1745	    8.00	   15.67	 -589.92	    6.63
    104.2079	   14.00	   15.60	 -583.85	    6.63
    104.2413	   16.00	   15.52	 -581.77	    6.63
    104.2747	    7.00	   15.43	 -590.68	    6.63
    104.3082	   13.00	   15.33	 -584.58	    6.62
    104.3416	    9.00	   15.22	 -588.47	    6.62
    104.3750	   14.00	   15.11	 -583.36	    6.62
    104.4084	   11.00	   14.99	 -586.24	    6.62
    104.4418	    7.00	   14.86	 -590.11	    6.62
    104.4753	    9.00	   14.73	 -587.98	    6.61
    104.5087	   10.00	   14.60	 -586.85	    6.61
    104.5421	   13.00	   14.47	 -583.72	    6.61
    104.5755	    8.00	   14.34	 -588.59	    6.61
    104.6089	   13.00	   14.22	 -583.47	    6.61
    104.6424	   11.00	   14.10	 -585.35	    6.60
    104.6758	    8.00	   13.98	 -588.23	    6.60
    104.7092	   11.00	   13.87	 -585.12	    6.60
    104.7426	    9.00	   13.77	 -587.02	    6.60
    104.7761	    8.00	   13.68	 -587.93	    6.60
    104.8095	   16.00	   13.60	 -579.85	    6.59
    104.8429	    8.00	   13.54	 -587.79	    6.59
    104.8763	   11.00	   13.48	 -584.73	    6.59
    104.9098	    6.00	   13.43	 -589.68	    6.59
    104.9432	    5.00	   13.40	 -590.65	    6.58
    104.9766	   10.00	   13.38	 -585.63	    6.58
    105.0100	   16.00	   13.38	 -579.63	    6.58
    105.0434	    6.00	   13.39	 -589.64	    6.58
    105.0769	    9.00	   13.41	 -586.66	    6.58
    105.1103	    9.00	   13.44	 -586.69	    6.57
    105.1437	    9.00	   13.49	 -586.74	    6.57
    105.1771	    9.00	   13.56	 -586.81	    6.57
    105.2106	    4.00	   13.64	 -591.89	    6.57
    105.2440	    9.00	   13.73	 -586.98	    6.57
    105.2774	   13.00	   13.84	 -583.09	    6.56
    105.3108	   11.00	   13.96	 -585.21	    6.56
    105.3442	    6.00	   14.10	 -590.35	    6.56
    105.3777	    8.00	   14.25	 -588.50	    6.56
    105.4111	    8.00	   14.42	 -588.67	    6.55
    105.4445	    7.00	   14.60	 -589.85	    6.55
    105.4779	   10.00	   14.79	 -587.04	    6.55
    105.5114	   11.00	   15.00	 -586.25	    6.55
    105.5448	    7.00	   15.22	 -590.47	    6.55
    105.5782	    9.00	   15.45	 -588.70	    6.54
    105.6116	    9.00	   15.69	 -588.94	    6.54
    105.6451	   16.00	   15.93	 -582.18	    6.54
    105.6785	    9.00	   16.18	 -589.43	    6.54
    105.7119	    8.00	   16.43	 -590.68	    6.53
    105.7453	   10.00	   16.68	 -588.93	    6.53
    105.7787	   11.00	   16.92	 -588.17	    6.53
    105.8122	   14.00	   17.16	 -585.41	    6.53
    105.8456	   14.00	   17.39	 -585.64	    6.53
    105.8790	    8.00	   17.60	 -591.85	    6.52
    105.9124	    9.00	   17.79	 -591.04	    6.52
    105.9459	   16.00	   17.97	 -584.22	    6.52
    105.9793	    9.00	   18.12	 -591.37	    6.52
    106.0127	    7.00	   18.24	 -593.49	    6.51
    106.0461	   10.00	   18.34	 -590.59	    6.51
    106.0795	   16.00	   18.40	 -584.65	    6.51
    106.1130	   10.00	   18.44	 -590.69	    6.51
    106.1464	   15.00	   18.44	 -585.69	    6.51
    106.1798	   17.00	   18.41	 -583.66	    6.50
    106.2132	   11.00	   18.35	 -589.60	    6.50
    106.2467	    9.00	   18.26	 -591.51	    6.50
    106.2801	    9.00	   18.14	 -591.39	    6.50
    106.3135	    9.00	   18.00	 -591.25	    6.49
    106.3469	    5.00	   17.84	 -595.09	    6.49
    106.3803	   16.00	   17.66	 -583.91	    6.49
    106.4138	    7.00	   17.47	 -592.72	    6.49
    106.4472	    8.00	   17.26	 -591.51	    6.48
    106.4806	   14.00	   17.04	 -585.29	    6.48
    106.5140	    7.00	   16.81	 -592.06	    6.48
    106.5475	   13.00	   16.58	 -585.83	    6.48
    106.5809	    3.00	   16.35	 -595.60	    6.47
    106.6143	   10.00	   16.11	 -588.36	    6.47
    106.6477	    9.00	   15.88	 -589.13	    6.47
    106.6812	   10.00	   15.65	 -587.90	    6.47
    106.7146	    7.00	   15.42	 -590.67	    6.47
    106.7480	    9.00	   15.20	 -588.45	    6.46
    106.7814	    9.00	   15.00	 -588.25	    6.46
    106.8148	    6.00	   14.80	 -591.05	    6.46
    106.8483	    6.00	   14.61	 -590.86	    6.46
    106.8817	   16.00	   14.44	 -580.69	    6.45
    106.9151	   10.00	   14.27	 -586.52	    6.45
    106.9485	    9.00	   14.12	 -587.37	    6.45
    106.9819	    9.00	   13.98	 -587.23	    6.45
    107.0154	    8.00	   13.86	 -588.11	    6.44
    107.0488	    8.00	   13.74	 -587.99	    6.44
    107.0822	   13.00	   13.63	 -582.88	    6.44
    107.1156	   13.00	   13.53	 -582.78	    6.44
    107.1491	   14.00	   13.44	 -581.69	    6.43
    107.1825	    9.00	   13.35	 -586.60	    6.43
    107.2159	   14.00	   13.27	 -581.52	    6.43
    107.2493	   14.00	   13.20	 -581.45	    6.43
    107.2828	   15.00	   13.12	 -580.37	    6.42
    107.3162	    7.00	   13.05	 -588.30	    6.42
    107.3496	   14.00	   12.99	 -581.24	    6.42
    107.3830	    9.00	   12.92	 -586.17	    6.42
    107.4164	    4.00	   12.86	 -591.11	    6.41
    107.4499	   11.00	   12.80	 -584.05	    6.41
    107.4833	    8.00	   12.74	 -586.99	    6.41
    107.5167	   14.00	   12.68	 -580.93	    6.41
    107.5501	    7.00	   12.62	 -587.87	    6.40
    107.5836	    5.00	   12.57	 -589.82	    6.40
    107.6170	    6.00	   12.52	 -588.77	    6.40
    107.6504	    8.00	   12.47	 -586.72	    6.40
    107.6838	    9.00	   12.42	 -585.67	    6.39
    107.7172	    8.00	   12.37	 -586.62	    6.39
    107.7507	   11.00	   12.33	 -583.58	    6.39
    107.7841	    5.00	   12.29	 -589.54	    6.39
    107.8175	   10.00	   12.25	 -584.50	    6.38
    107.8509	    3.00	   12.21	 -591.46	    6.38
    107.8844	    7.00	   12.17	 -587.42	    6.38
    107.9178	    9.00	   12.14	 -585.39	    6.38
    107.9512	   15.00	   12.10	 -579.35	    6.37
    107.9846	    6.00	   12.07	 -588.32	    6.37
    108.0181	   11.00	   12.04	 -583.29	    6.37
    108.0515	    9.00	   12.01	 -585.26	    6.37
    108.0849	    9.00	   11.99	 -585.24	    6.36
    108.1183	   15.00	   11.96	 -579.21	    6.36
    108.1517	   11.00	   11.94	 -583.19	    6.36
    108.1852	    9.00	   11.92	 -585.17	    6.36
    108.2186	    6.00	   11.90	 -588.15	    6.35
    108.2520	    6.00	   11.89	 -588.14	    6.35
    108.2854	    5.00	   11.88	 -589.13	    6.35
    108.3189	    8.00	   11.87	 -586.12	    6.35
    108.3523	    3.00	   11.86	 -591.11	    6.34
    108.3857	    6.00	   11.86	 -588.11	    6.34
    108.4191	    5.00	   11.87	 -589.12	    6.34
    108.4525	    6.00	   11.88	 -588.13	    6.34
    108.4860	    5.00	   11.89	 -589.14	    6.33
    108.5194	    8.00	   11.91	 -586.16	    6.33
    108.5528	    4.00	   11.94	 -590.19	    6.33
    108.5862	   10.00	   11.97	 -584.22	    6.33
    108.6197	    8.00	   12.01	 -586.26	    6.32
    108.6531	    8.00	   12.06	 -586.31	    6.32
    108.6865	   11.00	   12.11	 -583.36	    6.32
    108.7199	    4.00	   12.17	 -590.42	    6.32
    108.7533	    9.00	   12.24	 -585.49	    6.31
    108.7868	   13.00	   12.32	 -581.57	    6.31
    108.8202	    5.00	   12.41	 -589.66	    6.31
    108.8536	    6.00	   12.51	 -588.76	    6.30
    108.8870	    9.00	   12.62	 -585.87	    6.30
    108.9205	    8.00	   12.74	 -586.99	    6.30
    108.9539	   13.00	   12.87	 -582.12	    6.30
    108.9873	    8.00	   13.01	 -587.26	    6.29
    109.0207	    8.00	   13.16	 -587.41	    6.29
    109.0541	    5.00	   13.32	 -590.57	    6.29
    109.0876	    4.00	   13.49	 -591.74	    6.29
    109.1210	   10.00	   13.66	 -585.91	    6.28
    109.1544	    6.00	   13.85	 -590.10	    6.28
    109.1878	    9.00	   14.04	 -587.29	    6.28
    109.2213	   14.00	   14.24	 -582.49	    6.28
    109.2547	    8.00	   14.43	 -588.68	    6.27
    109.2881	    6.00	   14.63	 -590.88	    6.27
    109.3215	   13.00	   14.83	 -584.08	    6.27
    109.3549	    8.00	   15.02	 -589.27	    6.27
    109.3884	    8.00	   15.20	 -589.45	    6.26
    109.4218	   11.00	   15.37	 -586.62	    6.26
    109.4552	    9.00	   15.53	 -588.78	    6.26
    109.4886	   10.00	   15.67	 -587.92	    6.25
    109.5221	    9.00	   15.79	 -589.04	    6.25
    109.5555	   19.00	   15.90	 -579.15	    6.25
    109.5889	    2.00	   15.98	 -596.23	    6.25
    109.6223	   14.00	   16.04	 -584.29	    6.24
    109.6558	    9.00	   16.08	 -589.33	    6.24
    109.6892	    7.00	   16.10	 -591.35	    6.24
    109.7226	   14.00	   16.10	 -584.35	    6.24
    109.7560	   14.00	   16.08	 -584.33	    6.23
    109.7894	   18.00	   16.05	 -580.30	    6.23
    109.8229	    7.00	   16.00	 -591.25	    6.23
    109.8563	   13.00	   15.94	 -585.19	    6.22
    109.8897	   14.00	   15.87	 -584.12	    6.22
    109.9231	   11.00	   15.78	 -587.03	    6.22
    109.9566	   15.00	   15.69	 -582.94	    6.22
    109.9900	   10.00	   15.59	 -587.84	    6.21
    110.0234	    8.00	   15.49	 -589.74	    6.21
    110.0568	    7.00	   15.38	 -590.63	    6.21
    110.0902	    5.00	   15.26	 -592.51	    6.21
    110.1237	   11.00	   15.15	 -586.40	    6.20
    110.1571	    9.00	   15.03	 -588.28	    6.20
    110.1905	    5.00	   14.91	 -592.16	    6.20
    110.2239	   13.00	   14.79	 -584.04	    6.19
    110.2574	   11.00	   14.66	 -585.91	    6.19
    110.2908	    9.00	   14.54	 -587.79	    6.19
    110.3242	   11.00	   14.42	 -585.67	    6.19
    110.3576	    7.00	   14.30	 -589.54	    6.18
    110.3911	   13.00	   14.17	 -583.42	    6.18
    110.4245	   10.00	   14.04	 -586.29	    6.18
    110.4579	   11.00	   13.92	 -585.17	    6.18
    110.4913	   14.00	   13.79	 -582.04	    6.17
    110.5247	    9.00	   13.65	 -586.90	    6.17
    110.5582	    9.00	   13.52	 -586.77	    6.17
    110.5916	    5.00	   13.39	 -590.64	    6.16
    110.6250	   10.00	   13.25	 -585.50	    6.16
    110.6584	    7.00	   13.11	 -588.36	    6.16
    110.6919	   10.00	   12.97	 -585.22	    6.16
    110.7253	   11.00	   12.83	 -584.08	    6.15
    110.7587	    6.00	   12.69	 -588.94	    6.15
    110.7921	   14.00	   12.55	 -580.80	    6.15
    110.8255	    6.00	   12.41	 -588.66	    6.14
    110.8590	    8.00	   12.27	 -586.52	    6.14
    110.8924	    6.00	   12.13	 -588.38	    6.14
    110.9258	   13.00	   11.99	 -581.24	    6.14
    110.9592	    5.00	   11.85	 -589.10	    6.13
    110.9927	    8.00	   11.71	 -585.96	    6.13
    111.0261	    6.00	   11.58	 -587.83	    6.13
    111.0595	    9.00	   11.45	 -584.70	    6.13
    111.0929	    5.00	   11.32	 -588.57	    6.12
    111.1263	   11.00	   11.19	 -582.44	    6.12
    111.1598	    9.00	   11.07	 -584.32	    6.12
    111.1932	    8.00	   10.95	 -585.20	    6.11
    111.2266	    5.00	   10.84	 -588.09	    6.11
    111.2600	    6.00	   10.73	 -586.98	    6.11
    111.2935	    7.00	   10.63	 -585.88	    6.11
    111.3269	    7.00	   10.53	 -585.78	    6.10
    111.3603	   11.00	   10.43	 -581.68	    6.10
    111.3937	    2.00	   10.34	 -590.59	    6.10
    111.4271	   10.00	   10.25	 -582.50	    6.09
    111.4606	   10.00	   10.17	 -582.42	    6.09
    111.4940	    8.00	   10.09	 -584.34	    6.09
    111.5274	    9.00	   10.01	 -583.26	    6.09
    111.5608	    7.00	    9.94	 -585.19	    6.08
    111.5943	   10.00	    9.87	 -582.12	    6.08
    111.6277	    9.00	    9.81	 -583.06	    6.08
    111.6611	    3.00	    9.75	 -589.00	    6.07
    111.6945	    9.00	    9.69	 -582.94	    6.07
    111.7280	    6.00	    9.64	 -585.89	    6.07
    111.7614	    4.00	    9.58	 -587.83	    6.07
    111.7948	    7.00	    9.53	 -584.78	    6.06
    111.8282	    8.00	    9.49	 -583.74	    6.06
    111.8616	    4.00	    9.44	 -587.69	    6.06
    111.8951	    8.00	    9.40	 -583.65	    6.05
    111.9285	    7.00	    9.36	 -584.61	    6.05
    111.9619	    7.00	    9.32	 -584.57	    6.05
    111.9953	    8.00	    9.28	 -583.53	    6.05
    112.0288	   11.00	    9.25	 -580.50	    6.04
    112.0622	    6.00	    9.21	 -585.46	    6.04
    112.0956	   10.00	    9.18	 -581.43	    6.04
    112.1290	    5.00	    9.15	 -586.40	    6.03
    112.1624	    6.00	    9.12	 -585.37	    6.03
    112.1959	    6.00	    9.10	 -585.35	    6.03
    112.2293	   13.00	    9.07	 -578.32	    6.03
    112.2627	    6.00	    9.04	 -585.29	    6.02
    112.2961	   21.00	    9.02	 -570.27	    6.02
    112.3296	    8.00	    9.00	 -583.25	    6.02
    112.3630	    5.00	    8.97	 -586.22	    6.01
    112.3964	   10.00	    8.95	 -581.20	    6.01
    112.4298	    3.00	    8.93	 -588.18	    6.01
    112.4632	    8.00	    8.92	 -583.17	    6.01
    112.4967	    7.00	    8.90	 -584.15	    6.00
    112.5301	    4.00	    8.88	 -587.13	    6.00
    112.5635	    6.00	    8.87	 -585.12	    6.00
    112.5969	    8.00	    8.85	 -583.10	    5.99
    112.6304	    8.00	    8.84	 -583.09	    5.99
    112.6638	    5.00	    8.82	 -586.07	    5.99
    112.6972	   10.00	    8.81	 -581.06	    5.99
    112.7306	   13.00	    8.80	 -578.05	    5.98
    112.7641	    5.00	    8.79	 -586.04	    5.98
    112.7975	    4.00	    8.78	 -587.03	    5.98
    112.8309	    9.00	    8.77	 -582.02	    5.97
    112.8643	    9.00	    8.76	 -582.01	    5.97
    112.8977	    8.00	    8.75	 -583.00	    5.97
    112.9312	    9.00	    8.75	 -582.00	    5.97
    112.9646	    9.00	    8.74	 -581.99	    5.96
    112.9980	   11.00	    8.74	 -579.99	    5.96
    113.0314	    5.00	    8.73	 -585.98	    5.96
    113.0648	    5.00	    8.73	 -585.98	    5.95
    113.0983	    7.00	    8.72	 -583.97	    5.95
    113.1317	    5.00	    8.72	 -585.97	    5.95
    113.1651	    7.00	    8.72	 -583.97	    5.95
    113.1985	   14.00	    8.72	 -576.97	    5.94
    113.2320	    8.00	    8.72	 -582.97	    5.94
    113.2654	    9.00	    8.72	 -581.97	    5.94
    113.2988	    2.00	    8.73	 -588.98	    5.93
    113.3322	    4.00	    8.73	 -586.98	    5.93
    113.3657	    9.00	    8.73	 -581.98	    5.93
    113.3991	   13.00	    8.74	 -577.99	    5.92
    113.4325	    4.00	    8.75	 -587.00	    5.92
    113.4659	    8.00	    8.75	 -583.00	    5.92
    113.4993	    7.00	    8.76	 -584.01	    5.92
    113.5328	   13.00	    8.77	 -578.02	    5.91
    113.5662	    8.00	    8.78	 -583.03	    5.91
    113.5996	    7.00	    8.79	 -584.04	    5.91
    113.6330	   16.00	    8.80	 -575.05	    5.90
    113.6665	   14.00	    8.81	 -577.06	    5.90
    113.6999	    4.00	    8.82	 -587.07	    5.90
    113.7333	    7.00	    8.83	 -584.08	    5.90
    113.7667	    6.00	    8.85	 -585.10	    5.89
    113.8001	    9.00	    8.86	 -582.11	    5.89
    113.8336	    6.00	    8.87	 -585.12	    5.89
    113.8670	   14.00	    8.88	 -577.13	    5.88
    113.9004	    5.00	    8.89	 -586.14	    5.88
    113.9338	    8.00	    8.89	 -583.14	    5.88
    113.9673	    2.00	    8.90	 -589.15	    5.88
    114.0007	    5.00	    8.90	 -586.15	    5.87
    114.0341	   11.00	    8.91	 -580.16	    5.87
    114.0675	    9.00	    8.91	 -582.16	    5.87
    114.1010	    9.00	    8.91	 -582.16	    5.86
    114.1344	    9.00	    8.90	 -582.15	    5.86
    114.1678	    7.00	    8.90	 -584.15	    5.86
    114.2012	    7.00	    8.89	 -584.14	    5.86
    114.2346	    9.00	    8.89	 -582.14	    5.85
    114.2681	    4.00	    8.88	 -587.13	    5.85
    114.3015	   10.00	    8.87	 -581.12	    5.85
    114.3349	   11.00	    8.86	 -580.11	    5.84
    114.3683	   10.00	    8.84	 -581.09	    5.84
    114.4018	    6.00	    8.83	 -585.08	    5.84
    114.4352	   11.00	    8.82	 -580.07	    5.83
    114.4686	   10.00	    8.80	 -581.05	    5.83
    114.5020	    5.00	    8.78	 -586.03	    5.83
    114.5354	   15.00	    8.76	 -576.01	    5.83
    114.5689	    6.00	    8.75	 -585.00	    5.82
    114.6023	    9.00	    8.73	 -581.98	    5.82
    114.6357	    2.00	    8.71	 -588.96	    5.82
    114.6691	    7.00	    8.69	 -583.94	    5.81
    114.7026	    7.00	    8.68	 -583.93	    5.81
    114.7360	   13.00	    8.66	 -577.91	    5.81
    114.7694	    7.00	    8.64	 -583.89	    5.81
    114.8028	    8.00	    8.62	 -582.87	    5.80
    114.8363	    3.00	    8.61	 -587.86	    5.80
    114.8697	    8.00	    8.59	 -582.84	    5.80
    114.9031	    9.00	    8.57	 -581.82	    5.79
    114.9365	    7.00	    8.56	 -583.81	    5.79
    114.9699	    8.00	    8.54	 -582.79	    5.79
    115.0034	    9.00	    8.53	 -581.78	    5.79
    115.0368	    9.00	    8.52	 -581.77	    5.78
    115.0702	   13.00	    8.50	 -577.75	    5.78
    115.1036	    8.00	    8.49	 -582.74	    5.78
    115.1371	    9.00	    8.48	 -581.73	    5.77
    115.1705	    7.00	    8.47	 -583.72	    5.77
    115.2039	    7.00	    8.46	 -583.71	    5.77
    115.2373	    7.00	    8.45	 -583.70	    5.77
    115.2707	   11.00	    8.45	 -579.70	    5.76
    115.3042	    7.00	    8.44	 -583.69	    5.76
    115.3376	    4.00	    8.43	 -586.68	    5.76
    115.3710	    9.00	    8.42	 -581.67	    5.75
    115.4044	    5.00	    8.42	 -585.67	    5.75
    115.4379	    5.00	    8.41	 -585.66	    5.75
    115.4713	   13.00	    8.41	 -577.66	    5.74
    115.5047	   10.00	    8.40	 -580.65	    5.74
    115.5381	   15.00	    8.40	 -575.65	    5.74
    115.5715	    5.00	    8.40	 -585.65	    5.74
    115.6050	   10.00	    8.40	 -580.65	    5.73
    115.6384	    7.00	    8.39	 -583.64	    5.73
    115.6718	    8.00	    8.39	 -582.64	    5.73
    115.7052	    9.00	    8.39	 -581.64	    5.72
    115.7387	    7.00	    8.39	 -583.64	    5.72
    115.7721	    5.00	    8.39	 -585.64	    5.72
    115.8055	   13.00	    8.39	 -577.64	    5.72
    115.8389	    6.00	    8.40	 -584.65	    5.71
    115.8723	    6.00	    8.40	 -584.65	    5.71
    115.9058	    8.00	    8.40	 -582.65	    5.71
    115.9392	   16.00	    8.41	 -574.66	    5.70
    115.9726	    3.00	    8.41	 -587.66	    5.70
    116.0060	    3.00	    8.41	 -587.66	    5.70
    116.0395	    7.00	    8.42	 -583.67	    5.70
    116.0729	    7.00	    8.43	 -583.68	    5.69
    116.1063	    8.00	    8.43	 -582.68	    5.69
    116.1397	    2.00	    8.44	 -588.69	    5.69
    116.1731	   13.00	    8.45	 -577.70	    5.68
    116.2066	    6.00	    8.46	 -584.71	    5.68
    116.2400	    6.00	    8.47	 -584.72	    5.68
    116.2734	    6.00	    8.48	 -584.73	    5.68
    116.3068	    6.00	    8.49	 -584.74	    5.67
    116.3403	    3.00	    8.50	 -587.75	    5.67
    116.3737	    8.00	    8.52	 -582.77	    5.67
    116.4071	    5.00	    8.53	 -585.78	    5.66
    116.4405	    8.00	    8.55	 -582.80	    5.66
    116.4740	    7.00	    8.56	 -583.81	    5.66
    116.5074	    8.00	    8.58	 -582.83	    5.66
    116.5408	    7.00	    8.60	 -583.85	    5.65
    116.5742	   10.00	    8.62	 -580.87	    5.65
    116.6076	    4.00	    8.64	 -586.89	    5.65
    116.6411	    4.00	    8.66	 -586.91	    5.64
    116.6745	    7.00	    8.69	 -583.94	    5.64
    116.7079	    5.00	    8.71	 -585.96	    5.64
    116.7413	    8.00	    8.74	 -582.99	    5.64
    116.7748	   14.00	    8.77	 -577.02	    5.63
    116.8082	    7.00	    8.80	 -584.05	    5.63
    116.8416	    7.00	    8.83	 -584.08	    5.63
    116.8750	   13.00	    8.86	 -578.11	    5.62
    116.9084	    9.00	    8.90	 -582.15	    5.62
    116.9419	    6.00	    8.93	 -585.18	    5.62
    116.9753	    7.00	    8.97	 -584.22	    5.62
    117.0087	   14.00	    9.02	 -577.27	    5.61
    117.0421	    9.00	    9.06	 -582.31	    5.61
    117.0756	    6.00	    9.11	 -585.36	    5.61
    117.1090	   11.00	    9.16	 -580.41	    5.61
    117.1424	    6.00	    9.21	 -585.46	    5.60
    117.1758	   15.00	    9.26	 -576.51	    5.60
    117.2093	   11.00	    9.32	 -580.57	    5.60
    117.2427	   15.00	    9.38	 -576.63	    5.59
    117.2761	   11.00	    9.44	 -580.69	    5.59
    117.3095	   11.00	    9.51	 -580.76	    5.59
    117.3429	    8.00	    9.58	 -583.83	    5.59
    117.3764	   10.00	    9.65	 -581.90	    5.58
    117.4098	   11.00	    9.72	 -580.97	    5.58
    117.4432	   13.00	    9.80	 -579.05	    5.58
    117.4766	    7.00	    9.88	 -585.13	    5.57
    117.5100	    4.00	    9.96	 -588.21	    5.57
    117.5435	    9.00	   10.04	 -583.29	    5.57
    117.5769	    9.00	   10.12	 -583.37	    5.57
    117.6103	    8.00	   10.21	 -584.46	    5.56
    117.6437	    8.00	   10.29	 -584.54	    5.56
    117.6772	    9.00	   10.38	 -583.63	    5.56
    117.7106	    9.00	   10.47	 -583.72	    5.56
    117.7440	   13.00	   10.55	 -579.80	    5.55
    117.7774	    3.00	   10.63	 -589.88	    5.55
    117.8109	   13.00	   10.71	 -579.96	    5.55
    117.8443	    8.00	   10.79	 -585.04	    5.54
    117.8777	    8.00	   10.86	 -585.11	    5.54
    117.9111	    7.00	   10.94	 -586.19	    5.54
    117.9445	    9.00	   11.00	 -584.25	    5.54
    117.9780	    9.00	   11.07	 -584.32	    5.53
    118.0114	   10.00	   11.13	 -583.38	    5.53
    118.0448	    7.00	   11.19	 -586.44	    5.53
    118.0782	   11.00	   11.24	 -582.49	    5.53
    118.1117	   13.00	   11.29	 -580.54	    5.52
    118.1451	    9.00	   11.34	 -584.59	    5.52
    118.1785	   10.00	   11.39	 -583.64	    5.52
    118.2119	   11.00	   11.43	 -582.68	    5.51
    118.2453	   10.00	   11.47	 -583.72	    5.51
    118.2788	   10.00	   11.51	 -583.76	    5.51
    118.3122	    8.00	   11.55	 -585.80	    5.51
    118.3456	    6.00	   11.59	 -587.84	    5.50
    118.3790	    9.00	   11.63	 -584.88	    5.50
    118.4125	    8.00	   11.66	 -585.91	    5.50
    118.4459	   13.00	   11.70	 -580.95	    5.50
    118.4793	   11.00	   11.73	 -582.98	    5.49
    118.5127	   13.00	   11.77	 -581.02	    5.49
    118.5462	    9.00	   11.80	 -585.05	    5.49
    118.5796	   10.00	   11.83	 -584.08	    5.48
    118.6130	   16.00	   11.87	 -578.12	    5.48
    118.6464	   10.00	   11.90	 -584.15	    5.48
    118.6798	   10.00	   11.93	 -584.18	    5.48
    118.7133	    7.00	   11.95	 -587.20	    5.47
    118.7467	   17.00	   11.98	 -577.23	    5.47
    118.7801	   10.00	   12.01	 -584.26	    5.47
    118.8135	   18.00	   12.03	 -576.28	    5.47
    118.8470	    4.00	   12.05	 -590.30	    5.46
    118.8804	    8.00	   12.07	 -586.32	    5.46
    118.9138	    8.00	   12.08	 -586.33	    5.46
    118.9472	    9.00	   12.09	 -585.34	    5.46
    118.9806	    4.00	   12.10	 -590.35	    5.45
    119.0141	   11.00	   12.11	 -583.36	    5.45
    119.0475	    9.00	   12.11	 -585.36	    5.45
    119.0809	   11.00	   12.10	 -583.35	    5.45
    119.1143	   14.00	   12.10	 -580.35	    5.44
    119.1478	   20.00	   12.08	 -574.33	    5.44
    119.1812	    9.00	   12.07	 -585.32	    5.44
    119.2146	   14.00	   12.05	 -580.30	    5.43
    119.2480	   20.00	   12.02	 -574.27	    5.43
    119.2814	   14.00	   11.99	 -580.24	    5.43
    119.3149	   17.00	   11.95	 -577.20	    5.43
    119.3483	    7.00	   11.91	 -587.16	    5.42
    119.3817	   17.00	   11.87	 -577.12	    5.42
    119.4151	   10.00	   11.82	 -584.07	    5.42
    119.4486	   11.00	   11.77	 -583.02	    5.42
    119.4820	   10.00	   11.72	 -583.97	    5.41
    119.5154	   11.00	   11.66	 -582.91	    5.41
    119.5488	   13.00	   11.60	 -580.85	    5.41
    119.5822	   17.00	   11.55	 -576.80	    5.41
    119.6157	    5.00	   11.49	 -588.74	    5.40
    119.6491	   17.00	   11.43	 -576.68	    5.40
    119.6825	   14.00	   11.37	 -579.62	    5.40
    119.7159	    8.00	   11.32	 -585.57	    5.40
    119.7494	    8.00	   11.26	 -585.51	    5.39
    119.7828	   16.00	   11.21	 -577.46	    5.39
    119.8162	   10.00	   11.16	 -583.41	    5.39
    119.8496	    7.00	   11.11	 -586.36	    5.39
    119.8830	    4.00	   11.06	 -589.31	    5.38
    119.9165	   15.00	   11.02	 -578.27	    5.38
    119.9499	   15.00	   10.98	 -578.23	    5.38
    119.9833	   11.00	   10.94	 -582.19	    5.38
     22.9836	        	        	        	        	       0	(  0  1  2)	  0  1 :  1
     23.0411	        	        	        	        	       0	(  0  1  2)	  0  2 :  1
     29.3288	        	        	        	        	       0	(  1  0  4)	  0  1 :  1
     29.4028	        	        	        	        	       0	(  1  0  4)	  0  2 :  1
     31.3590	        	        	        	        	       0	(  0  0  6)	  0  1 :  1
     31.4384	        	        	        	        	       0	(  0  0  6)	  0  2 :  1
     35.9064	        	        	        	        	       0	(  1  1  0)	  0  1 :  1
     35.9979	        	        	        	        	       0	(  1  1  0)	  0  2 :  1
     39.3451	        	        	        	        	       0	(  1  1  3)	  0  1 :  1
     39.4461	        	        	        	        	       0	(  1  1  3)	  0  2 :  1
     43.0981	        	        	        	        	       0	(  2  0  2)	  0  1 :  1
     43.2097	        	        	        	        	       0	(  2  0  2)	  0  2 :  1
     47.0533	        	        	        	        	       0	(  0  2  4)	  0  1 :  1
     47.1763	        	        	        	        	       0	(  0  2  4)	  0  2 :  1
     47.4348	        	        	        	        	       0	(  0  1  8)	  0  1 :  1
     47.5589	        	        	        	        	       0	(  0  1  8)	  0  2 :  1
     48.4406	        	        	        	        	       0	(  1  1  6)	  0  1 :  1
     48.5677	        	        	        	        	       0	(  1  1  6)	  0  2 :  1
     56.5110	        	        	        	        	       0	(  2  1  1)	  0  1 :  1
     56.6628	        	        	        	        	       0	(  2  1  1)	  0  2 :  1
     57.3467	        	        	        	        	       0	(  1  2  2)	  0  1 :  1
     57.5012	        	        	        	        	       0	(  1  2  2)	  0  2 :  1
     58.0099	        	        	        	        	       0	(  1  0 10)	  0  1 :  1
     58.1665	        	        	        	        	       0	(  1  0 10)	  0  2 :  1
     60.6163	        	        	        	        	       0	(  2  1  4)	  0  1 :  1
     60.7814	        	        	        	        	       0	(  2  1  4)	  0  2 :  1
     60.9374	        	        	        	        	       0	(  2  0  8)	  0  1 :  1
     61.1036	        	        	        	        	       0	(  2  0  8)	  0  2 :  1
     61.3107	        	        	        	        	       0	(  1  1  9)	  0  1 :  1
     61.4781	        	        	        	        	       0	(  1  1  9)	  0  2 :  1
     63.0007	        	        	        	        	       0	(  1  2  5)	  0  1 :  1
     63.1738	        	        	        	        	       0	(  1  2  5)	  0  2 :  1
     64.6141	        	        	        	        	       0	(  3  0  0)	  0  1 :  1
     64.7927	        	        	        	        	       0	(  3  0  0)	  0  2 :  1
     65.5413	        	        	        	        	       0	(  0  0 12)	  0  1 :  1
     65.7231	        	        	        	        	       0	(  0  0 12)	  0  2 :  1
     69.1353	        	        	        	        	       0	(  2  1  7)	  0  1 :  1
     69.3300	        	        	        	        	       0	(  2  1  7)	  0  2 :  1
     70.1815	        	        	        	        	       0	(  0  2 10)	  0  1 :  1
     70.3800	        	        	        	        	       0	(  0  2 10)	  0  2 :  1
     72.8414	        	        	        	        	       0	(  1  2  8)	  0  1 :  1
     73.0499	        	        	        	        	       0	(  1  2  8)	  0  2 :  1
     73.6220	        	        	        	        	       0	(  0  3  6)	  0  1 :  1
     73.6220	        	        	        	        	       0	(  3  0  6)	  0  1 :  1
     73.8335	        	        	        	        	       0	(  0  3  6)	  0  2 :  1
     73.8335	        	        	        	        	       0	(  3  0  6)	  0  2 :  1
     76.2347	        	        	        	        	       0	(  2  2  0)	  0  1 :  1
     76.4564	        	        	        	        	       0	(  2  2  0)	  0  2 :  1
     77.0992	        	        	        	        	       0	(  1  1 12)	  0  1 :  1
     77.3243	        	        	        	        	       0	(  1  1 12)	  0  2 :  1
     78.3898	        	        	        	        	       0	(  2  2  3)	  0  1 :  1
     78.6202	        	        	        	        	       0	(  2  2  3)	  0  2 :  1
     80.1968	        	        	        	        	       0	(  1  3  1)	  0  1 :  1
     80.4347	        	        	        	        	       0	(  1  3  1)	  0  2 :  1
     80.9073	        	        	        	        	       0	(  3  1  2)	  0  1 :  1
     81.1482	        	        	        	        	       0	(  3  1  2)	  0  2 :  1
     81.4748	        	        	        	        	       0	(  2  1 10)	  0  1 :  1
     81.7181	        	        	        	        	       0	(  2  1 10)	  0  2 :  1
     82.0414	        	        	        	        	       0	(  0  1 14)	  0  1 :  1
     82.2873	        	        	        	        	       0	(  0  1 14)	  0  2 :  1
     83.7364	        	        	        	        	       0	(  1  3  4)	  0  1 :  1
     83.9897	        	        	        	        	       0	(  1  3  4)	  0  2 :  1
     84.7696	        	        	        	        	       0	(  2  2  6)	  0  1 :  1
     85.0275	        	        	        	        	       0	(  2  2  6)	  0  2 :  1
     85.8480	        	        	        	        	       0	(  3  1  5)	  0  1 :  1
     86.1108	        	        	        	        	       0	(  3  1  5)	  0  2 :  1
     86.4101	        	        	        	        	       0	(  1  2 11)	  0  1 :  1
     86.6756	        	        	        	        	       0	(  1  2 11)	  0  2 :  1
     91.4595	        	        	        	        	       0	(  1  3  7)	  0  1 :  1
     91.7495	        	        	        	        	       0	(  1  3  7)	  0  2 :  1
     91.8803	        	        	        	        	       0	(  0  4  2)	  0  1 :  1
     92.1724	        	        	        	        	       0	(  0  4  2)	  0  2 :  1
     93.0032	        	        	        	        	       0	(  2  0 14)	  0  1 :  1
     93.3011	        	        	        	        	       0	(  2  0 14)	  0  2 :  1
     94.6893	        	        	        	        	       0	(  4  0  4)	  0  1 :  1
     94.9708	        	        	        	        	       0	(  3  1  8)	  0  1 :  1
     94.9962	        	        	        	        	       0	(  4  0  4)	  0  2 :  1
     95.2792	        	        	        	        	       0	(  3  1  8)	  0  2 :  1
     95.2993	        	        	        	        	       0	(  2  2  9)	  0  1 :  1
     95.6095	        	        	        	        	       0	(  2  2  9)	  0  2 :  1
     96.0980	        	        	        	        	       0	(  1  0 16)	  0  1 :  1
     96.1450	        	        	        	        	       0	(  1  1 15)	  0  1 :  1
     96.4126	        	        	        	        	       0	(  1  0 16)	  0  2 :  1
     96.4598	        	        	        	        	       0	(  1  1 15)	  0  2 :  1
     97.6515	        	        	        	        	       0	(  2  1 13)	  0  1 :  1
     97.9748	        	        	        	        	       0	(  2  1 13)	  0  2 :  1
     99.1161	        	        	        	        	       0	(  0  3 12)	  0  1 :  1
     99.1161	        	        	        	        	       0	(  3  0 12)	  0  1 :  1
     99.4479	        	        	        	        	       0	(  0  3 12)	  0  2 :  1
     99.4479	        	        	        	        	       0	(  3  0 12)	  0  2 :  1
    102.2079	        	        	        	        	       0	(  3  2  1)	  0  1 :  1
    102.5585	        	        	        	        	       0	(  3  2  1)	  0  2 :  1
    102.9263	        	        	        	        	       0	(  2  3  2)	  0  1 :  1
    103.2814	        	        	        	        	       0	(  2  3  2)	  0  2 :  1
    103.5026	        	        	        	        	       0	(  1  3 10)	  0  1 :  1
    103.8614	        	        	        	        	       0	(  1  3 10)	  0  2 :  1
    104.0803	        	        	        	        	       0	(  1  2 14)	  0  1 :  1
    104.4429	        	        	        	        	       0	(  1  2 14)	  0  2 :  1
    105.8219	        	        	        	        	       0	(  3  2  4)	  0  1 :  1
    106.1137	        	        	        	        	       0	(  0  4  8)	  0  1 :  1
    106.1961	        	        	        	        	       0	(  3  2  4)	  0  2 :  1
    106.4899	        	        	        	        	       0	(  0  4  8)	  0  2 :  1
    107.2853	        	        	        	        	       0	(  0  2 16)	  0  1 :  1
    107.6697	        	        	        	        	       0	(  0  2 16)	  0  2 :  1
    108.0209	        	        	        	        	       0	(  2  3  5)	  0  1 :  1
    108.4105	        	        	        	        	       0	(  2  3  5)	  0  2 :  1
    108.6119	        	        	        	        	       0	(  3  1 11)	  0  1 :  1
    108.6615	        	        	        	        	       0	(  0  0 18)	  0  1 :  1
    109.0058	        	        	        	        	       0	(  3  1 11)	  0  2 :  1
    109.0558	        	        	        	        	       0	(  0  0 18)	  0  2 :  1
    109.5516	        	        	        	        	       0	(  4  1  0)	  0  1 :  1
    109.9524	        	        	        	        	       0	(  4  1  0)	  0  2 :  1
    110.4473	        	        	        	        	       0	(  2  2 12)	  0  1 :  1
    110.8549	        	        	        	        	       0	(  2  2 12)	  0  2 :  1
    111.8003	        	        	        	        	       0	(  1  4  3)	  0  1 :  1
    111.8003	        	        	        	        	       0	(  4  1  3)	  0  1 :  1
    112.2184	        	        	        	        	       0	(  1  4  3)	  0  2 :  1
    112.2184	        	        	        	        	       0	(  4  1  3)	  0  2 :  1
    114.0339	        	        	        	        	       0	(  3  2  7)	  0  1 :  1
    114.4701	        	        	        	        	       0	(  3  2  7)	  0  2 :  1
    115.1135	        	        	        	        	       0	(  4  0 10)	  0  1 :  1
    115.5590	        	        	        	        	       0	(  4  0 10)	  0  2 :  1
    117.9354	        	        	        	        	       0	(  2  3  8)	  0  1 :  1
    118.4063	        	        	        	        	       0	(  2  3  8)	  0  2 :  1
    118.7855	        	        	        	        	       0	(  1  4  6)	  0  1 :  1
    118.7855	        	        	        	        	       0	(  4  1  6)	  0  1 :  1
    119.2135	        	        	        	        	       0	(  2  1 16)	  0  1 :  1
    119.2644	        	        	        	        	       0	(  1  4  6)	  0  2 :  1
    119.2644	        	        	        	        	       0	(  4  1  6)	  0  2 :  1
    119.6965	        	        	        	        	       0	(  2  1 16)	  0  2 :  1
    120.7248	        	        	        	        	       0	(  1  1 18)	  0  1 :  1
    120.9969	        	        	        	        	       0	(  1  3 13)	  0  1 :  1
    121.2229	        	        	        	        	       0	(  1  1 18)	  0  2 :  1
    121.4978	        	        	        	        	       0	(  1  3 13)	  0  2 :  1
    127.2701	        	        	        	        	       0	(  5  0  2)	  0  1 :  1
    127.8425	        	        	        	        	       0	(  5  0  2)	  0  2 :  1
    127.9787	        	        	        	        	       0	(  3  2 10)	  0  1 :  1
    128.5149	        	        	        	        	       0	(  1  2 17)	  0  1 :  1
    128.5602	        	        	        	        	       0	(  3  2 10)	  0  2 :  1
    128.6942	        	        	        	        	       0	(  3  1 14)	  0  1 :  1
    129.1035	        	        	        	        	       0	(  1  2 17)	  0  2 :  1
    129.2852	        	        	        	        	       0	(  3  1 14)	  0  2 :  1
    130.8848	        	        	        	        	       0	(  0  5  4)	  0  1 :  1
    131.5063	        	        	        	        	       0	(  0  5  4)	  0  2 :  1
    131.6940	        	        	        	        	       0	(  1  4  9)	  0  1 :  1
    131.6940	        	        	        	        	       0	(  4  1  9)	  0  1 :  1
    132.3274	        	        	        	        	       0	(  1  4  9)	  0  2 :  1
    132.3274	        	        	        	        	       0	(  4  1  9)	  0  2 :  1
    132.8316	        	        	        	        	       0	(  2  2 15)	  0  1 :  1
    133.4825	        	        	        	        	       0	(  2  2 15)	  0  2 :  1
    133.9257	        	        	        	        	       0	(  0  1 20)	  0  1 :  1
    134.5124	        	        	        	        	       0	(  2  3 11)	  0  1 :  1
    134.5941	        	        	        	        	       0	(  0  1 20)	  0  2 :  1
    135.1906	        	        	        	        	       0	(  2  3 11)	  0  2 :  1
    135.7719	        	        	        	        	       0	(  3  3  0)	  0  1 :  1
    136.4718	        	        	        	        	       0	(  3  3  0)	  0  2 :  1
    138.8768	        	        	        	        	       0	(  3  3  3)	  0  1 :  1
    139.6360	        	        	        	        	       0	(  3  3  3)	  0  2 :  1
    141.6572	        	        	        	        	       0	(  2  4  1)	  0  1 :  1
    142.4775	        	        	        	        	       0	(  2  4  1)	  0  2 :  1
    142.8025	        	        	        	        	       0	(  4  2  2)	  0  1 :  1
    143.6507	        	        	        	        	       0	(  4  2  2)	  0  2 :  1
    144.7012	        	        	        	        	       0	(  0  4 14)	  0  1 :  1
    145.5995	        	        	        	        	       0	(  0  4 14)	  0  2 :  1
    147.7288	        	        	        	        	       0	(  2  4  4)	  0  1 :  1
    148.2584	        	        	        	        	       0	(  5  0  8)	  0  1 :  1
    148.7194	        	        	        	        	       0	(  2  4  4)	  0  2 :  1
    149.2669	        	        	        	        	       0	(  5  0  8)	  0  2 :  1
