CaCO3   Chi2:  4.5613  CELL:    4.98941   4.98941  17.06603   90.0000   90.0000  120.0000   SPGR: R -3 C                 TEMP:      0.00
  1   2992     1.54060     1.54439     0.00000     0.01796     0.00000    0
   188     0     1
       0.00000      10.00000
 2Theta	Yobs	Ycal	Yobs-Ycal	Backg	Posr	(hkl)	K
     20.0165	  185.00	  160.33	 -947.58	  147.91
     20.0499	  207.00	  160.35	 -925.60	  147.89
     20.0834	  205.00	  160.36	 -927.61	  147.88
     20.1168	  223.00	  160.38	 -909.63	  147.87
     20.1502	  183.00	  160.39	 -949.64	  147.85
     20.1836	  212.00	  160.41	 -920.66	  147.84
     20.2170	  188.00	  160.42	 -944.67	  147.82
     20.2505	  201.00	  160.44	 -931.69	  147.81
     20.2839	  172.00	  160.46	 -960.71	  147.79
     20.3173	  172.00	  160.48	 -960.73	  147.78
     20.3507	  174.00	  160.50	 -958.75	  147.76
     20.3842	  175.00	  160.52	 -957.77	  147.74
     20.4176	  162.00	  160.54	 -970.79	  147.73
     20.4510	  178.00	  160.57	 -954.82	  147.71
     20.4844	  164.00	  161.87	 -970.12	  147.69
     20.5179	  183.00	  161.91	 -951.16	  147.68
     20.5513	  178.00	  162.59	 -956.84	  147.66
     20.5847	  187.00	  162.63	 -947.88	  147.64
     20.6181	  162.00	  162.68	 -972.93	  147.63
     20.6515	  188.00	  162.72	 -946.97	  147.61
     20.6850	  173.00	  162.77	 -962.02	  147.59
     20.7184	  174.00	  162.83	 -961.08	  147.57
     20.7518	  183.00	  162.88	 -952.13	  147.55
     20.7852	  167.00	  162.94	 -968.19	  147.53
     20.8187	  165.00	  163.00	 -970.25	  147.52
     20.8521	  177.00	  163.06	 -958.31	  147.50
     20.8855	  163.00	  163.13	 -972.38	  147.48
     20.9189	  172.00	  163.19	 -963.44	  147.46
     20.9523	  172.00	  163.27	 -963.52	  147.44
     20.9858	  175.00	  163.34	 -960.59	  147.42
     21.0192	  175.00	  163.42	 -960.67	  147.40
     21.0526	  163.00	  163.50	 -972.75	  147.38
     21.0860	  191.00	  163.59	 -944.84	  147.36
     21.1195	  182.00	  163.68	 -953.93	  147.33
     21.1529	  157.00	  163.78	 -979.03	  147.31
     21.1863	  177.00	  163.88	 -959.13	  147.29
     21.2197	  147.00	  163.99	 -989.24	  147.27
     21.2531	  179.00	  164.10	 -957.35	  147.25
     21.2866	  127.00	  164.22	-1009.47	  147.23
     21.3200	  140.00	  164.35	 -996.60	  147.20
     21.3534	  142.00	  164.48	 -994.73	  147.18
     21.3868	  155.00	  164.63	 -981.88	  147.16
     21.4203	  156.00	  164.78	 -981.03	  147.14
     21.4537	  167.00	  164.94	 -970.19	  147.11
     21.4871	  153.00	  165.11	 -984.36	  147.09
     21.5205	  152.00	  165.29	 -985.54	  147.07
     21.5539	  158.00	  165.49	 -979.74	  147.04
     21.5874	  161.00	  165.69	 -976.94	  147.02
     21.6208	  172.00	  165.92	 -966.17	  146.99
     21.6542	  144.00	  166.15	 -994.40	  146.97
     21.6876	  153.00	  166.41	 -985.66	  146.94
     21.7211	  136.00	  166.68	-1002.93	  146.92
     21.7545	  140.00	  166.97	 -999.22	  146.89
     21.7879	  146.00	  167.29	 -993.54	  146.87
     21.8213	  167.00	  167.63	 -972.88	  146.84
     21.8548	  150.00	  168.00	 -990.25	  146.82
     21.8882	  166.00	  168.39	 -974.64	  146.79
     21.9216	  180.00	  168.83	 -961.08	  146.77
     21.9550	  155.00	  169.29	 -986.54	  146.74
     21.9884	  159.00	  169.81	 -983.06	  146.71
     22.0219	  194.00	  170.36	 -948.61	  146.69
     22.0553	  153.00	  170.97	 -990.22	  146.66
     22.0887	  164.00	  171.64	 -979.89	  146.63
     22.1221	  168.00	  172.38	 -976.63	  146.60
     22.1556	  167.00	  173.20	 -978.45	  146.58
     22.1890	  125.00	  174.10	-1021.35	  146.55
     22.2224	  162.00	  175.12	 -985.37	  146.52
     22.2558	  160.00	  176.24	 -988.49	  146.49
     22.2892	  155.00	  177.49	 -994.74	  146.46
     22.3227	  152.00	  178.90	 -999.15	  146.44
     22.3561	  162.00	  180.47	 -990.72	  146.41
     22.3895	  192.00	  182.27	 -962.52	  146.38
     22.4229	  191.00	  184.31	 -965.56	  146.35
     22.4564	  161.00	  186.64	 -997.89	  146.32
     22.4898	  167.00	  189.34	 -994.59	  146.29
     22.5232	  189.00	  192.48	 -975.73	  146.26
     22.5566	  168.00	  196.16	-1000.41	  146.23
     22.5900	  175.00	  200.51	 -997.76	  146.20
     22.6235	  198.00	  205.70	 -979.95	  146.17
     22.6569	  199.00	  211.94	 -985.19	  146.14
     22.6903	  217.00	  219.50	 -974.75	  146.11
     22.7237	  230.00	  228.71	 -970.96	  146.08
     22.7572	  228.00	  239.96	 -984.21	  146.04
     22.7906	  238.00	  253.70	 -987.95	  146.01
     22.8240	  267.00	  270.42	 -975.67	  145.98
     22.8574	  286.00	  290.61	 -976.86	  145.95
     22.8909	  282.00	  314.58	-1004.83	  145.92
     22.9243	  299.00	  342.25	-1015.50	  145.88
     22.9577	  362.00	  372.73	 -982.98	  145.85
     22.9911	  365.00	  403.73	-1010.98	  145.82
     23.0245	  404.00	  431.29	 -999.54	  145.79
     23.0580	  396.00	  450.37	-1026.62	  145.75
     23.0914	  404.00	  456.67	-1024.92	  145.72
     23.1248	  402.00	  448.70	-1018.95	  145.69
     23.1582	  408.00	  428.56	 -992.81	  145.65
     23.1917	  342.00	  400.70	-1030.95	  145.62
     23.2251	  309.00	  369.89	-1033.14	  145.58
     23.2585	  332.00	  339.80	 -980.05	  145.55
     23.2919	  266.00	  312.55	-1018.80	  145.52
     23.3253	  274.00	  288.97	 -987.22	  145.48
     23.3588	  241.00	  269.13	-1000.38	  145.45
     23.3922	  230.00	  252.68	 -994.93	  145.41
     23.4256	  217.00	  239.17	 -994.42	  145.38
     23.4590	  210.00	  228.11	 -990.36	  145.34
     23.4925	  180.00	  219.06	-1011.31	  145.30
     23.5259	  175.00	  211.63	-1008.88	  145.27
     23.5593	  201.00	  205.49	 -976.74	  145.23
     23.5927	  182.00	  200.38	 -990.63	  145.20
     23.6261	  183.00	  196.11	 -985.36	  145.16
     23.6596	  190.00	  192.49	 -974.74	  145.12
     23.6930	  165.00	  189.40	 -996.65	  145.09
     23.7264	  145.00	  186.75	-1014.00	  145.05
     23.7598	  172.00	  184.45	 -984.70	  145.01
     23.7933	  153.00	  182.45	-1001.70	  144.97
     23.8267	  165.00	  180.70	 -987.95	  144.94
     23.8601	  157.00	  179.16	 -994.41	  144.90
     23.8935	  156.00	  177.79	 -994.04	  144.86
     23.9269	  147.00	  176.58	-1001.83	  144.82
     23.9604	  145.00	  175.49	-1002.74	  144.78
     23.9938	  177.00	  174.53	 -969.78	  144.75
     24.0272	  155.00	  173.66	 -990.91	  144.71
     24.0606	  149.00	  172.87	 -996.12	  144.67
     24.0941	  144.00	  172.17	-1000.42	  144.63
     24.1275	  156.00	  171.53	 -987.78	  144.59
     24.1609	  137.00	  170.95	-1006.20	  144.55
     24.1943	  127.00	  170.43	-1015.68	  144.51
     24.2278	  157.00	  169.95	 -985.20	  144.47
     24.2612	  145.00	  169.52	 -996.77	  144.43
     24.2946	  151.00	  169.12	 -990.37	  144.39
     24.3280	  156.00	  168.76	 -985.01	  144.35
     24.3614	  158.00	  168.43	 -982.68	  144.31
     24.3949	  157.00	  168.13	 -983.38	  144.27
     24.4283	  156.00	  167.85	 -984.10	  144.23
     24.4617	  150.00	  167.60	 -989.85	  144.19
     24.4951	  148.00	  167.37	 -991.62	  144.15
     24.5286	  128.00	  167.15	-1011.40	  144.10
     24.5620	  134.00	  166.96	-1005.21	  144.06
     24.5954	  144.00	  166.79	 -995.04	  144.02
     24.6288	  152.00	  166.63	 -986.88	  143.98
     24.6622	  132.00	  166.48	-1006.73	  143.94
     24.6957	  156.00	  166.35	 -982.60	  143.89
     24.7291	  139.00	  166.23	 -999.48	  143.85
     24.7625	  131.00	  166.13	-1007.38	  143.81
     24.7959	  132.00	  166.03	-1006.28	  143.77
     24.8294	  122.00	  165.95	-1016.20	  143.72
     24.8628	  141.00	  165.87	 -997.12	  143.68
     24.8962	  121.00	  165.81	-1017.06	  143.64
     24.9296	  159.00	  165.75	 -979.00	  143.59
     24.9630	  139.00	  165.70	 -998.95	  143.55
     24.9965	  137.00	  165.66	-1000.91	  143.50
     25.0299	  121.00	  165.63	-1016.88	  143.46
     25.0633	  139.00	  165.61	 -998.86	  143.42
     25.0967	  153.00	  165.60	 -984.85	  143.37
     25.1302	  148.00	  165.59	 -989.84	  143.33
     25.1636	  114.00	  165.59	-1023.84	  143.28
     25.1970	  134.00	  165.59	-1003.84	  143.24
     25.2304	  155.00	  165.60	 -982.85	  143.19
     25.2639	  128.00	  165.62	-1009.87	  143.15
     25.2973	  131.00	  165.65	-1006.90	  143.10
     25.3307	  152.00	  165.68	 -985.93	  143.06
     25.3641	  141.00	  165.72	 -996.97	  143.01
     25.3975	  142.00	  165.77	 -996.02	  142.96
     25.4310	  129.00	  165.82	-1009.07	  142.92
     25.4644	  142.00	  165.87	 -996.12	  142.87
     25.4978	  156.00	  165.94	 -982.19	  142.82
     25.5312	  178.00	  166.01	 -960.26	  142.78
     25.5647	  144.00	  166.09	 -994.34	  142.73
     25.5981	  144.00	  166.17	 -994.42	  142.68
     25.6315	  166.00	  166.26	 -972.51	  142.64
     25.6649	  162.00	  166.35	 -976.60	  142.59
     25.6983	  163.00	  166.46	 -975.71	  142.54
     25.7318	  162.00	  166.56	 -976.81	  142.49
     25.7652	  175.00	  166.68	 -963.93	  142.45
     25.7986	  171.00	  166.80	 -968.05	  142.40
     25.8320	  181.00	  166.93	 -958.18	  142.35
     25.8655	  170.00	  167.07	 -969.32	  142.30
     25.8989	  161.00	  167.21	 -978.46	  142.25
     25.9323	  210.00	  167.37	 -929.62	  142.20
     25.9657	  207.00	  167.52	 -932.77	  142.16
     25.9991	  224.00	  167.69	 -915.94	  142.11
     26.0326	  249.00	  167.87	 -891.12	  142.06
     26.0660	  248.00	  168.05	 -892.30	  142.01
     26.0994	  245.00	  168.41	 -895.66	  141.96
     26.1328	  273.00	  168.62	 -867.87	  141.91
     26.1663	  309.00	  168.83	 -832.08	  141.86
     26.1997	  351.00	  169.13	 -790.38	  141.81
     26.2331	  356.00	  169.37	 -785.62	  141.76
     26.2665	  348.00	  169.61	 -793.86	  141.71
     26.2999	  327.00	  169.86	 -815.11	  141.66
     26.3334	  334.00	  170.12	 -808.37	  141.61
     26.3668	  304.00	  170.40	 -838.65	  141.56
     26.4002	  298.00	  170.69	 -844.94	  141.50
     26.4336	  280.00	  170.99	 -863.24	  141.45
     26.4671	  289.00	  171.30	 -854.55	  141.40
     26.5005	  258.00	  171.63	 -885.88	  141.35
     26.5339	  248.00	  171.97	 -896.22	  141.30
     26.5673	  237.00	  172.32	 -907.57	  141.25
     26.6008	  243.00	  172.69	 -901.94	  141.20
     26.6342	  238.00	  173.08	 -907.33	  141.14
     26.6676	  207.00	  173.48	 -938.73	  141.09
     26.7010	  211.00	  173.90	 -935.15	  141.04
     26.7344	  214.00	  174.34	 -932.59	  140.99
     26.7679	  227.00	  174.79	 -920.04	  140.93
     26.8013	  220.00	  175.27	 -927.52	  140.88
     26.8347	  226.00	  175.77	 -922.02	  140.83
     26.8681	  212.00	  176.29	 -936.54	  140.77
     26.9016	  219.00	  176.84	 -930.09	  140.72
     26.9350	  228.00	  177.40	 -921.65	  140.67
     26.9684	  224.00	  178.00	 -926.25	  140.61
     27.0018	  252.00	  178.62	 -898.87	  140.56
     27.0352	  260.00	  179.27	 -891.52	  140.51
     27.0687	  235.00	  179.95	 -917.20	  140.45
     27.1021	  273.00	  180.66	 -879.91	  140.40
     27.1355	  243.00	  181.41	 -910.66	  140.34
     27.1689	  283.00	  182.19	 -871.44	  140.29
     27.2024	  252.00	  183.01	 -903.26	  140.23
     27.2358	  236.00	  183.87	 -920.12	  140.18
     27.2692	  251.00	  184.78	 -906.03	  140.12
     27.3026	  245.00	  185.72	 -912.97	  140.07
     27.3360	  229.00	  186.72	 -929.97	  140.01
     27.3695	  255.00	  187.77	 -905.02	  139.96
     27.4029	  208.00	  188.87	 -953.12	  139.90
     27.4363	  232.00	  190.03	 -930.28	  139.85
     27.4697	  205.00	  191.25	 -958.50	  139.79
     27.5032	  242.00	  192.53	 -922.78	  139.73
     27.5366	  220.00	  193.89	 -946.14	  139.68
     27.5700	  210.00	  195.32	 -957.57	  139.62
     27.6034	  205.00	  196.84	 -964.09	  139.57
     27.6369	  192.00	  198.44	 -978.69	  139.51
     27.6703	  212.00	  200.13	 -960.38	  139.45
     27.7037	  152.00	  201.92	-1022.17	  139.40
     27.7371	  181.00	  203.83	 -995.08	  139.34
     27.7705	  166.00	  205.84	-1012.09	  139.28
     27.8040	  152.00	  207.99	-1028.24	  139.22
     27.8374	  183.00	  210.27	 -999.52	  139.17
     27.8708	  186.00	  212.70	 -998.95	  139.11
     27.9042	  189.00	  215.29	 -998.54	  139.05
     27.9377	  190.00	  218.05	-1000.30	  138.99
     27.9711	  201.00	  221.00	 -992.25	  138.93
     28.0045	  202.00	  224.16	 -994.41	  138.88
     28.0379	  207.00	  227.55	 -992.80	  138.82
     28.0713	  196.00	  231.18	-1007.43	  138.76
     28.1048	  209.00	  235.08	 -998.33	  138.70
     28.1382	  207.00	  239.29	-1004.54	  138.64
     28.1716	  223.00	  243.82	 -993.07	  138.58
     28.2050	  222.00	  248.71	 -998.96	  138.52
     28.2385	  237.00	  254.01	 -989.26	  138.46
     28.2719	  266.00	  259.75	 -966.00	  138.41
     28.3053	  266.00	  265.99	 -972.24	  138.35
     28.3387	  249.00	  272.79	 -996.04	  138.29
     28.3721	  247.00	  280.20	-1005.45	  138.23
     28.4056	  299.00	  288.31	 -961.56	  138.17
     28.4390	  297.00	  297.21	 -972.46	  138.11
     28.4724	  305.00	  306.99	 -974.24	  138.05
     28.5058	  285.00	  317.77	-1005.02	  137.99
     28.5393	  322.00	  329.70	 -979.95	  137.93
     28.5727	  319.00	  342.93	 -996.18	  137.86
     28.6061	  335.00	  357.67	 -994.92	  137.80
     28.6395	  317.00	  374.14	-1029.39	  137.74
     28.6729	  344.00	  392.61	-1020.86	  137.68
     28.7064	  373.00	  413.43	-1012.68	  137.62
     28.7398	  413.00	  437.01	 -996.26	  137.56
     28.7732	  430.00	  463.86	-1006.11	  137.50
     28.8066	  468.00	  494.61	 -998.86	  137.44
     28.8401	  528.00	  530.05	 -974.30	  137.38
     28.8735	  586.00	  571.16	 -957.41	  137.31
     28.9069	  614.00	  619.17	 -977.42	  137.25
     28.9403	  630.00	  675.64	-1017.89	  137.19
     28.9738	  750.00	  742.42	 -964.67	  137.13
     29.0072	  849.00	  822.05	 -945.30	  137.07
     29.0406	  927.00	  916.85	 -962.10	  137.00
     29.0740	 1073.00	 1030.29	 -929.54	  136.94
     29.1074	 1261.00	 1166.07	 -877.32	  136.88
     29.1409	 1276.00	 1327.98	-1024.23	  136.81
     29.1743	 1610.00	 1519.85	 -882.10	  136.75
     29.2077	 1765.00	 1744.57	 -951.82	  136.69
     29.2411	 1969.00	 2002.36	-1005.61	  136.63
     29.2746	 2225.00	 2288.40	-1035.65	  136.56
     29.3080	 2633.00	 2589.16	 -928.41	  136.50
     29.3414	 3041.00	 2879.61	 -810.86	  136.43
     29.3748	 3506.00	 3123.80	 -590.05	  136.37
     29.4082	 3889.00	 3282.51	 -365.76	  136.31
     29.4417	 3749.00	 3326.74	 -549.99	  136.24
     29.4751	 3492.00	 3249.17	 -729.42	  136.18
     29.5085	 3176.00	 3066.25	 -862.50	  136.11
     29.5419	 2761.00	 2810.51	-1021.76	  136.05
     29.5754	 2417.00	 2518.94	-1074.19	  135.99
     29.6088	 2138.00	 2223.20	-1057.45	  135.92
     29.6422	 1842.00	 1944.82	-1075.07	  135.86
     29.6756	 1650.00	 1695.15	-1017.40	  135.79
     29.7090	 1468.00	 1478.04	 -982.29	  135.73
     29.7425	 1291.00	 1292.85	 -974.10	  135.66
     29.7759	 1126.00	 1136.66	 -982.91	  135.60
     29.8093	 1076.00	 1005.74	 -901.99	  135.53
     29.8427	  966.00	  896.25	 -902.50	  135.47
     29.8762	  950.00	  804.67	 -826.92	  135.40
     29.9096	  808.00	  727.87	 -892.12	  135.33
     29.9430	  776.00	  663.21	 -859.46	  135.27
     29.9764	  706.00	  608.46	 -874.71	  135.20
     30.0098	  663.00	  561.85	 -871.10	  135.14
     30.0433	  609.00	  521.88	 -885.13	  135.07
     30.0767	  596.00	  487.38	 -863.63	  135.00
     30.1101	  581.00	  457.41	 -848.66	  134.94
     30.1435	  559.00	  431.22	 -844.47	  134.87
     30.1770	  538.00	  408.19	 -842.44	  134.80
     30.2104	  509.00	  387.84	 -851.09	  134.74
     30.2438	  506.00	  369.78	 -836.03	  134.67
     30.2772	  445.00	  353.67	 -880.92	  134.60
     30.3107	  423.00	  339.26	 -888.51	  134.54
     30.3441	  391.00	  326.32	 -907.57	  134.47
     30.3775	  353.00	  314.67	 -933.92	  134.40
     30.4109	  374.00	  304.14	 -902.39	  134.33
     30.4443	  312.00	  294.60	 -954.85	  134.27
     30.4778	  313.00	  285.95	 -945.20	  134.20
     30.5112	  316.00	  278.08	 -934.33	  134.13
     30.5446	  305.00	  270.91	 -938.16	  134.06
     30.5780	  273.00	  264.37	 -963.62	  133.99
     30.6115	  241.00	  258.40	 -989.65	  133.93
     30.6449	  227.00	  252.95	 -998.20	  133.86
     30.6783	  216.00	  247.97	-1004.22	  133.79
     30.7117	  220.00	  243.43	 -995.68	  133.72
     30.7451	  224.00	  239.29	 -987.54	  133.65
     30.7786	  219.00	  235.54	 -988.79	  133.58
     30.8120	  222.00	  232.15	 -982.40	  133.51
     30.8454	  218.00	  229.10	 -983.35	  133.45
     30.8788	  213.00	  226.40	 -985.65	  133.38
     30.9123	  211.00	  224.04	 -985.29	  133.31
     30.9457	  187.00	  222.03	-1007.28	  133.24
     30.9791	  208.00	  220.38	 -984.63	  133.17
     31.0125	  194.00	  219.11	 -997.36	  133.10
     31.0459	  227.00	  218.27	 -963.52	  133.03
     31.0794	  252.00	  217.88	 -938.13	  132.96
     31.1128	  209.00	  218.00	 -981.25	  132.89
     31.1462	  226.00	  218.57	 -964.82	  132.82
     31.1796	  247.00	  219.88	 -945.13	  132.75
     31.2131	  233.00	  221.81	 -961.06	  132.68
     31.2465	  232.00	  224.50	 -964.75	  132.61
     31.2799	  223.00	  227.86	 -977.11	  132.54
     31.3133	  201.00	  231.73	-1002.98	  132.47
     31.3468	  209.00	  235.81	 -999.06	  132.40
     31.3802	  240.00	  239.56	 -971.81	  132.33
     31.4136	  259.00	  242.32	 -955.57	  132.26
     31.4470	  255.00	  243.43	 -960.68	  132.18
     31.4804	  236.00	  242.47	 -978.72	  132.11
     31.5139	  258.00	  239.40	 -953.65	  132.04
     31.5473	  245.00	  234.60	 -961.85	  131.97
     31.5807	  226.00	  228.63	 -974.88	  131.90
     31.6141	  197.00	  222.13	 -997.38	  131.83
     31.6476	  199.00	  215.63	 -988.88	  131.76
     31.6810	  180.00	  209.50	-1001.75	  131.68
     31.7144	  187.00	  203.93	 -989.18	  131.61
     31.7478	  171.00	  198.98	-1000.23	  131.54
     31.7812	  179.00	  194.65	 -987.90	  131.47
     31.8147	  163.00	  190.87	-1000.12	  131.40
     31.8481	  177.00	  187.59	 -982.84	  131.32
     31.8815	  171.00	  184.74	 -985.99	  131.25
     31.9149	  170.00	  182.25	 -984.50	  131.18
     31.9484	  142.00	  180.06	-1010.31	  131.11
     31.9818	  140.00	  178.13	-1010.38	  131.03
     32.0152	  168.00	  176.42	 -980.67	  130.96
     32.0486	  145.00	  174.88	-1002.13	  130.89
     32.0820	  129.00	  173.49	-1016.74	  130.82
     32.1155	  125.00	  172.23	-1019.48	  130.74
     32.1489	  146.00	  171.08	 -997.33	  130.67
     32.1823	  145.00	  170.17	 -997.42	  130.60
     32.2157	  139.00	  169.19	-1002.44	  130.52
     32.2492	  150.00	  168.29	 -990.54	  130.45
     32.2826	  148.00	  167.52	 -991.77	  130.38
     32.3160	  145.00	  166.73	 -993.98	  130.30
     32.3494	  149.00	  165.99	 -989.24	  130.23
     32.3829	  164.00	  165.29	 -973.54	  130.15
     32.4163	  148.00	  164.63	 -988.88	  130.08
     32.4497	  157.00	  164.01	 -979.26	  130.01
     32.4831	  129.00	  163.42	-1006.67	  129.93
     32.5165	  164.00	  162.86	 -971.11	  129.86
     32.5500	  141.00	  162.33	 -993.58	  129.78
     32.5834	  147.00	  161.82	 -987.07	  129.71
     32.6168	  157.00	  161.34	 -976.59	  129.64
     32.6502	  166.00	  160.88	 -967.13	  129.56
     32.6837	  180.00	  160.44	 -952.69	  129.49
     32.7171	  174.00	  160.02	 -958.27	  129.41
     32.7505	  161.00	  159.62	 -970.87	  129.34
     32.7839	  188.00	  159.23	 -943.48	  129.26
     32.8173	  167.00	  158.86	 -964.11	  129.19
     32.8508	  160.00	  158.51	 -970.76	  129.11
     32.8842	  190.00	  158.17	 -940.42	  129.04
     32.9176	  173.00	  157.84	 -957.09	  128.96
     32.9510	  208.00	  157.53	 -921.78	  128.89
     32.9845	  188.00	  157.23	 -941.48	  128.81
     33.0179	  203.00	  156.94	 -926.19	  128.73
     33.0513	  188.00	  156.66	 -940.91	  128.66
     33.0847	  211.00	  156.40	 -917.65	  128.58
     33.1181	  218.00	  156.14	 -910.39	  128.51
     33.1516	  211.00	  155.90	 -917.15	  128.43
     33.1850	  202.00	  155.67	 -925.92	  128.35
     33.2184	  225.00	  155.44	 -902.69	  128.28
     33.2518	  208.00	  155.23	 -919.48	  128.20
     33.2853	  204.00	  155.03	 -923.28	  128.13
     33.3187	  172.00	  154.83	 -955.08	  128.05
     33.3521	  173.00	  154.65	 -953.90	  127.97
     33.3855	  188.00	  154.47	 -938.72	  127.90
     33.4189	  153.00	  154.31	 -973.56	  127.82
     33.4524	  162.00	  154.15	 -964.40	  127.74
     33.4858	  156.00	  154.00	 -970.25	  127.67
     33.5192	  163.00	  153.86	 -963.11	  127.59
     33.5526	  170.00	  153.73	 -955.98	  127.51
     33.5861	  149.00	  153.61	 -976.86	  127.43
     33.6195	  150.00	  153.50	 -975.75	  127.36
     33.6529	  110.00	  153.39	-1015.64	  127.28
     33.6863	  121.00	  153.30	-1004.55	  127.20
     33.7198	  141.00	  153.22	 -984.47	  127.13
     33.7532	  140.00	  153.14	 -985.39	  127.05
     33.7866	  130.00	  153.08	 -995.33	  126.97
     33.8200	  143.00	  153.02	 -982.27	  126.89
     33.8534	  120.00	  152.98	-1005.23	  126.81
     33.8869	  136.00	  152.95	 -989.20	  126.74
     33.9203	   90.00	  152.92	-1035.17	  126.66
     33.9537	  124.00	  152.91	-1001.16	  126.58
     33.9871	  130.00	  152.91	 -995.16	  126.50
     34.0206	  124.00	  152.93	-1001.18	  126.42
     34.0540	  137.00	  152.95	 -988.20	  126.35
     34.0874	  151.00	  152.99	 -974.24	  126.27
     34.1208	  150.00	  153.05	 -975.30	  126.19
     34.1542	  126.00	  153.12	 -999.37	  126.11
     34.1877	  127.00	  153.20	 -998.45	  126.03
     34.2211	  143.00	  153.30	 -982.55	  125.95
     34.2545	  136.00	  153.42	 -989.67	  125.87
     34.2879	  130.00	  153.56	 -995.81	  125.80
     34.3214	  126.00	  153.72	 -999.97	  125.72
     34.3548	  126.00	  153.90	-1000.15	  125.64
     34.3882	  134.00	  154.10	 -992.35	  125.56
     34.4216	  129.00	  154.32	 -997.57	  125.48
     34.4550	  112.00	  154.57	-1014.82	  125.40
     34.4885	  128.00	  154.85	 -999.10	  125.32
     34.5219	  128.00	  155.16	 -999.41	  125.24
     34.5553	  125.00	  155.50	-1002.75	  125.16
     34.5887	  149.00	  155.88	 -979.13	  125.08
     34.6222	  116.00	  156.29	-1012.54	  125.00
     34.6556	  160.00	  156.75	 -969.00	  124.92
     34.6890	  139.00	  157.25	 -990.50	  124.84
     34.7224	  147.00	  157.80	 -983.05	  124.76
     34.7559	  120.00	  158.41	-1010.66	  124.68
     34.7893	  137.00	  159.08	 -994.33	  124.60
     34.8227	  145.00	  159.81	 -987.06	  124.52
     34.8561	  128.00	  160.61	-1004.86	  124.44
     34.8895	  133.00	  161.50	-1000.75	  124.36
     34.9230	  145.00	  162.47	 -989.72	  124.28
     34.9564	  145.00	  163.55	 -990.80	  124.20
     34.9898	  141.00	  164.74	 -995.99	  124.12
     35.0232	  144.00	  166.05	 -994.30	  124.04
     35.0567	  164.00	  167.51	 -975.76	  123.96
     35.0901	  132.00	  169.13	-1009.38	  123.88
     35.1235	  150.00	  170.93	 -993.18	  123.80
     35.1569	  171.00	  172.94	 -974.19	  123.72
     35.1903	  156.00	  175.18	 -991.43	  123.64
     35.2238	  158.00	  177.71	 -991.96	  123.56
     35.2572	  190.00	  180.55	 -962.80	  123.48
     35.2906	  188.00	  183.76	 -968.01	  123.40
     35.3240	  188.00	  187.41	 -971.66	  123.31
     35.3575	  174.00	  191.57	 -989.82	  123.23
     35.3909	  147.00	  196.35	-1021.60	  123.15
     35.4243	  190.00	  201.85	 -984.10	  123.07
     35.4577	  165.00	  208.21	-1015.46	  122.99
     35.4911	  193.00	  215.68	 -994.93	  122.91
     35.5246	  182.00	  224.33	-1014.58	  122.83
     35.5580	  194.00	  234.47	-1012.72	  122.74
     35.5914	  229.00	  246.41	 -989.66	  122.66
     35.6248	  199.00	  260.42	-1033.67	  122.58
     35.6583	  254.00	  276.89	 -995.14	  122.50
     35.6917	  297.00	  296.19	 -971.44	  122.42
     35.7251	  299.00	  318.69	 -991.94	  122.33
     35.7585	  303.00	  344.65	-1013.90	  122.25
     35.7920	  330.00	  374.30	-1016.55	  122.17
     35.8254	  361.00	  406.90	-1018.15	  122.09
     35.8588	  378.00	  441.55	-1035.80	  122.01
     35.8922	  463.00	  476.33	 -985.58	  121.92
     35.9256	  475.00	  508.01	-1005.26	  121.84
     35.9591	  547.00	  533.01	 -958.26	  121.76
     35.9925	  516.00	  547.89	-1004.14	  121.68
     36.0259	  513.00	  550.50	-1009.75	  121.59
     36.0593	  574.00	  540.64	 -938.89	  121.51
     36.0928	  519.00	  519.97	 -973.22	  121.43
     36.1262	  497.00	  491.41	 -966.66	  121.35
     36.1596	  442.00	  458.34	 -988.59	  121.26
     36.1930	  408.00	  423.87	 -988.12	  121.18
     36.2264	  349.00	  390.38	-1013.63	  121.10
     36.2599	  355.00	  359.37	 -976.62	  121.01
     36.2933	  320.00	  331.58	 -983.83	  120.93
     36.3267	  289.00	  307.22	 -990.47	  120.85
     36.3601	  303.00	  286.16	 -955.41	  120.77
     36.3936	  258.00	  268.09	 -982.34	  120.68
     36.4270	  266.00	  252.68	 -958.93	  120.60
     36.4604	  258.00	  239.54	 -953.79	  120.52
     36.4938	  216.00	  228.35	 -984.60	  120.43
     36.5272	  234.00	  218.80	 -957.05	  120.35
     36.5607	  196.00	  210.61	 -986.86	  120.27
     36.5941	  217.00	  203.58	 -958.83	  120.18
     36.6275	  162.00	  197.70	-1007.95	  120.10
     36.6609	  189.00	  192.44	 -975.69	  120.01
     36.6944	  173.00	  187.84	 -987.09	  119.93
     36.7278	  181.00	  183.91	 -975.16	  119.85
     36.7612	  146.00	  180.37	-1006.62	  119.76
     36.7946	  137.00	  177.23	-1012.48	  119.68
     36.8280	  163.00	  174.44	 -983.69	  119.59
     36.8615	  149.00	  171.96	 -995.21	  119.51
     36.8949	  145.00	  169.74	 -996.99	  119.43
     36.9283	  151.00	  167.74	 -988.99	  119.34
     36.9617	  136.00	  165.95	-1002.20	  119.26
     36.9952	  124.00	  164.33	-1012.58	  119.17
     37.0286	  150.00	  162.87	 -985.12	  119.09
     37.0620	  147.00	  161.55	 -986.80	  119.01
     37.0954	  145.00	  160.35	 -987.60	  118.92
     37.1289	  141.00	  159.27	 -990.52	  118.84
     37.1623	  152.00	  158.29	 -978.54	  118.75
     37.1957	  146.00	  157.39	 -983.64	  118.67
     37.2291	  152.00	  156.59	 -976.84	  118.58
     37.2625	  157.00	  155.86	 -971.11	  118.50
     37.2960	  163.00	  155.20	 -964.45	  118.41
     37.3294	  150.00	  154.60	 -976.85	  118.33
     37.3628	  159.00	  154.07	 -967.32	  118.24
     37.3962	  173.00	  153.59	 -952.84	  118.16
     37.4297	  151.00	  153.16	 -974.41	  118.07
     37.4631	  155.00	  152.79	 -970.04	  117.99
     37.4965	  147.00	  152.47	 -977.72	  117.90
     37.5299	  151.00	  152.19	 -973.44	  117.82
     37.5633	  152.00	  151.95	 -972.20	  117.73
     37.5968	  148.00	  151.76	 -976.01	  117.65
     37.6302	  165.00	  151.61	 -958.86	  117.56
     37.6636	  171.00	  151.50	 -952.75	  117.48
     37.6970	  178.00	  151.43	 -945.68	  117.39
     37.7305	  193.00	  151.40	 -930.65	  117.31
     37.7639	  161.00	  151.42	 -962.67	  117.22
     37.7973	  189.00	  151.47	 -934.72	  117.14
     37.8307	  186.00	  151.57	 -937.82	  117.05
     37.8641	  216.00	  151.71	 -907.96	  116.96
     37.8976	  208.00	  151.90	 -916.15	  116.88
     37.9310	  245.00	  152.13	 -879.38	  116.79
     37.9644	  220.00	  152.41	 -904.66	  116.71
     37.9978	  220.00	  152.74	 -904.99	  116.62
     38.0313	  221.00	  153.12	 -904.37	  116.54
     38.0647	  212.00	  153.56	 -913.81	  116.45
     38.0981	  257.00	  154.06	 -869.31	  116.36
     38.1315	  219.00	  154.63	 -907.88	  116.28
     38.1649	  211.00	  155.27	 -916.52	  116.19
     38.1984	  213.00	  155.98	 -915.23	  116.11
     38.2318	  253.00	  156.77	 -876.02	  116.02
     38.2652	  222.00	  157.65	 -907.90	  115.93
     38.2986	  222.00	  158.64	 -908.89	  115.85
     38.3321	  209.00	  159.73	 -922.98	  115.76
     38.3655	  258.00	  159.66	 -873.91	  115.67
     38.3989	  205.00	  161.01	 -928.26	  115.59
     38.4323	  199.00	  162.51	 -935.76	  115.50
     38.4658	  203.00	  163.54	 -932.79	  115.42
     38.4992	  199.00	  165.39	 -938.64	  115.33
     38.5326	  203.00	  167.46	 -936.71	  115.24
     38.5660	  217.00	  169.75	 -925.00	  115.16
     38.5994	  197.00	  172.32	 -947.57	  115.07
     38.6329	  210.00	  175.19	 -937.44	  114.98
     38.6663	  207.00	  178.42	 -943.67	  114.90
     38.6997	  209.00	  182.06	 -945.31	  114.81
     38.7331	  196.00	  186.17	 -962.42	  114.72
     38.7666	  189.00	  190.84	 -974.09	  114.64
     38.8000	  219.00	  196.16	 -949.41	  114.55
     38.8334	  191.00	  202.25	 -983.50	  114.46
     38.8668	  207.00	  209.26	 -974.51	  114.38
     38.9002	  199.00	  217.34	 -990.59	  114.29
     38.9337	  230.00	  226.70	 -968.95	  114.20
     38.9671	  251.00	  237.58	 -958.83	  114.11
     39.0005	  221.00	  250.24	-1001.49	  114.03
     39.0339	  233.00	  265.02	-1004.27	  113.94
     39.0674	  278.00	  282.25	 -976.50	  113.85
     39.1008	  306.00	  302.31	 -968.56	  113.77
     39.1342	  307.00	  325.57	 -990.82	  113.68
     39.1676	  351.00	  352.34	 -973.59	  113.59
     39.2010	  338.00	  382.80	-1017.05	  113.50
     39.2345	  444.00	  416.79	 -945.04	  113.42
     39.2679	  476.00	  453.67	 -949.92	  113.33
     39.3013	  499.00	  492.03	 -965.28	  113.24
     39.3347	  504.00	  529.47	 -997.72	  113.15
     39.3682	  562.00	  562.74	 -972.99	  113.07
     39.4016	  597.00	  588.17	 -963.42	  112.98
     39.4350	  656.00	  602.58	 -918.83	  112.89
     39.4684	  610.00	  604.15	 -966.40	  112.80
     39.5019	  562.00	  592.91	-1003.16	  112.72
     39.5353	  602.00	  570.55	 -940.80	  112.63
     39.5687	  556.00	  539.87	 -956.12	  112.54
     39.6021	  458.00	  504.15	-1018.40	  112.45
     39.6355	  455.00	  466.46	 -983.71	  112.37
     39.6690	  395.00	  429.32	-1006.57	  112.28
     39.7024	  375.00	  394.40	 -991.65	  112.19
     39.7358	  348.00	  362.64	 -986.89	  112.10
     39.7692	  312.00	  334.41	 -994.66	  112.01
     39.8027	  296.00	  309.70	 -985.95	  111.93
     39.8361	  310.00	  288.27	 -950.52	  111.84
     39.8695	  242.00	  269.79	-1000.04	  111.75
     39.9029	  223.00	  253.89	-1003.14	  111.66
     39.9363	  214.00	  240.24	 -998.49	  111.57
     39.9698	  208.00	  228.49	 -992.74	  111.49
     40.0032	  218.00	  218.35	 -972.60	  111.40
     40.0366	  185.00	  209.60	 -996.85	  111.31
     40.0700	  192.00	  202.00	 -982.25	  111.22
     40.1035	  173.00	  195.37	 -994.62	  111.13
     40.1369	  178.00	  189.57	 -983.82	  111.05
     40.1703	  182.00	  184.47	 -974.72	  110.96
     40.2037	  159.00	  179.97	 -993.22	  110.87
     40.2371	  144.00	  175.97	-1004.22	  110.78
     40.2706	  160.00	  172.40	 -984.65	  110.69
     40.3040	  135.00	  169.22	-1006.47	  110.60
     40.3374	  128.00	  166.35	-1010.60	  110.52
     40.3708	  147.00	  163.77	 -989.02	  110.43
     40.4043	  126.00	  161.44	-1007.69	  110.34
     40.4377	  130.00	  159.33	-1001.58	  110.25
     40.4711	  146.00	  157.41	 -983.66	  110.16
     40.5045	  127.00	  155.66	-1000.91	  110.07
     40.5379	  144.00	  154.07	 -982.32	  109.98
     40.5714	  145.00	  152.61	 -979.86	  109.90
     40.6048	  133.00	  151.27	 -990.52	  109.81
     40.6382	  132.00	  150.05	 -990.30	  109.72
     40.6716	  130.00	  148.92	 -991.17	  109.63
     40.7051	  130.00	  147.87	 -990.12	  109.54
     40.7385	  149.00	  146.92	 -970.17	  109.45
     40.7719	  115.00	  146.03	-1003.28	  109.36
     40.8053	  120.00	  145.23	 -997.48	  109.28
     40.8388	  129.00	  144.49	 -987.74	  109.19
     40.8722	  126.00	  143.80	 -990.05	  109.10
     40.9056	  110.00	  143.18	-1005.43	  109.01
     40.9390	  124.00	  142.60	 -990.85	  108.92
     40.9724	  131.00	  142.08	 -983.33	  108.83
     41.0059	  147.00	  141.59	 -966.84	  108.74
     41.0393	  131.00	  141.15	 -982.40	  108.65
     41.0727	  122.00	  140.75	 -991.00	  108.56
     41.1061	  131.00	  140.39	 -981.64	  108.48
     41.1396	  131.00	  140.07	 -981.32	  108.39
     41.1730	  130.00	  139.78	 -982.03	  108.30
     41.2064	  126.00	  139.52	 -985.77	  108.21
     41.2398	  109.00	  139.30	-1002.55	  108.12
     41.2732	  106.00	  139.11	-1005.36	  108.03
     41.3067	  117.00	  138.95	 -994.20	  107.94
     41.3401	  114.00	  138.82	 -997.07	  107.85
     41.3735	  128.00	  138.73	 -982.98	  107.76
     41.4069	  125.00	  138.66	 -985.91	  107.67
     41.4404	  132.00	  138.63	 -978.88	  107.58
     41.4738	  106.00	  138.62	-1004.87	  107.50
     41.5072	  126.00	  138.65	 -984.90	  107.41
     41.5406	  124.00	  138.71	 -986.96	  107.32
     41.5741	  122.00	  138.81	 -989.06	  107.23
     41.6075	  113.00	  138.94	 -998.19	  107.14
     41.6409	  136.00	  139.10	 -975.35	  107.05
     41.6743	  108.00	  139.31	-1003.56	  106.96
     41.7077	  118.00	  139.55	 -993.80	  106.87
     41.7412	  117.00	  139.83	 -995.08	  106.78
     41.7746	  132.00	  140.16	 -980.41	  106.69
     41.8080	  108.00	  140.54	-1004.79	  106.60
     41.8414	  129.00	  140.97	 -984.22	  106.51
     41.8749	  100.00	  141.45	-1013.70	  106.42
     41.9083	  122.00	  141.99	 -992.24	  106.33
     41.9417	  111.00	  142.59	-1003.84	  106.24
     41.9751	  116.00	  143.26	 -999.51	  106.16
     42.0085	  108.00	  144.01	-1008.26	  106.07
     42.0420	  116.00	  144.83	-1001.08	  105.98
     42.0754	  130.00	  145.75	 -988.00	  105.89
     42.1088	   97.00	  146.77	-1022.02	  105.80
     42.1422	  136.00	  147.90	 -984.15	  105.71
     42.1757	  117.00	  149.15	-1004.40	  105.62
     42.2091	  121.00	  150.54	-1001.79	  105.53
     42.2425	  121.00	  152.08	-1003.33	  105.44
     42.2759	  122.00	  153.79	-1004.04	  105.35
     42.3093	  130.00	  155.70	 -997.95	  105.26
     42.3428	  148.00	  157.83	 -982.08	  105.17
     42.3762	  140.00	  160.22	 -992.47	  105.08
     42.4096	  144.00	  162.89	 -991.14	  104.99
     42.4430	  151.00	  165.90	 -987.15	  104.90
     42.4765	  168.00	  169.29	 -973.54	  104.81
     42.5099	  144.00	  173.13	-1001.38	  104.72
     42.5433	  142.00	  177.50	-1007.75	  104.63
     42.5767	  161.00	  182.47	 -993.72	  104.54
     42.6101	  174.00	  188.17	 -986.42	  104.45
     42.6436	  201.00	  194.71	 -965.96	  104.36
     42.6770	  190.00	  202.24	 -984.49	  104.27
     42.7104	  228.00	  210.93	 -955.18	  104.18
     42.7438	  217.00	  220.98	 -976.23	  104.09
     42.7773	  235.00	  232.60	 -969.85	  104.00
     42.8107	  253.00	  246.04	 -965.29	  103.91
     42.8441	  275.00	  261.55	 -958.80	  103.82
     42.8775	  312.00	  279.35	 -939.60	  103.74
     42.9109	  326.00	  299.66	 -945.91	  103.65
     42.9444	  361.00	  322.55	 -933.80	  103.56
     42.9778	  380.00	  347.87	 -940.12	  103.47
     43.0112	  426.00	  375.17	 -921.42	  103.38
     43.0446	  480.00	  403.48	 -895.73	  103.29
     43.0781	  536.00	  431.21	 -867.46	  103.20
     43.1115	  563.00	  456.24	 -865.49	  103.11
     43.1449	  633.00	  476.16	 -815.41	  103.02
     43.1783	  621.00	  488.80	 -840.05	  102.93
     43.2118	  593.00	  492.74	 -871.99	  102.84
     43.2452	  635.00	  487.67	 -824.92	  102.75
     43.2786	  631.00	  474.41	 -815.66	  102.66
     43.3120	  531.00	  454.45	 -895.70	  102.57
     43.3454	  518.00	  429.86	 -884.11	  102.48
     43.3789	  461.00	  402.74	 -913.99	  102.39
     43.4123	  424.00	  374.96	 -923.21	  102.30
     43.4457	  403.00	  347.97	 -917.22	  102.21
     43.4791	  374.00	  322.74	 -920.99	  102.12
     43.5126	  331.00	  299.79	 -941.04	  102.03
     43.5460	  295.00	  279.32	 -956.57	  101.94
     43.5794	  279.00	  261.28	 -954.53	  101.85
     43.6128	  286.00	  245.52	 -931.77	  101.76
     43.6462	  273.00	  231.82	 -931.07	  101.67
     43.6797	  219.00	  219.93	 -973.18	  101.58
     43.7131	  223.00	  209.63	 -958.88	  101.49
     43.7465	  211.00	  200.70	 -961.95	  101.40
     43.7799	  197.00	  192.94	 -968.19	  101.31
     43.8134	  183.00	  186.18	 -975.43	  101.22
     43.8468	  181.00	  180.28	 -971.53	  101.13
     43.8802	  186.00	  175.10	 -961.35	  101.04
     43.9136	  156.00	  170.54	 -986.79	  100.95
     43.9470	  164.00	  166.61	 -974.86	  100.86
     43.9805	  163.00	  163.04	 -972.29	  100.77
     44.0139	  162.00	  159.86	 -970.11	  100.68
     44.0473	  157.00	  157.02	 -972.27	  100.59
     44.0807	  141.00	  154.52	 -985.77	  100.50
     44.1142	  147.00	  152.23	 -977.48	  100.41
     44.1476	  150.00	  150.16	 -972.41	  100.32
     44.1810	  126.00	  148.29	 -994.54	  100.23
     44.2144	  125.00	  146.60	 -993.85	  100.14
     44.2478	  124.00	  145.06	 -993.31	  100.05
     44.2813	  131.00	  143.66	 -984.91	   99.96
     44.3147	  137.00	  142.38	 -977.63	   99.87
     44.3481	  131.00	  141.22	 -982.47	   99.78
     44.3815	  127.00	  140.15	 -985.40	   99.69
     44.4150	  133.00	  139.18	 -978.43	   99.60
     44.4484	  144.00	  138.29	 -966.54	   99.51
     44.4818	  130.00	  137.48	 -979.73	   99.42
     44.5152	  141.00	  136.73	 -967.98	   99.33
     44.5487	  135.00	  136.04	 -973.29	   99.24
     44.5821	  109.00	  135.42	 -998.67	   99.15
     44.6155	  133.00	  134.85	 -974.10	   99.06
     44.6489	  157.00	  134.33	 -949.58	   98.97
     44.6823	  139.00	  133.85	 -967.10	   98.88
     44.7158	  131.00	  133.42	 -974.67	   98.79
     44.7492	  122.00	  133.03	 -983.28	   98.70
     44.7826	  140.00	  132.68	 -964.93	   98.61
     44.8160	  155.00	  132.37	 -949.62	   98.52
     44.8495	  155.00	  132.09	 -949.34	   98.43
     44.8829	  145.00	  131.84	 -959.09	   98.34
     44.9163	  115.00	  131.63	 -988.88	   98.25
     44.9497	  132.00	  131.44	 -971.69	   98.16
     44.9831	  148.00	  131.29	 -955.54	   98.07
     45.0166	  153.00	  131.16	 -950.41	   97.98
     45.0500	  145.00	  131.07	 -958.32	   97.89
     45.0834	  146.00	  131.00	 -957.25	   97.80
     45.1168	  151.00	  130.96	 -952.21	   97.71
     45.1503	  144.00	  130.94	 -959.19	   97.62
     45.1837	  151.00	  130.96	 -952.21	   97.53
     45.2171	  140.00	  131.00	 -963.25	   97.44
     45.2505	  151.00	  131.07	 -952.32	   97.35
     45.2840	  140.00	  131.16	 -963.41	   97.26
     45.3174	  139.00	  131.28	 -964.53	   97.17
     45.3508	  190.00	  131.44	 -913.69	   97.08
     45.3842	  156.00	  131.62	 -947.87	   96.99
     45.4176	  163.00	  131.83	 -941.08	   96.90
     45.4511	  161.00	  132.07	 -943.32	   96.81
     45.4845	  180.00	  132.34	 -924.59	   96.72
     45.5179	  196.00	  132.65	 -908.90	   96.63
     45.5513	  201.00	  132.99	 -904.24	   96.54
     45.5848	  179.00	  133.36	 -926.61	   96.45
     45.6182	  203.00	  133.78	 -903.03	   96.36
     45.6516	  214.00	  134.23	 -892.48	   96.27
     45.6850	  226.00	  134.73	 -880.98	   96.18
     45.7184	  238.00	  135.27	 -869.52	   96.09
     45.7519	  256.00	  135.86	 -852.11	   96.00
     45.7853	  259.00	  136.50	 -849.75	   95.91
     45.8187	  268.00	  137.19	 -841.44	   95.83
     45.8521	  279.00	  137.94	 -831.19	   95.74
     45.8856	  243.00	  138.58	 -867.83	   95.65
     45.9190	  283.00	  139.46	 -828.71	   95.56
     45.9524	  287.00	  140.41	 -825.66	   95.47
     45.9858	  269.00	  141.44	 -844.69	   95.38
     46.0192	  236.00	  142.47	 -878.72	   95.29
     46.0527	  268.00	  143.67	 -847.92	   95.20
     46.0861	  244.00	  144.98	 -873.23	   95.11
     46.1195	  234.00	  146.39	 -884.64	   95.02
     46.1529	  238.00	  147.93	 -882.18	   94.93
     46.1864	  264.00	  149.60	 -857.85	   94.84
     46.2198	  229.00	  151.41	 -894.66	   94.75
     46.2532	  204.00	  153.39	 -921.64	   94.66
     46.2866	  209.00	  155.55	 -918.80	   94.57
     46.3200	  241.00	  157.90	 -889.15	   94.48
     46.3535	  212.00	  160.49	 -920.74	   94.39
     46.3869	  202.00	  163.33	 -933.58	   94.30
     46.4203	  212.00	  166.46	 -926.71	   94.21
     46.4537	  193.00	  169.91	 -949.16	   94.12
     46.4872	  237.00	  173.73	 -908.98	   94.03
     46.5206	  254.00	  177.98	 -896.23	   93.94
     46.5540	  226.00	  182.70	 -928.95	   93.86
     46.5874	  216.00	  188.02	 -944.27	   93.77
     46.6208	  220.00	  193.94	 -946.19	   93.68
     46.6543	  256.00	  200.58	 -916.83	   93.59
     46.6877	  240.00	  208.05	 -940.30	   93.50
     46.7211	  321.00	  216.49	 -867.74	   93.41
     46.7545	  281.00	  226.01	 -917.26	   93.32
     46.7880	  304.00	  236.75	 -905.00	   93.23
     46.8214	  315.00	  248.88	 -906.13	   93.14
     46.8548	  299.00	  262.55	 -935.80	   93.05
     46.8882	  331.00	  277.85	 -919.10	   92.96
     46.9217	  381.00	  294.85	 -886.10	   92.87
     46.9551	  376.00	  313.52	 -909.77	   92.78
     46.9885	  422.00	  333.71	 -883.96	   92.69
     47.0219	  404.00	  355.06	 -923.31	   92.61
     47.0553	  464.00	  377.11	 -885.36	   92.52
     47.0888	  495.00	  399.30	 -876.55	   92.43
     47.1222	  488.00	  421.13	 -905.38	   92.34
     47.1556	  481.00	  442.36	 -933.61	   92.25
     47.1890	  532.00	  462.97	 -903.22	   92.16
     47.2225	  520.00	  483.35	 -935.60	   92.07
     47.2559	  560.00	  504.01	 -916.26	   91.98
     47.2893	  599.00	  525.49	 -898.74	   91.89
     47.3227	  563.00	  548.09	 -957.34	   91.80
     47.3561	  675.00	  571.68	 -868.93	   91.71
     47.3896	  652.00	  595.51	 -915.76	   91.63
     47.4230	  628.00	  618.10	 -962.35	   91.54
     47.4564	  757.00	  637.40	 -852.65	   91.45
     47.4898	  753.00	  651.18	 -870.43	   91.36
     47.5233	  774.00	  657.54	 -855.79	   91.27
     47.5567	  721.00	  655.39	 -906.64	   91.18
     47.5901	  751.00	  644.68	 -865.93	   91.09
     47.6235	  721.00	  626.30	 -877.55	   91.00
     47.6570	  658.00	  601.80	 -916.05	   90.91
     47.6904	  642.00	  573.15	 -903.40	   90.83
     47.7238	  599.00	  542.42	 -915.67	   90.74
     47.7572	  559.00	  511.47	 -924.72	   90.65
     47.7906	  553.00	  481.91	 -901.16	   90.56
     47.8241	  565.00	  454.83	 -862.08	   90.47
     47.8575	  540.00	  430.95	 -863.20	   90.38
     47.8909	  497.00	  410.65	 -885.90	   90.29
     47.9243	  485.00	  394.05	 -881.30	   90.21
     47.9578	  487.00	  381.16	 -866.41	   90.12
     47.9912	  518.00	  371.93	 -826.18	   90.03
     48.0246	  472.00	  366.25	 -866.50	   89.94
     48.0580	  475.00	  364.10	 -861.35	   89.85
     48.0914	  467.00	  365.43	 -870.68	   89.76
     48.1249	  505.00	  370.26	 -837.51	   89.67
     48.1583	  507.00	  378.63	 -843.88	   89.59
     48.1917	  513.00	  390.59	 -849.84	   89.50
     48.2251	  505.00	  406.20	 -873.45	   89.41
     48.2586	  559.00	  425.41	 -838.66	   89.32
     48.2920	  599.00	  448.01	 -821.26	   89.23
     48.3254	  563.00	  473.56	 -882.81	   89.14
     48.3588	  606.00	  501.16	 -867.41	   89.06
     48.3922	  660.00	  529.45	 -841.70	   88.97
     48.4257	  701.00	  556.49	 -827.74	   88.88
     48.4591	  760.00	  579.96	 -792.21	   88.79
     48.4925	  765.00	  597.49	 -804.74	   88.70
     48.5259	  773.00	  607.06	 -806.31	   88.61
     48.5594	  815.00	  607.54	 -764.79	   88.53
     48.5928	  736.00	  598.79	 -835.04	   88.44
     48.6262	  715.00	  581.62	 -838.87	   88.35
     48.6596	  627.00	  557.49	 -902.74	   88.26
     48.6930	  603.00	  528.28	 -897.53	   88.17
     48.7265	  610.00	  496.01	 -858.26	   88.09
     48.7599	  530.00	  462.52	 -904.77	   88.00
     48.7933	  487.00	  429.43	 -914.68	   87.91
     48.8267	  488.00	  397.86	 -882.11	   87.82
     48.8602	  392.00	  368.53	 -948.78	   87.73
     48.8936	  363.00	  341.81	 -951.06	   87.65
     48.9270	  403.00	  317.81	 -887.06	   87.56
     48.9604	  387.00	  296.43	 -881.68	   87.47
     48.9939	  358.00	  277.52	 -891.77	   87.38
     49.0273	  333.00	  260.83	 -900.08	   87.30
     49.0607	  314.00	  246.13	 -904.38	   87.21
     49.0941	  266.00	  233.18	 -939.43	   87.12
     49.1275	  284.00	  221.77	 -910.02	   87.03
     49.1610	  259.00	  211.69	 -924.94	   86.95
     49.1944	  263.00	  202.76	 -912.01	   86.86
     49.2278	  274.00	  194.83	 -893.08	   86.77
     49.2612	  242.00	  187.77	 -918.02	   86.68
     49.2947	  230.00	  181.46	 -923.71	   86.60
     49.3281	  226.00	  175.79	 -922.04	   86.51
     49.3615	  224.00	  170.69	 -918.94	   86.42
     49.3949	  196.00	  166.08	 -942.33	   86.33
     49.4283	  209.00	  161.90	 -925.15	   86.25
     49.4618	  182.00	  158.09	 -948.34	   86.16
     49.4952	  193.00	  154.62	 -933.87	   86.07
     49.5286	  213.00	  151.44	 -910.69	   85.98
     49.5620	  208.00	  148.52	 -912.77	   85.90
     49.5955	  180.00	  145.82	 -938.07	   85.81
     49.6289	  188.00	  143.34	 -927.59	   85.72
     49.6623	  191.00	  141.04	 -922.29	   85.64
     49.6957	  167.00	  138.90	 -944.15	   85.55
     49.7291	  183.00	  136.91	 -926.16	   85.46
     49.7626	  197.00	  135.11	 -910.36	   85.37
     49.7960	  181.00	  133.38	 -924.63	   85.29
     49.8294	  185.00	  131.76	 -919.01	   85.20
     49.8628	  199.00	  130.05	 -903.30	   85.11
     49.8963	  208.00	  128.63	 -892.88	   85.03
     49.9297	  207.00	  127.31	 -892.56	   84.94
     49.9631	  190.00	  125.95	 -908.20	   84.85
     49.9965	  222.00	  124.77	 -875.02	   84.77
     50.0300	  213.00	  123.64	 -882.89	   84.68
     50.0634	  212.00	  122.58	 -882.83	   84.59
     50.0968	  240.00	  121.57	 -853.82	   84.51
     50.1302	  213.00	  120.62	 -879.87	   84.42
     50.1636	  239.00	  119.71	 -852.96	   84.33
     50.1971	  198.00	  118.85	 -893.10	   84.25
     50.2305	  214.00	  118.02	 -876.27	   84.16
     50.2639	  232.00	  117.24	 -857.49	   84.07
     50.2973	  209.00	  116.49	 -879.74	   83.99
     50.3308	  197.00	  115.78	 -891.03	   83.90
     50.3642	  182.00	  115.09	 -905.34	   83.81
     50.3976	  213.00	  114.44	 -873.69	   83.73
     50.4310	  209.00	  113.81	 -877.06	   83.64
     50.4644	  186.00	  113.21	 -899.46	   83.56
     50.4979	  170.00	  112.66	 -914.91	   83.47
     50.5313	  190.00	  112.10	 -894.35	   83.38
     50.5647	  183.00	  111.57	 -900.82	   83.30
     50.5981	  181.00	  111.05	 -902.30	   83.21
     50.6316	  152.00	  110.55	 -930.80	   83.12
     50.6650	  141.00	  110.09	 -941.34	   83.04
     50.6984	  141.00	  109.63	 -940.88	   82.95
     50.7318	  120.00	  109.18	 -961.43	   82.87
     50.7652	  120.00	  108.75	 -961.00	   82.78
     50.7987	  135.00	  108.34	 -945.59	   82.69
     50.8321	  130.00	  107.93	 -950.18	   82.61
     50.8655	  142.00	  107.54	 -937.79	   82.52
     50.8989	  122.00	  107.16	 -957.41	   82.44
     50.9324	  134.00	  106.80	 -945.05	   82.35
     50.9658	  130.00	  106.44	 -948.69	   82.27
     50.9992	  111.00	  106.10	 -967.35	   82.18
     51.0326	   98.00	  105.76	 -980.01	   82.09
     51.0660	  119.00	  105.44	 -958.69	   82.01
     51.0995	  106.00	  105.12	 -971.37	   81.92
     51.1329	  132.00	  104.81	 -945.06	   81.84
     51.1663	  100.00	  104.51	 -976.76	   81.75
     51.1997	  111.00	  104.22	 -965.47	   81.67
     51.2332	  110.00	  103.93	 -966.18	   81.58
     51.2666	  128.00	  103.66	 -947.91	   81.50
     51.3000	  115.00	  103.39	 -960.64	   81.41
     51.3334	  106.00	  103.12	 -969.37	   81.33
     51.3669	  101.00	  102.86	 -974.11	   81.24
     51.4003	   98.00	  102.61	 -976.86	   81.16
     51.4337	  105.00	  102.37	 -969.62	   81.07
     51.4671	  105.00	  102.13	 -969.38	   80.99
     51.5005	  106.00	  101.89	 -968.14	   80.90
     51.5340	  114.00	  101.66	 -959.91	   80.82
     51.5674	  104.00	  101.44	 -969.69	   80.73
     51.6008	  111.00	  101.22	 -962.47	   80.65
     51.6342	   93.00	  101.00	 -980.25	   80.56
     51.6677	   97.00	  100.79	 -976.04	   80.48
     51.7011	  102.00	  100.59	 -970.84	   80.39
     51.7345	  113.00	  100.38	 -959.63	   80.31
     51.7679	   95.00	  100.19	 -977.44	   80.22
     51.8013	   91.00	   99.99	 -981.24	   80.14
     51.8348	  102.00	   99.80	 -970.05	   80.05
     51.8682	  127.00	   99.62	 -944.87	   79.97
     51.9016	   97.00	   99.43	 -974.68	   79.88
     51.9350	   95.00	   99.25	 -976.50	   79.80
     51.9685	  101.00	   99.08	 -970.33	   79.72
     52.0019	  110.00	   98.90	 -961.15	   79.63
     52.0353	  142.00	   98.73	 -928.98	   79.55
     52.0687	  110.00	   98.57	 -960.82	   79.46
     52.1021	  116.00	   98.40	 -954.65	   79.38
     52.1356	  130.00	   98.24	 -940.49	   79.29
     52.1690	  141.00	   98.08	 -929.33	   79.21
     52.2024	  117.00	   97.93	 -953.18	   79.13
     52.2358	  126.00	   97.77	 -944.02	   79.04
     52.2693	  139.00	   97.62	 -930.87	   78.96
     52.3027	  137.00	   97.48	 -932.73	   78.87
     52.3361	  136.00	   97.33	 -933.58	   78.79
     52.3695	  143.00	   97.19	 -926.44	   78.71
     52.4030	  153.00	   97.05	 -916.30	   78.62
     52.4364	  160.00	   96.91	 -909.16	   78.54
     52.4698	  150.00	   96.78	 -919.03	   78.46
     52.5032	  174.00	   96.64	 -894.89	   78.37
     52.5366	  158.00	   96.51	 -910.76	   78.29
     52.5701	  180.00	   96.38	 -888.63	   78.20
     52.6035	  175.00	   96.26	 -893.51	   78.12
     52.6369	  144.00	   96.13	 -924.38	   78.04
     52.6703	  144.00	   96.01	 -924.26	   77.95
     52.7038	  117.00	   95.89	 -951.14	   77.87
     52.7372	  144.00	   95.77	 -924.02	   77.79
     52.7706	  127.00	   95.65	 -940.90	   77.70
     52.8040	  136.00	   95.54	 -931.79	   77.62
     52.8374	  148.00	   95.43	 -919.68	   77.54
     52.8709	  126.00	   95.32	 -941.57	   77.45
     52.9043	  136.00	   95.21	 -931.46	   77.37
     52.9377	  136.00	   95.10	 -931.35	   77.29
     52.9711	  152.00	   95.00	 -915.25	   77.21
     53.0046	  122.00	   94.90	 -945.15	   77.12
     53.0380	  121.00	   94.79	 -946.04	   77.04
     53.0714	  116.00	   94.70	 -950.95	   76.96
     53.1048	  141.00	   94.60	 -925.85	   76.87
     53.1382	  134.00	   94.50	 -932.75	   76.79
     53.1717	  117.00	   94.41	 -949.66	   76.71
     53.2051	  108.00	   94.32	 -958.57	   76.63
     53.2385	  115.00	   94.23	 -951.48	   76.54
     53.2719	   99.00	   94.14	 -967.39	   76.46
     53.3054	  121.00	   94.06	 -945.31	   76.38
     53.3388	   81.00	   93.98	 -985.23	   76.30
     53.3722	  100.00	   93.90	 -966.15	   76.21
     53.4056	  117.00	   93.82	 -949.07	   76.13
     53.4390	   71.00	   93.75	 -995.00	   76.05
     53.4725	   97.00	   93.68	 -968.93	   75.97
     53.5059	   95.00	   93.60	 -970.85	   75.89
     53.5393	   64.00	   93.53	-1001.78	   75.80
     53.5727	   90.00	   93.46	 -975.71	   75.72
     53.6062	   87.00	   93.39	 -978.64	   75.64
     53.6396	  102.00	   93.33	 -963.58	   75.56
     53.6730	   90.00	   93.27	 -975.52	   75.48
     53.7064	   82.00	   93.21	 -983.46	   75.39
     53.7399	   75.00	   93.15	 -990.40	   75.31
     53.7733	   97.00	   93.09	 -968.34	   75.23
     53.8067	   69.00	   93.04	 -996.29	   75.15
     53.8401	   72.00	   92.99	 -993.24	   75.07
     53.8735	   96.00	   92.94	 -969.19	   74.99
     53.9070	   90.00	   92.89	 -975.14	   74.90
     53.9404	   88.00	   92.85	 -977.10	   74.82
     53.9738	  104.00	   92.81	 -961.06	   74.74
     54.0072	  100.00	   92.77	 -965.02	   74.66
     54.0407	   90.00	   92.74	 -974.99	   74.58
     54.0741	   85.00	   92.71	 -979.96	   74.50
     54.1075	   84.00	   92.68	 -980.93	   74.42
     54.1409	   93.00	   92.67	 -971.92	   74.34
     54.1743	   75.00	   92.65	 -989.90	   74.25
     54.2078	   94.00	   92.47	 -970.72	   74.17
     54.2412	   75.00	   92.46	 -989.71	   74.09
     54.2746	   86.00	   92.45	 -978.70	   74.01
     54.3080	   86.00	   92.45	 -978.70	   73.93
     54.3415	   85.00	   92.37	 -979.62	   73.85
     54.3749	   83.00	   92.37	 -981.62	   73.77
     54.4083	   86.00	   92.38	 -978.63	   73.69
     54.4417	   96.00	   92.39	 -968.64	   73.61
     54.4752	   93.00	   92.40	 -971.65	   73.53
     54.5086	   76.00	   92.42	 -988.67	   73.45
     54.5420	   87.00	   92.45	 -977.70	   73.37
     54.5754	  101.00	   92.48	 -963.73	   73.29
     54.6088	   70.00	   92.52	 -994.77	   73.21
     54.6423	   79.00	   92.56	 -985.81	   73.13
     54.6757	   76.00	   92.61	 -988.86	   73.05
     54.7091	   66.00	   92.66	 -998.91	   72.97
     54.7425	  102.00	   92.72	 -962.97	   72.89
     54.7759	   81.00	   92.79	 -984.04	   72.81
     54.8094	   82.00	   92.87	 -983.12	   72.73
     54.8428	   81.00	   92.95	 -984.20	   72.65
     54.8762	   71.00	   93.05	 -994.30	   72.57
     54.9096	   60.00	   93.15	-1005.40	   72.49
     54.9431	   81.00	   93.26	 -984.51	   72.41
     54.9765	   76.00	   93.39	 -989.64	   72.33
     55.0099	   81.00	   93.52	 -984.77	   72.25
     55.0433	   86.00	   93.67	 -979.92	   72.17
     55.0768	   71.00	   93.83	 -995.08	   72.09
     55.1102	   81.00	   94.00	 -985.25	   72.01
     55.1436	   79.00	   94.19	 -987.44	   71.93
     55.1770	   60.00	   94.39	-1006.64	   71.85
     55.2104	   87.00	   94.61	 -979.86	   71.77
     55.2439	   84.00	   94.84	 -983.09	   71.69
     55.2773	   70.00	   95.10	 -997.35	   71.61
     55.3107	   86.00	   95.38	 -981.63	   71.53
     55.3441	   83.00	   95.68	 -984.93	   71.45
     55.3776	   81.00	   96.00	 -987.25	   71.37
     55.4110	   79.00	   96.35	 -989.60	   71.30
     55.4444	   91.00	   96.73	 -977.98	   71.22
     55.4778	   97.00	   97.15	 -972.40	   71.14
     55.5112	  100.00	   97.59	 -969.84	   71.06
     55.5447	   72.00	   98.08	 -998.33	   70.98
     55.5781	   88.00	   98.61	 -982.86	   70.90
     55.6115	   79.00	   99.18	 -992.43	   70.82
     55.6449	   88.00	   99.80	 -984.05	   70.75
     55.6784	   88.00	  100.48	 -984.73	   70.67
     55.7118	   88.00	  101.23	 -985.48	   70.59
     55.7452	   91.00	  102.04	 -983.29	   70.51
     55.7786	  111.00	  102.94	 -964.19	   70.43
     55.8120	   82.00	  103.92	 -994.17	   70.35
     55.8455	   88.00	  105.00	 -989.25	   70.28
     55.8789	   91.00	  106.20	 -987.45	   70.20
     55.9123	   84.00	  107.52	 -995.77	   70.12
     55.9457	   93.00	  108.98	 -988.23	   70.04
     55.9792	   95.00	  110.61	 -987.86	   69.96
     56.0126	  104.00	  112.42	 -980.67	   69.89
     56.0460	  121.00	  114.44	 -965.69	   69.81
     56.0794	  110.00	  116.69	 -978.94	   69.73
     56.1129	   89.00	  119.20	-1002.45	   69.65
     56.1463	  135.00	  122.00	 -959.25	   69.58
     56.1797	  143.00	  125.14	 -954.39	   69.50
     56.2131	  144.00	  128.64	 -956.89	   69.42
     56.2465	  115.00	  132.51	 -989.76	   69.34
     56.2800	  103.00	  136.78	-1006.03	   69.27
     56.3134	  133.00	  141.46	 -980.71	   69.19
     56.3468	  135.00	  146.54	 -983.79	   69.11
     56.3802	  149.00	  151.94	 -975.19	   69.03
     56.4137	  139.00	  157.57	 -990.82	   68.96
     56.4471	  161.00	  163.28	 -974.53	   68.88
     56.4805	  191.00	  168.87	 -950.12	   68.80
     56.5139	  164.00	  174.08	 -982.33	   68.73
     56.5473	  190.00	  178.69	 -960.94	   68.65
     56.5808	  201.00	  182.47	 -953.72	   68.57
     56.6142	  168.00	  185.30	 -989.55	   68.50
     56.6476	  191.00	  187.16	 -968.41	   68.42
     56.6810	  199.00	  188.12	 -961.37	   68.34
     56.7145	  191.00	  188.33	 -969.58	   68.27
     56.7479	  174.00	  188.01	 -986.26	   68.19
     56.7813	  186.00	  187.39	 -973.64	   68.12
     56.8147	  187.00	  186.74	 -971.99	   68.04
     56.8481	  195.00	  186.32	 -963.57	   67.96
     56.8816	  163.00	  186.36	 -995.61	   67.89
     56.9150	  161.00	  187.09	 -998.34	   67.81
     56.9484	  182.00	  188.67	 -978.92	   67.73
     56.9818	  183.00	  191.23	 -980.48	   67.66
     57.0153	  192.00	  194.90	 -975.15	   67.58
     57.0487	  187.00	  199.75	 -985.00	   67.51
     57.0821	  196.00	  205.83	 -982.08	   67.43
     57.1155	  194.00	  213.15	 -991.40	   67.36
     57.1489	  203.00	  221.68	 -990.93	   67.28
     57.1824	  244.00	  231.33	 -959.58	   67.20
     57.2158	  210.00	  241.87	-1004.12	   67.13
     57.2492	  228.00	  253.00	 -997.25	   67.05
     57.2826	  245.00	  264.22	 -991.47	   66.98
     57.3161	  242.00	  274.95	-1005.20	   66.90
     57.3495	  290.00	  284.46	 -966.71	   66.83
     57.3829	  300.00	  292.05	 -964.30	   66.75
     57.4163	  305.00	  297.12	 -964.37	   66.68
     57.4498	  301.00	  299.26	 -970.51	   66.60
     57.4832	  293.00	  298.34	 -977.59	   66.53
     57.5166	  271.00	  294.46	 -995.71	   66.45
     57.5500	  297.00	  287.97	 -963.22	   66.38
     57.5834	  254.00	  279.30	 -997.55	   66.30
     57.6169	  253.00	  269.00	 -988.25	   66.23
     57.6503	  241.00	  257.65	 -988.90	   66.16
     57.6837	  210.00	  245.81	-1008.06	   66.08
     57.7171	  221.00	  233.96	 -985.21	   66.01
     57.7506	  211.00	  222.53	 -983.78	   65.93
     57.7840	  179.00	  211.77	-1005.02	   65.86
     57.8174	  205.00	  201.90	 -969.15	   65.78
     57.8508	  182.00	  192.98	 -983.23	   65.71
     57.8842	  170.00	  185.02	 -987.27	   65.64
     57.9177	  152.00	  177.98	 -998.23	   65.56
     57.9511	  151.00	  171.77	 -993.02	   65.49
     57.9845	  160.00	  166.26	 -978.51	   65.41
     58.0179	  150.00	  161.32	 -983.57	   65.34
     58.0514	  153.00	  156.82	 -976.07	   65.27
     58.0848	  150.00	  152.63	 -974.88	   65.19
     58.1182	  149.00	  148.67	 -971.92	   65.12
     58.1516	  131.00	  144.87	 -986.12	   65.05
     58.1851	  130.00	  141.18	 -983.43	   64.97
     58.2185	  109.00	  137.59	-1000.84	   64.90
     58.2519	  129.00	  134.11	 -977.36	   64.83
     58.2853	  121.00	  130.74	 -981.99	   64.75
     58.3187	  130.00	  127.50	 -969.75	   64.68
     58.3522	  112.00	  124.42	 -984.67	   64.61
     58.3856	  117.00	  121.52	 -976.77	   64.53
     58.4190	  106.00	  118.81	 -985.06	   64.46
     58.4524	  112.00	  116.30	 -976.55	   64.39
     58.4859	  102.00	  113.99	 -984.24	   64.31
     58.5193	   95.00	  111.88	 -989.13	   64.24
     58.5527	   93.00	  109.95	 -989.20	   64.17
     58.5861	  100.00	  108.20	 -980.45	   64.10
     58.6195	   88.00	  106.61	 -990.86	   64.02
     58.6530	   89.00	  105.17	 -988.42	   63.95
     58.6864	  113.00	  103.87	 -963.12	   63.88
     58.7198	   87.00	  102.69	 -987.94	   63.81
     58.7532	   82.00	  101.62	 -991.87	   63.73
     58.7867	   85.00	  100.66	 -987.91	   63.66
     58.8201	   78.00	   99.73	 -993.98	   63.59
     58.8535	   79.00	   98.94	 -992.19	   63.52
     58.8869	   94.00	   98.23	 -976.48	   63.45
     58.9203	   93.00	   97.59	 -976.84	   63.37
     58.9538	   71.00	   96.99	 -998.24	   63.30
     58.9872	  105.00	   96.48	 -963.73	   63.23
     59.0206	  105.00	   96.02	 -963.27	   63.16
     59.0540	   85.00	   95.62	 -982.87	   63.09
     59.0875	   97.00	   95.27	 -970.52	   63.02
     59.1209	   82.00	   94.97	 -985.22	   62.95
     59.1543	   96.00	   94.71	 -970.96	   62.87
     59.1877	   84.00	   94.50	 -982.75	   62.80
     59.2211	  116.00	   94.33	 -950.58	   62.73
     59.2546	   88.00	   94.01	 -978.26	   62.66
     59.2880	   94.00	   93.93	 -972.18	   62.59
     59.3214	   94.00	   93.89	 -972.14	   62.52
     59.3548	  104.00	   93.90	 -962.15	   62.45
     59.3883	   97.00	   93.85	 -969.10	   62.38
     59.4217	  115.00	   93.95	 -951.20	   62.31
     59.4551	  113.00	   94.09	 -953.34	   62.24
     59.4885	  106.00	   94.28	 -960.53	   62.17
     59.5219	  109.00	   94.51	 -957.76	   62.09
     59.5554	   93.00	   94.79	 -974.04	   62.02
     59.5888	  118.00	   95.14	 -949.39	   61.95
     59.6222	   98.00	   95.54	 -969.79	   61.88
     59.6556	  105.00	   96.00	 -963.25	   61.81
     59.6891	  133.00	   96.53	 -935.78	   61.74
     59.7225	  120.00	   97.13	 -949.38	   61.67
     59.7559	  105.00	   97.82	 -965.07	   61.60
     59.7893	  114.00	   98.59	 -956.84	   61.53
     59.8228	  102.00	   99.45	 -969.70	   61.46
     59.8562	  127.00	  100.43	 -945.68	   61.39
     59.8896	   96.00	  101.52	 -977.77	   61.32
     59.9230	  110.00	  102.74	 -964.99	   61.25
     59.9564	  108.00	  104.12	 -968.37	   61.19
     59.9899	  146.00	  105.65	 -931.90	   61.12
     60.0233	  110.00	  107.37	 -969.62	   61.05
     60.0567	  119.00	  109.30	 -962.55	   60.98
     60.0901	  161.00	  111.46	 -922.71	   60.91
     60.1236	  121.00	  113.89	 -965.14	   60.84
     60.1570	  126.00	  116.60	 -962.85	   60.77
     60.1904	  141.00	  119.65	 -950.90	   60.70
     60.2238	  146.00	  123.06	 -949.31	   60.63
     60.2572	  144.00	  126.87	 -955.12	   60.56
     60.2907	  139.00	  131.13	 -964.38	   60.49
     60.3241	  153.00	  135.87	 -955.12	   60.43
     60.3575	  134.00	  141.11	 -979.36	   60.36
     60.3909	  160.00	  146.87	 -959.12	   60.29
     60.4244	  151.00	  152.95	 -974.20	   60.22
     60.4578	  172.00	  159.70	 -959.95	   60.15
     60.4912	  164.00	  166.83	 -975.08	   60.08
     60.5246	  214.00	  174.21	 -932.46	   60.02
     60.5581	  197.00	  181.54	 -956.79	   59.95
     60.5915	  216.00	  188.77	 -945.02	   59.88
     60.6249	  270.00	  195.53	 -897.78	   59.81
     60.6583	  236.00	  201.55	 -937.80	   59.74
     60.6917	  244.00	  206.62	 -934.87	   59.68
     60.7252	  233.00	  210.62	 -949.87	   59.61
     60.7586	  259.00	  213.50	 -926.75	   59.54
     60.7920	  255.00	  215.31	 -932.56	   59.47
     60.8254	  244.00	  216.14	 -944.39	   59.40
     60.8588	  247.00	  216.12	 -941.37	   59.34
     60.8923	  230.00	  215.37	 -957.62	   59.27
     60.9257	  247.00	  214.00	 -939.25	   59.20
     60.9591	  216.00	  212.13	 -968.38	   59.14
     60.9925	  219.00	  209.85	 -963.10	   59.07
     61.0260	  241.00	  207.27	 -938.52	   59.00
     61.0594	  226.00	  204.48	 -950.73	   58.93
     61.0928	  205.00	  201.57	 -968.82	   58.87
     61.1262	  233.00	  198.61	 -937.86	   58.80
     61.1597	  161.00	  195.68	-1006.93	   58.73
     61.1931	  220.00	  192.82	 -945.07	   58.67
     61.2265	  192.00	  190.01	 -970.26	   58.60
     61.2599	  196.00	  187.25	 -963.50	   58.53
     61.2933	  210.00	  184.46	 -946.71	   58.47
     61.3268	  202.00	  181.55	 -951.80	   58.40
     61.3602	  165.00	  178.44	 -985.69	   58.34
     61.3936	  183.00	  175.04	 -964.29	   58.27
     61.4270	  161.00	  171.32	 -982.57	   58.20
     61.4605	  168.00	  167.26	 -971.51	   58.14
     61.4939	  159.00	  162.89	 -976.14	   58.07
     61.5273	  139.00	  158.27	 -991.52	   58.01
     61.5607	  157.00	  153.47	 -968.72	   57.94
     61.5941	  158.00	  148.58	 -962.83	   57.87
     61.6276	  133.00	  143.70	 -982.95	   57.81
     61.6610	  134.00	  138.90	 -977.15	   57.74
     61.6944	  142.00	  134.28	 -964.53	   57.68
     61.7278	  105.00	  129.90	 -997.15	   57.61
     61.7613	  137.00	  125.80	 -961.05	   57.55
     61.7947	  101.00	  122.01	 -993.26	   57.48
     61.8281	  122.00	  118.54	 -968.79	   57.42
     61.8615	  115.00	  115.39	 -972.64	   57.35
     61.8950	  116.00	  112.55	 -968.80	   57.29
     61.9284	  109.00	  110.00	 -973.25	   57.22
     61.9618	  108.00	  107.72	 -971.97	   57.16
     61.9952	  117.00	  105.69	 -960.94	   57.09
     62.0286	  116.00	  103.89	 -960.14	   57.03
     62.0621	  100.00	  102.30	 -974.55	   56.96
     62.0955	  110.00	  100.90	 -963.15	   56.90
     62.1289	  109.00	   99.68	 -962.93	   56.84
     62.1623	   83.00	   98.62	 -987.87	   56.77
     62.1958	   70.00	   97.72	 -999.97	   56.71
     62.2292	   94.00	   96.96	 -975.21	   56.64
     62.2626	   94.00	   96.34	 -974.59	   56.58
     62.2960	   83.00	   95.85	 -985.10	   56.51
     62.3294	  112.00	   95.49	 -955.74	   56.45
     62.3629	   78.00	   95.25	 -989.50	   56.39
     62.3963	  105.00	   95.13	 -962.38	   56.32
     62.4297	   95.00	   95.15	 -972.40	   56.26
     62.4631	   85.00	   95.29	 -982.54	   56.20
     62.4966	   83.00	   95.57	 -984.82	   56.13
     62.5300	   95.00	   95.99	 -973.24	   56.07
     62.5634	   87.00	   96.56	 -981.81	   56.01
     62.5968	   91.00	   97.29	 -978.54	   55.94
     62.6302	   88.00	   98.19	 -982.44	   55.88
     62.6637	   94.00	   99.27	 -977.52	   55.82
     62.6971	  104.00	  100.52	 -968.77	   55.75
     62.7305	   99.00	  101.96	 -975.21	   55.69
     62.7639	   97.00	  103.59	 -978.84	   55.63
     62.7974	  116.00	  105.39	 -961.64	   55.57
     62.8308	  101.00	  107.35	 -978.60	   55.50
     62.8642	   99.00	  109.43	 -982.68	   55.44
     62.8976	  135.00	  111.56	 -948.81	   55.38
     62.9311	  125.00	  113.68	 -960.93	   55.32
     62.9645	  126.00	  115.67	 -961.92	   55.25
     62.9979	  116.00	  117.44	 -973.69	   55.19
     63.0313	  133.00	  118.88	 -958.13	   55.13
     63.0647	  116.00	  119.89	 -976.14	   55.07
     63.0982	  149.00	  120.43	 -943.68	   55.01
     63.1316	  102.00	  120.45	 -990.70	   54.94
     63.1650	  115.00	  119.98	 -977.23	   54.88
     63.1984	  110.00	  119.07	 -981.32	   54.82
     63.2318	  128.00	  117.76	 -962.01	   54.76
     63.2653	  121.00	  116.16	 -967.41	   54.70
     63.2987	   94.00	  114.33	 -992.58	   54.64
     63.3321	  104.00	  112.36	 -980.61	   54.57
     63.3655	  114.00	  110.35	 -968.60	   54.51
     63.3990	   98.00	  108.36	 -982.61	   54.45
     63.4324	   96.00	  106.46	 -982.71	   54.39
     63.4658	  102.00	  104.69	 -974.94	   54.33
     63.4992	   95.00	  103.09	 -980.34	   54.27
     63.5327	  100.00	  101.67	 -973.92	   54.21
     63.5661	   95.00	  100.44	 -977.69	   54.15
     63.5995	  115.00	   99.41	 -956.66	   54.09
     63.6329	   90.00	   98.58	 -980.83	   54.03
     63.6663	   86.00	   97.93	 -984.18	   53.97
     63.6998	   87.00	   97.48	 -982.73	   53.91
     63.7332	   81.00	   97.20	 -988.45	   53.84
     63.7666	   96.00	   97.10	 -973.35	   53.78
     63.8000	  106.00	   97.18	 -963.43	   53.72
     63.8335	   90.00	   97.44	 -979.69	   53.66
     63.8669	   85.00	   97.87	 -985.12	   53.60
     63.9003	   81.00	   98.49	 -989.74	   53.54
     63.9337	   95.00	   99.30	 -976.55	   53.48
     63.9671	   81.00	  100.31	 -991.56	   53.42
     64.0006	   93.00	  101.53	 -980.78	   53.37
     64.0340	   90.00	  102.98	 -985.23	   53.31
     64.0674	   71.00	  104.68	-1005.93	   53.25
     64.1008	   98.00	  106.64	 -980.89	   53.19
     64.1343	   99.00	  108.89	 -982.14	   53.13
     64.1677	  127.00	  111.46	 -956.71	   53.07
     64.2011	  109.00	  114.37	 -977.62	   53.01
     64.2345	  104.00	  117.66	 -985.91	   52.95
     64.2680	  102.00	  121.34	 -991.59	   52.89
     64.3014	  102.00	  125.44	 -995.69	   52.83
     64.3348	  127.00	  130.01	 -975.26	   52.77
     64.3682	  114.00	  134.99	 -993.24	   52.72
     64.4016	  155.00	  140.40	 -957.65	   52.66
     64.4351	  134.00	  146.17	 -984.42	   52.60
     64.4685	  140.00	  152.21	 -984.46	   52.54
     64.5019	  147.00	  158.41	 -983.66	   52.48
     64.5353	  183.00	  164.55	 -953.80	   52.42
     64.5688	  187.00	  170.40	 -955.65	   52.36
     64.6022	  214.00	  175.68	 -933.93	   52.31
     64.6356	  205.00	  180.13	 -947.38	   52.25
     64.6690	  213.00	  183.52	 -942.77	   52.19
     64.7024	  188.00	  185.67	 -969.92	   52.13
     64.7359	  225.00	  186.52	 -933.77	   52.08
     64.7693	  213.00	  186.07	 -945.32	   52.02
     64.8027	  175.00	  184.42	 -981.67	   51.96
     64.8361	  210.00	  181.73	 -943.98	   51.90
     64.8696	  199.00	  178.19	 -951.44	   51.85
     64.9030	  183.00	  174.02	 -963.27	   51.79
     64.9364	  204.00	  169.44	 -937.69	   51.73
     64.9698	  178.00	  164.67	 -958.92	   51.67
     65.0033	  170.00	  159.94	 -962.19	   51.62
     65.0367	  149.00	  155.41	 -978.66	   51.56
     65.0701	  170.00	  151.25	 -953.50	   51.50
     65.1035	  149.00	  147.53	 -970.78	   51.45
     65.1369	  143.00	  144.35	 -973.60	   51.39
     65.1704	  147.00	  141.76	 -967.01	   51.33
     65.2038	  141.00	  139.77	 -971.02	   51.28
     65.2372	  140.00	  138.39	 -970.64	   51.22
     65.2706	  146.00	  137.60	 -963.85	   51.16
     65.3040	  157.00	  137.39	 -952.64	   51.11
     65.3375	  139.00	  137.69	 -970.94	   51.05
     65.3709	  139.00	  138.46	 -971.71	   51.00
     65.4043	  139.00	  139.60	 -972.85	   50.94
     65.4377	  152.00	  141.00	 -961.25	   50.88
     65.4712	  151.00	  142.51	 -963.76	   50.83
     65.5046	  148.00	  143.97	 -968.22	   50.77
     65.5380	  150.00	  145.20	 -967.45	   50.72
     65.5714	  161.00	  146.03	 -957.28	   50.66
     65.6049	  141.00	  146.32	 -977.57	   50.61
     65.6383	  174.00	  145.98	 -944.23	   50.55
     65.6717	  165.00	  144.94	 -952.19	   50.50
     65.7051	  153.00	  143.23	 -962.48	   50.44
     65.7385	  128.00	  140.89	 -985.14	   50.38
     65.7720	  155.00	  137.99	 -955.24	   50.33
     65.8054	  137.00	  134.64	 -969.89	   50.27
     65.8388	  129.00	  130.96	 -974.21	   50.22
     65.8722	  134.00	  127.05	 -965.30	   50.17
     65.9057	  100.00	  123.03	 -995.28	   50.11
     65.9391	  128.00	  119.01	 -963.26	   50.06
     65.9725	  125.00	  115.08	 -962.33	   50.00
     66.0059	  132.00	  111.30	 -951.55	   49.95
     66.0393	   98.00	  107.73	 -981.98	   49.89
     66.0728	   84.00	  104.38	 -992.63	   49.84
     66.1062	   87.00	  101.28	 -986.53	   49.79
     66.1396	  105.00	   98.43	 -965.68	   49.73
     66.1730	   94.00	   95.82	 -974.07	   49.68
     66.2065	   99.00	   93.43	 -966.68	   49.62
     66.2399	  102.00	   91.26	 -961.51	   49.57
     66.2733	   87.00	   89.29	 -974.54	   49.52
     66.3067	  100.00	   87.49	 -959.74	   49.46
     66.3401	   73.00	   85.85	 -985.10	   49.41
     66.3736	   80.00	   84.36	 -976.61	   49.36
     66.4070	  102.00	   83.00	 -953.25	   49.30
     66.4404	   90.00	   81.75	 -964.00	   49.25
     66.4738	   81.00	   80.62	 -971.87	   49.20
     66.5073	   94.00	   79.57	 -957.82	   49.14
     66.5407	   78.00	   78.61	 -972.86	   49.09
     66.5741	   66.00	   77.73	 -983.98	   49.04
     66.6075	   65.00	   76.92	 -984.17	   48.98
     66.6410	   71.00	   76.17	 -977.42	   48.93
     66.6744	   74.00	   75.47	 -973.72	   48.88
     66.7078	   75.00	   74.82	 -972.07	   48.83
     66.7412	   78.00	   74.22	 -968.47	   48.77
     66.7746	   75.00	   73.66	 -970.91	   48.72
     66.8081	   75.00	   73.14	 -970.39	   48.67
     66.8415	   69.00	   72.65	 -975.90	   48.62
     66.8749	   82.00	   72.20	 -962.45	   48.57
     66.9083	   89.00	   71.77	 -955.02	   48.51
     66.9418	   63.00	   71.37	 -980.62	   48.46
     66.9752	   62.00	   70.99	 -981.24	   48.41
     67.0086	   64.00	   70.64	 -978.89	   48.36
     67.0420	   51.00	   70.31	 -991.56	   48.31
     67.0754	   72.00	   69.99	 -970.24	   48.26
     67.1089	   66.00	   69.70	 -975.95	   48.20
     67.1423	   62.00	   69.42	 -979.67	   48.15
     67.1757	   63.00	   69.16	 -978.41	   48.10
     67.2091	   71.00	   68.91	 -970.16	   48.05
     67.2426	   50.00	   68.68	 -990.93	   48.00
     67.2760	   80.00	   68.46	 -960.71	   47.95
     67.3094	   59.00	   68.25	 -981.50	   47.90
     67.3428	   67.00	   68.05	 -973.30	   47.85
     67.3762	   64.00	   67.87	 -976.12	   47.80
     67.4097	   56.00	   67.70	 -983.95	   47.75
     67.4431	   69.00	   67.54	 -970.79	   47.70
     67.4765	   66.00	   67.39	 -973.64	   47.65
     67.5099	   58.00	   67.25	 -981.50	   47.60
     67.5434	   60.00	   67.12	 -979.37	   47.54
     67.5768	   50.00	   67.00	 -989.25	   47.49
     67.6102	   59.00	   66.88	 -980.13	   47.44
     67.6436	   65.00	   66.78	 -974.03	   47.39
     67.6770	   71.00	   66.69	 -967.94	   47.35
     67.7105	   56.00	   66.61	 -982.86	   47.30
     67.7439	   54.00	   66.53	 -984.78	   47.25
     67.7773	   59.00	   66.47	 -979.72	   47.20
     67.8107	   57.00	   66.42	 -981.67	   47.15
     67.8442	   51.00	   66.37	 -987.62	   47.10
     67.8776	   75.00	   66.34	 -963.59	   47.05
     67.9110	   64.00	   66.31	 -974.56	   47.00
     67.9444	   57.00	   66.30	 -981.55	   46.95
     67.9779	   60.00	   66.30	 -978.55	   46.90
     68.0113	   62.00	   66.31	 -976.56	   46.85
     68.0447	   71.00	   66.34	 -967.59	   46.80
     68.0781	   58.00	   66.37	 -980.62	   46.75
     68.1115	   67.00	   66.42	 -971.67	   46.71
     68.1450	   81.00	   66.49	 -957.74	   46.66
     68.1784	   57.00	   66.57	 -981.82	   46.61
     68.2118	   53.00	   66.67	 -985.92	   46.56
     68.2452	   84.00	   66.79	 -955.04	   46.51
     68.2787	   73.00	   66.93	 -966.18	   46.46
     68.3121	   59.00	   67.09	 -980.34	   46.42
     68.3455	   64.00	   67.28	 -975.53	   46.37
     68.3789	   65.00	   67.49	 -974.74	   46.32
     68.4123	   82.00	   67.74	 -957.99	   46.27
     68.4458	   56.00	   68.01	 -984.26	   46.22
     68.4792	   55.00	   68.32	 -985.57	   46.18
     68.5126	   64.00	   68.68	 -976.93	   46.13
     68.5460	   62.00	   69.07	 -979.32	   46.08
     68.5795	   66.00	   69.52	 -975.77	   46.03
     68.6129	   82.00	   70.01	 -960.26	   45.99
     68.6463	   78.00	   70.57	 -964.82	   45.94
     68.6797	   68.00	   71.19	 -975.44	   45.89
     68.7132	   76.00	   71.89	 -968.14	   45.85
     68.7466	   62.00	   72.65	 -982.90	   45.80
     68.7800	   78.00	   73.50	 -967.75	   45.75
     68.8134	   86.00	   74.43	 -960.68	   45.71
     68.8468	   94.00	   75.45	 -953.70	   45.66
     68.8803	   84.00	   76.56	 -964.81	   45.61
     68.9137	   66.00	   77.75	 -984.00	   45.57
     68.9471	   78.00	   79.01	 -973.26	   45.52
     68.9805	   94.00	   80.32	 -958.57	   45.47
     69.0140	   72.00	   81.65	 -981.90	   45.43
     69.0474	   90.00	   82.98	 -965.23	   45.38
     69.0808	   81.00	   84.25	 -975.50	   45.34
     69.1142	  108.00	   85.43	 -949.68	   45.29
     69.1476	  108.00	   86.45	 -950.70	   45.24
     69.1811	   95.00	   87.28	 -964.53	   45.20
     69.2145	   98.00	   87.89	 -962.14	   45.15
     69.2479	  100.00	   88.27	 -960.52	   45.11
     69.2813	  102.00	   88.41	 -958.66	   45.06
     69.3148	   85.00	   88.33	 -975.58	   45.02
     69.3482	  118.00	   88.06	 -942.31	   44.97
     69.3816	   95.00	   87.62	 -964.87	   44.93
     69.4150	   81.00	   87.06	 -978.31	   44.88
     69.4484	  100.00	   86.41	 -958.66	   44.84
     69.4819	   87.00	   85.73	 -970.98	   44.79
     69.5153	   94.00	   85.05	 -963.30	   44.75
     69.5487	  100.00	   84.41	 -956.66	   44.70
     69.5821	   70.00	   83.85	 -986.10	   44.66
     69.6156	   86.00	   83.39	 -969.64	   44.61
     69.6490	   90.00	   83.07	 -965.32	   44.57
     69.6824	   83.00	   82.89	 -972.14	   44.52
     69.7158	   80.00	   82.88	 -975.13	   44.48
     69.7492	   85.00	   83.04	 -970.29	   44.44
     69.7827	   71.00	   83.39	 -984.64	   44.39
     69.8161	   98.00	   83.92	 -958.17	   44.35
     69.8495	   83.00	   84.64	 -973.89	   44.30
     69.8829	   71.00	   85.54	 -986.79	   44.26
     69.9164	   86.00	   86.59	 -972.84	   44.22
     69.9498	   93.00	   87.84	 -967.09	   44.17
     69.9832	   90.00	   89.24	 -971.49	   44.13
     70.0166	   76.00	   90.75	 -987.00	   44.09
     70.0500	   94.00	   92.33	 -970.58	   44.04
     70.0835	   91.00	   93.92	 -975.17	   44.00
     70.1169	   80.00	   95.44	 -987.69	   43.96
     70.1503	  102.00	   96.84	 -967.09	   43.91
     70.1837	  100.00	   98.03	 -970.28	   43.87
     70.2172	   99.00	   98.92	 -972.17	   43.83
     70.2506	  100.00	   99.47	 -971.72	   43.79
     70.2840	  104.00	   99.64	 -967.89	   43.74
     70.3174	  113.00	   99.41	 -958.66	   43.70
     70.3509	   94.00	   98.80	 -977.05	   43.66
     70.3843	   94.00	   97.84	 -976.09	   43.62
     70.4177	   84.00	   96.57	 -984.82	   43.57
     70.4511	  106.00	   95.03	 -961.28	   43.53
     70.4845	   86.00	   93.30	 -979.55	   43.49
     70.5180	  110.00	   91.41	 -953.66	   43.45
     70.5514	   66.00	   89.43	 -995.68	   43.41
     70.5848	   66.00	   87.42	 -993.67	   43.36
     70.6182	   72.00	   85.42	 -985.67	   43.32
     70.6517	   97.00	   83.47	 -958.72	   43.28
     70.6851	   90.00	   81.60	 -963.85	   43.24
     70.7185	   54.00	   79.84	 -998.09	   43.20
     70.7519	   87.00	   78.19	 -963.44	   43.16
     70.7853	   86.00	   76.67	 -962.92	   43.12
     70.8188	   63.00	   75.27	 -984.52	   43.07
     70.8522	   75.00	   73.98	 -971.23	   43.03
     70.8856	   63.00	   72.81	 -982.06	   42.99
     70.9190	   73.00	   71.66	 -970.91	   42.95
     70.9525	   66.00	   70.69	 -976.94	   42.91
     70.9859	   81.00	   69.82	 -961.07	   42.87
     71.0193	   56.00	   69.03	 -985.28	   42.83
     71.0527	   56.00	   68.31	 -984.56	   42.79
     71.0862	   59.00	   67.63	 -980.88	   42.75
     71.1196	   67.00	   67.04	 -972.29	   42.71
     71.1530	   67.00	   66.52	 -971.77	   42.67
     71.1864	   48.00	   66.05	 -990.30	   42.63
     71.2198	   57.00	   65.62	 -980.87	   42.59
     71.2533	   67.00	   65.24	 -970.49	   42.55
     71.2867	   72.00	   64.90	 -965.15	   42.51
     71.3201	   43.00	   64.60	 -993.85	   42.47
     71.3535	   62.00	   64.34	 -974.59	   42.43
     71.3870	   53.00	   64.10	 -983.35	   42.39
     71.4204	   60.00	   63.90	 -976.15	   42.35
     71.4538	   62.00	   63.72	 -973.97	   42.31
     71.4872	   57.00	   63.57	 -978.82	   42.27
     71.5206	   58.00	   63.45	 -977.70	   42.23
     71.5541	   55.00	   63.36	 -980.61	   42.19
     71.5875	   52.00	   63.28	 -983.53	   42.16
     71.6209	   52.00	   63.24	 -983.49	   42.12
     71.6543	   56.00	   63.22	 -979.47	   42.08
     71.6878	   62.00	   63.22	 -973.47	   42.04
     71.7212	   59.00	   63.24	 -976.49	   42.00
     71.7546	   59.00	   63.29	 -976.54	   41.96
     71.7880	   67.00	   63.37	 -968.62	   41.92
     71.8214	   54.00	   63.48	 -981.73	   41.88
     71.8549	   45.00	   63.61	 -990.86	   41.85
     71.8883	   64.00	   63.79	 -972.04	   41.81
     71.9217	   69.00	   63.99	 -967.24	   41.77
     71.9551	   56.00	   64.22	 -980.47	   41.73
     71.9886	   75.00	   64.49	 -961.74	   41.69
     72.0220	   62.00	   64.80	 -975.05	   41.66
     72.0554	   57.00	   65.16	 -980.41	   41.62
     72.0888	   53.00	   65.58	 -984.83	   41.58
     72.1222	   69.00	   66.03	 -969.28	   41.54
     72.1557	   71.00	   66.54	 -967.79	   41.51
     72.1891	   49.00	   67.11	 -990.36	   41.47
     72.2225	   76.00	   67.75	 -964.00	   41.43
     72.2559	   64.00	   68.47	 -976.72	   41.40
     72.2894	   76.00	   69.27	 -965.52	   41.36
     72.3228	   82.00	   70.16	 -960.41	   41.32
     72.3562	   67.00	   71.14	 -976.39	   41.28
     72.3896	   81.00	   72.23	 -963.48	   41.25
     72.4230	   83.00	   73.44	 -962.69	   41.21
     72.4565	   74.00	   74.76	 -973.01	   41.18
     72.4899	   62.00	   76.22	 -986.47	   41.14
     72.5233	  105.00	   77.80	 -945.05	   41.10
     72.5567	   59.00	   79.51	 -992.76	   41.07
     72.5902	   85.00	   81.35	 -968.60	   41.03
     72.6236	   75.00	   83.29	 -980.54	   40.99
     72.6570	   87.00	   85.32	 -970.57	   40.96
     72.6904	   98.00	   87.41	 -961.66	   40.92
     72.7239	  100.00	   89.49	 -961.74	   40.89
     72.7573	  102.00	   91.52	 -961.77	   40.85
     72.7907	  100.00	   93.43	 -965.68	   40.82
     72.8241	  104.00	   95.14	 -963.39	   40.78
     72.8575	   81.00	   96.58	 -987.83	   40.74
     72.8910	  103.00	   97.69	 -966.94	   40.71
     72.9244	  124.00	   98.42	 -946.67	   40.67
     72.9578	  119.00	   98.77	 -952.02	   40.64
     72.9912	  113.00	   98.73	 -957.98	   40.60
     73.0247	  111.00	   98.33	 -959.58	   40.57
     73.0581	   99.00	   97.59	 -970.84	   40.53
     73.0915	   97.00	   96.57	 -971.82	   40.50
     73.1249	  109.00	   95.32	 -958.57	   40.46
     73.1583	  108.00	   93.90	 -958.15	   40.43
     73.1918	  111.00	   92.36	 -953.61	   40.40
     73.2252	   95.00	   90.76	 -968.01	   40.36
     73.2586	   91.00	   89.15	 -970.40	   40.33
     73.2920	   84.00	   87.59	 -975.84	   40.29
     73.3255	   98.00	   86.10	 -960.35	   40.26
     73.3589	   60.00	   84.73	 -996.98	   40.22
     73.3923	   99.00	   83.48	 -956.73	   40.19
     73.4257	   85.00	   82.36	 -969.61	   40.16
     73.4592	   98.00	   81.37	 -955.62	   40.12
     73.4926	   80.00	   80.50	 -972.75	   40.09
     73.5260	   98.00	   79.73	 -953.98	   40.06
     73.5594	   67.00	   79.04	 -984.29	   40.02
     73.5928	   86.00	   78.40	 -964.65	   39.99
     73.6263	   89.00	   77.78	 -961.03	   39.96
     73.6597	   90.00	   77.16	 -959.41	   39.92
     73.6931	   72.00	   76.52	 -976.77	   39.89
     73.7265	   79.00	   75.84	 -969.09	   39.86
     73.7599	   94.00	   75.11	 -953.36	   39.82
     73.7934	   66.00	   74.34	 -980.59	   39.79
     73.8268	   98.00	   73.53	 -947.78	   39.76
     73.8602	   75.00	   72.67	 -969.92	   39.73
     73.8936	   95.00	   71.78	 -949.03	   39.69
     73.9271	   75.00	   70.86	 -968.11	   39.66
     73.9605	   76.00	   69.94	 -966.19	   39.63
     73.9939	   65.00	   69.02	 -976.27	   39.60
     74.0273	   84.00	   68.11	 -956.36	   39.56
     74.0608	   80.00	   67.23	 -959.48	   39.53
     74.0942	   67.00	   66.38	 -971.63	   39.50
     74.1276	   74.00	   65.57	 -963.82	   39.47
     74.1610	   70.00	   64.81	 -967.06	   39.44
     74.1944	   74.00	   64.09	 -962.34	   39.41
     74.2279	   68.00	   63.42	 -967.67	   39.37
     74.2613	   65.00	   62.80	 -970.05	   39.34
     74.2947	   60.00	   62.23	 -974.48	   39.31
     74.3281	   69.00	   61.70	 -964.95	   39.28
     74.3616	   79.00	   61.22	 -954.47	   39.25
     74.3950	   72.00	   60.77	 -961.02	   39.22
     74.4284	   72.00	   60.37	 -960.62	   39.19
     74.4618	   66.00	   59.99	 -966.24	   39.16
     74.4952	   69.00	   59.65	 -962.90	   39.12
     74.5287	   68.00	   59.34	 -963.59	   39.09
     74.5621	   60.00	   59.06	 -971.31	   39.06
     74.5955	   65.00	   58.80	 -966.05	   39.03
     74.6289	   56.00	   58.57	 -974.82	   39.00
     74.6624	   70.00	   58.35	 -960.60	   38.97
     74.6958	   60.00	   58.16	 -970.41	   38.94
     74.7292	   54.00	   58.00	 -976.25	   38.91
     74.7626	   68.00	   57.85	 -962.10	   38.88
     74.7961	   78.00	   57.67	 -951.92	   38.85
     74.8295	   71.00	   57.54	 -958.79	   38.82
     74.8629	   47.00	   57.44	 -982.69	   38.79
     74.8963	   65.00	   57.35	 -964.60	   38.76
     74.9297	   60.00	   57.27	 -969.52	   38.73
     74.9632	   53.00	   57.21	 -976.46	   38.70
     74.9966	   62.00	   57.14	 -967.39	   38.67
     75.0300	   70.00	   57.11	 -959.36	   38.64
     75.0634	   68.00	   57.08	 -961.33	   38.61
     75.0969	   59.00	   57.07	 -970.32	   38.59
     75.1303	   55.00	   57.08	 -974.33	   38.56
     75.1637	   66.00	   57.10	 -963.35	   38.53
     75.1971	   59.00	   57.11	 -970.36	   38.50
     75.2305	   79.00	   57.16	 -950.41	   38.47
     75.2640	   68.00	   57.22	 -961.47	   38.44
     75.2974	   57.00	   57.30	 -972.55	   38.41
     75.3308	   60.00	   57.40	 -969.65	   38.38
     75.3642	   70.00	   57.51	 -959.76	   38.36
     75.3977	   80.00	   57.64	 -949.89	   38.33
     75.4311	   73.00	   57.79	 -957.04	   38.30
     75.4645	   65.00	   57.97	 -965.22	   38.27
     75.4979	   65.00	   58.17	 -965.42	   38.24
     75.5313	   69.00	   58.40	 -961.65	   38.21
     75.5648	   74.00	   58.65	 -956.90	   38.19
     75.5982	   57.00	   58.94	 -974.19	   38.16
     75.6316	   66.00	   59.24	 -965.49	   38.13
     75.6650	   60.00	   59.60	 -971.85	   38.10
     75.6985	   70.00	   59.99	 -962.24	   38.08
     75.7319	   78.00	   60.43	 -954.68	   38.05
     75.7653	   58.00	   60.91	 -975.16	   38.02
     75.7987	   68.00	   61.44	 -965.69	   37.99
     75.8321	   89.00	   62.01	 -945.26	   37.97
     75.8656	   87.00	   62.65	 -947.90	   37.94
     75.8990	   84.00	   63.34	 -951.59	   37.91
     75.9324	   84.00	   64.08	 -952.33	   37.89
     75.9658	   79.00	   64.88	 -958.13	   37.86
     75.9993	   70.00	   65.73	 -967.98	   37.83
     76.0327	   66.00	   66.62	 -972.87	   37.81
     76.0661	   97.00	   67.54	 -942.79	   37.78
     76.0995	   95.00	   68.48	 -945.73	   37.75
     76.1329	   83.00	   69.42	 -958.67	   37.73
     76.1664	   91.00	   70.34	 -951.59	   37.70
     76.1998	   83.00	   71.20	 -960.45	   37.67
     76.2332	   91.00	   72.00	 -953.25	   37.65
     76.2666	   90.00	   72.71	 -954.96	   37.62
     76.3001	   89.00	   73.31	 -956.56	   37.60
     76.3335	   95.00	   73.80	 -951.05	   37.57
     76.3669	  102.00	   74.18	 -944.43	   37.54
     76.4003	  108.00	   74.45	 -938.70	   37.52
     76.4338	  114.00	   74.63	 -932.88	   37.49
     76.4672	  105.00	   74.74	 -941.99	   37.47
     76.5006	   96.00	   74.79	 -951.04	   37.44
     76.5340	   95.00	   74.82	 -952.07	   37.42
     76.5674	   96.00	   74.83	 -951.08	   37.39
     76.6009	  117.00	   74.85	 -930.10	   37.37
     76.6343	  101.00	   74.92	 -946.17	   37.34
     76.6677	   94.00	   75.04	 -953.29	   37.32
     76.7011	   93.00	   75.24	 -954.49	   37.29
     76.7346	   90.00	   75.54	 -957.79	   37.27
     76.7680	  105.00	   75.95	 -943.20	   37.24
     76.8014	  108.00	   76.47	 -940.72	   37.22
     76.8348	  116.00	   77.10	 -933.35	   37.20
     76.8682	  113.00	   77.83	 -937.08	   37.17
     76.9017	   99.00	   78.66	 -951.91	   37.15
     76.9351	  118.00	   79.55	 -933.80	   37.12
     76.9685	  126.00	   80.47	 -926.72	   37.10
     77.0019	  112.00	   81.39	 -941.64	   37.07
     77.0354	  104.00	   82.25	 -950.50	   37.05
     77.0688	  120.00	   83.03	 -935.28	   37.03
     77.1022	  112.00	   83.65	 -943.90	   37.00
     77.1356	  118.00	   84.09	 -938.34	   36.98
     77.1691	  120.00	   84.31	 -936.56	   36.96
     77.2025	  116.00	   84.29	 -940.54	   36.93
     77.2359	  110.00	   84.03	 -946.28	   36.91
     77.2693	  111.00	   83.54	 -944.79	   36.89
     77.3027	  109.00	   82.83	 -946.08	   36.86
     77.3362	  117.00	   81.91	 -937.16	   36.84
     77.3696	  102.00	   80.83	 -951.08	   36.82
     77.4030	  126.00	   79.60	 -925.85	   36.79
     77.4364	  108.00	   78.26	 -942.51	   36.77
     77.4699	   90.00	   76.84	 -959.09	   36.75
     77.5033	  105.00	   75.38	 -942.63	   36.73
     77.5367	  108.00	   73.90	 -938.15	   36.70
     77.5701	   91.00	   72.43	 -953.68	   36.68
     77.6035	   86.00	   71.00	 -957.25	   36.66
     77.6370	  103.00	   69.62	 -938.87	   36.64
     77.6704	  105.00	   68.29	 -935.54	   36.61
     77.7038	   89.00	   67.04	 -950.29	   36.59
     77.7372	   88.00	   65.89	 -950.14	   36.57
     77.7707	   94.00	   64.80	 -943.05	   36.55
     77.8041	   86.00	   63.80	 -950.05	   36.53
     77.8375	   85.00	   62.87	 -950.12	   36.50
     77.8709	   94.00	   62.01	 -940.26	   36.48
     77.9043	   90.00	   61.22	 -943.47	   36.46
     77.9378	   71.00	   60.51	 -961.76	   36.44
     77.9712	   89.00	   59.85	 -943.10	   36.42
     78.0046	   99.00	   59.24	 -932.49	   36.40
     78.0380	   78.00	   58.68	 -952.93	   36.38
     78.0715	   86.00	   58.17	 -944.42	   36.36
     78.1049	   69.00	   57.70	 -960.95	   36.33
     78.1383	   81.00	   57.27	 -948.52	   36.31
     78.1717	   73.00	   56.88	 -956.13	   36.29
     78.2051	   72.00	   56.51	 -956.76	   36.27
     78.2386	   80.00	   56.18	 -948.43	   36.25
     78.2720	   70.00	   55.87	 -958.12	   36.23
     78.3054	   59.00	   55.58	 -968.83	   36.21
     78.3388	   72.00	   55.32	 -955.57	   36.19
     78.3723	   72.00	   55.08	 -955.33	   36.17
     78.4057	   65.00	   54.85	 -962.10	   36.15
     78.4391	   80.00	   54.65	 -946.90	   36.13
     78.4725	   68.00	   54.45	 -958.70	   36.11
     78.5060	   78.00	   54.27	 -948.52	   36.09
     78.5394	   85.00	   54.10	 -941.35	   36.07
     78.5728	   58.00	   53.95	 -968.20	   36.05
     78.6062	   82.00	   53.81	 -944.06	   36.03
     78.6396	   70.00	   53.67	 -955.92	   36.01
     78.6731	   70.00	   53.55	 -955.80	   35.99
     78.7065	   65.00	   53.44	 -960.69	   35.97
     78.7399	   69.00	   53.33	 -956.58	   35.95
     78.7733	   73.00	   53.23	 -952.48	   35.93
     78.8068	   52.00	   53.14	 -973.39	   35.91
     78.8402	   76.00	   53.06	 -949.31	   35.89
     78.8736	   72.00	   53.00	 -953.25	   35.88
     78.9070	   82.00	   52.93	 -943.18	   35.86
     78.9404	   68.00	   52.87	 -957.12	   35.84
     78.9739	   70.00	   52.81	 -955.06	   35.82
     79.0073	   59.00	   52.77	 -966.02	   35.80
     79.0407	   67.00	   52.72	 -957.97	   35.78
     79.0741	   78.00	   52.69	 -946.94	   35.76
     79.1076	   62.00	   52.66	 -962.91	   35.75
     79.1410	   67.00	   52.64	 -957.89	   35.73
     79.1744	   67.00	   52.62	 -957.87	   35.71
     79.2078	   62.00	   52.61	 -962.86	   35.69
     79.2412	   78.00	   52.61	 -946.86	   35.67
     79.2747	   64.00	   52.61	 -960.86	   35.65
     79.3081	   75.00	   52.61	 -949.86	   35.64
     79.3415	   73.00	   52.62	 -951.87	   35.62
     79.3749	   76.00	   52.64	 -948.89	   35.60
     79.4084	   69.00	   52.66	 -955.91	   35.58
     79.4418	   67.00	   52.69	 -957.94	   35.57
     79.4752	   64.00	   52.73	 -960.98	   35.55
     79.5086	   69.00	   52.77	 -956.02	   35.53
     79.5421	   53.00	   52.82	 -972.07	   35.51
     79.5755	   59.00	   52.88	 -966.13	   35.50
     79.6089	   59.00	   52.90	 -966.15	   35.48
     79.6423	   80.00	   52.97	 -945.22	   35.46
     79.6757	   64.00	   53.05	 -961.30	   35.45
     79.7092	   66.00	   53.13	 -959.38	   35.43
     79.7426	   67.00	   53.23	 -958.48	   35.41
     79.7760	   60.00	   53.34	 -965.59	   35.40
     79.8094	   80.00	   53.43	 -945.68	   35.38
     79.8428	   66.00	   53.55	 -959.80	   35.36
     79.8763	   69.00	   53.69	 -956.94	   35.35
     79.9097	   62.00	   53.84	 -964.09	   35.33
     79.9431	   54.00	   54.00	 -972.25	   35.31
     79.9765	   69.00	   54.17	 -957.42	   35.30
     80.0100	   43.00	   54.36	 -983.61	   35.28
     80.0434	   60.00	   54.56	 -966.81	   35.27
     80.0768	   60.00	   54.78	 -967.03	   35.25
     80.1102	   63.00	   55.02	 -964.27	   35.23
     80.1437	   75.00	   55.28	 -952.53	   35.22
     80.1771	   63.00	   55.55	 -964.80	   35.20
     80.2105	   68.00	   55.85	 -960.10	   35.19
     80.2439	   65.00	   56.18	 -963.43	   35.17
     80.2773	   65.00	   56.53	 -963.78	   35.16
     80.3108	   58.00	   56.91	 -971.16	   35.14
     80.3442	   75.00	   57.32	 -954.57	   35.13
     80.3776	   85.00	   57.76	 -945.01	   35.11
     80.4110	   78.00	   58.25	 -952.50	   35.10
     80.4445	   56.00	   58.77	 -975.02	   35.08
     80.4779	   68.00	   59.33	 -963.58	   35.07
     80.5113	   80.00	   59.94	 -952.19	   35.05
     80.5447	   81.00	   60.59	 -951.84	   35.04
     80.5781	   63.00	   61.29	 -970.54	   35.02
     80.6116	   72.00	   62.04	 -962.29	   35.01
     80.6450	   87.00	   62.85	 -948.10	   34.99
     80.6784	   88.00	   63.70	 -947.95	   34.98
     80.7118	   74.00	   64.60	 -962.85	   34.96
     80.7453	   75.00	   65.53	 -962.78	   34.95
     80.7787	   84.00	   66.52	 -954.77	   34.94
     80.8121	   79.00	   67.55	 -960.80	   34.92
     80.8455	   82.00	   68.61	 -958.86	   34.91
     80.8790	   72.00	   69.69	 -969.94	   34.89
     80.9124	   67.00	   70.78	 -976.03	   34.88
     80.9458	   98.00	   71.88	 -946.13	   34.87
     80.9792	   93.00	   73.01	 -952.26	   34.85
     81.0126	   95.00	   74.14	 -951.39	   34.84
     81.0461	   76.00	   75.30	 -971.55	   34.83
     81.0795	   86.00	   76.47	 -962.72	   34.81
     81.1129	   86.00	   77.68	 -963.93	   34.80
     81.1463	  104.00	   78.91	 -947.16	   34.79
     81.1798	   87.00	   80.19	 -965.44	   34.77
     81.2132	  100.00	   81.49	 -953.74	   34.76
     81.2466	  110.00	   82.83	 -945.08	   34.75
     81.2800	  109.00	   84.17	 -947.42	   34.73
     81.3134	  104.00	   85.52	 -953.77	   34.72
     81.3469	   99.00	   86.83	 -960.08	   34.71
     81.3803	   94.00	   88.08	 -966.33	   34.70
     81.4137	  106.00	   89.23	 -955.48	   34.68
     81.4471	  103.00	   90.24	 -959.49	   34.67
     81.4806	  115.00	   91.07	 -948.32	   34.66
     81.5140	  140.00	   91.70	 -923.95	   34.65
     81.5474	  127.00	   92.09	 -937.34	   34.64
     81.5808	  116.00	   92.25	 -948.50	   34.62
     81.6143	  104.00	   92.16	 -960.41	   34.61
     81.6477	  105.00	   91.83	 -959.08	   34.60
     81.6811	  136.00	   91.29	 -927.54	   34.59
     81.7145	  121.00	   90.55	 -941.80	   34.58
     81.7479	  105.00	   89.65	 -956.90	   34.56
     81.7814	  105.00	   88.60	 -955.85	   34.55
     81.8148	  143.00	   87.44	 -916.69	   34.54
     81.8482	  126.00	   86.20	 -932.45	   34.53
     81.8816	  120.00	   84.90	 -937.15	   34.52
     81.9151	  116.00	   83.57	 -939.82	   34.51
     81.9485	  110.00	   82.23	 -944.48	   34.50
     81.9819	  105.00	   80.91	 -948.16	   34.48
     82.0153	  129.00	   79.63	 -922.88	   34.47
     82.0487	   99.00	   78.38	 -951.63	   34.46
     82.0822	   98.00	   77.18	 -951.43	   34.45
     82.1156	  100.00	   76.04	 -948.29	   34.44
     82.1490	  108.00	   74.96	 -939.21	   34.43
     82.1824	   97.00	   73.93	 -949.18	   34.42
     82.2159	  109.00	   72.97	 -936.22	   34.41
     82.2493	   94.00	   72.07	 -950.32	   34.40
     82.2827	   84.00	   71.23	 -959.48	   34.39
     82.3161	   90.00	   70.45	 -952.70	   34.38
     82.3495	   90.00	   69.73	 -951.98	   34.37
     82.3830	   95.00	   69.07	 -946.32	   34.36
     82.4164	  124.00	   68.47	 -916.72	   34.35
     82.4498	   76.00	   67.94	 -964.19	   34.34
     82.4832	   84.00	   67.47	 -955.72	   34.33
     82.5167	  102.00	   67.06	 -937.31	   34.32
     82.5501	  113.00	   66.72	 -925.97	   34.31
     82.5835	   93.00	   66.44	 -945.69	   34.30
     82.6169	   91.00	   66.23	 -947.48	   34.29
     82.6503	   80.00	   66.08	 -958.33	   34.28
     82.6838	   73.00	   66.01	 -965.26	   34.27
     82.7172	   82.00	   66.00	 -956.25	   34.26
     82.7506	   90.00	   66.06	 -948.31	   34.25
     82.7840	   85.00	   66.20	 -953.45	   34.24
     82.8175	   95.00	   66.40	 -943.65	   34.23
     82.8509	   90.00	   66.68	 -948.93	   34.22
     82.8843	   85.00	   67.04	 -954.29	   34.21
     82.9177	   81.00	   67.48	 -958.73	   34.20
     82.9511	   75.00	   67.99	 -965.24	   34.20
     82.9846	   79.00	   68.60	 -961.85	   34.19
     83.0180	   95.00	   69.29	 -946.54	   34.18
     83.0514	   76.00	   70.08	 -966.33	   34.17
     83.0848	   74.00	   70.97	 -969.22	   34.16
     83.1183	   82.00	   71.97	 -962.22	   34.15
     83.1517	   96.00	   73.08	 -949.33	   34.14
     83.1851	   87.00	   74.31	 -959.56	   34.14
     83.2185	   86.00	   75.67	 -961.92	   34.13
     83.2520	   89.00	   77.16	 -960.41	   34.12
     83.2854	  102.00	   78.78	 -949.03	   34.11
     83.3188	  100.00	   80.55	 -952.80	   34.10
     83.3522	   98.00	   82.45	 -956.70	   34.10
     83.3856	   94.00	   84.50	 -962.75	   34.09
     83.4191	  102.00	   86.68	 -956.93	   34.08
     83.4525	  113.00	   88.99	 -948.24	   34.07
     83.4859	   98.00	   91.39	 -965.64	   34.07
     83.5193	  108.00	   93.88	 -958.13	   34.06
     83.5528	  117.00	   96.40	 -951.65	   34.05
     83.5862	  124.00	   98.91	 -947.16	   34.04
     83.6196	  119.00	  101.37	 -954.62	   34.04
     83.6530	  120.00	  103.70	 -955.95	   34.03
     83.6864	  105.00	  105.84	 -973.09	   34.02
     83.7199	  140.00	  107.74	 -939.99	   34.01
     83.7533	  148.00	  109.33	 -933.58	   34.01
     83.7867	  112.00	  110.57	 -970.82	   34.00
     83.8201	  111.00	  111.43	 -972.68	   33.99
     83.8536	  120.00	  111.90	 -964.15	   33.99
     83.8870	  111.00	  112.00	 -973.25	   33.98
     83.9204	  120.00	  111.73	 -963.98	   33.97
     83.9538	  129.00	  111.12	 -954.37	   33.97
     83.9873	  129.00	  110.23	 -953.48	   33.96
     84.0207	  133.00	  109.07	 -948.32	   33.95
     84.0541	  125.00	  107.71	 -954.96	   33.95
     84.0875	  110.00	  106.20	 -968.45	   33.94
     84.1209	   91.00	  104.57	 -985.82	   33.94
     84.1544	  103.00	  102.89	 -972.14	   33.93
     84.1878	  113.00	  101.20	 -960.45	   33.92
     84.2212	   96.00	   99.54	 -975.79	   33.92
     84.2546	  117.00	   97.97	 -953.22	   33.91
     84.2880	  129.00	   96.50	 -939.75	   33.91
     84.3215	  106.00	   95.17	 -961.42	   33.90
     84.3549	  110.00	   94.01	 -956.26	   33.89
     84.3883	  111.00	   93.02	 -954.27	   33.89
     84.4217	  111.00	   92.20	 -953.45	   33.88
     84.4552	   89.00	   91.57	 -974.82	   33.88
     84.4886	  120.00	   91.11	 -943.36	   33.87
     84.5220	   97.00	   90.80	 -966.05	   33.87
     84.5554	   97.00	   90.64	 -965.89	   33.86
     84.5889	  114.00	   90.59	 -948.84	   33.86
     84.6223	  102.00	   90.63	 -960.88	   33.85
     84.6557	  119.00	   90.71	 -943.96	   33.85
     84.6891	  114.00	   90.80	 -949.05	   33.84
     84.7225	  119.00	   90.86	 -944.11	   33.84
     84.7560	  116.00	   90.85	 -947.10	   33.83
     84.7894	  124.00	   90.74	 -938.99	   33.83
     84.8228	  119.00	   90.50	 -943.75	   33.82
     84.8562	  121.00	   90.11	 -941.36	   33.82
     84.8897	  116.00	   89.56	 -945.81	   33.82
     84.9231	   95.00	   88.85	 -966.10	   33.81
     84.9565	   95.00	   87.99	 -965.24	   33.81
     84.9899	   80.00	   86.97	 -979.22	   33.80
     85.0233	   89.00	   85.83	 -969.08	   33.80
     85.0568	  101.00	   84.58	 -955.83	   33.79
     85.0902	  106.00	   83.22	 -949.47	   33.79
     85.1236	   88.00	   81.80	 -966.05	   33.79
     85.1570	   86.00	   80.33	 -966.58	   33.78
     85.1905	   81.00	   78.82	 -970.07	   33.78
     85.2239	   87.00	   77.31	 -962.56	   33.77
     85.2573	   76.00	   75.81	 -972.06	   33.77
     85.2907	   72.00	   74.34	 -974.59	   33.77
     85.3242	   66.00	   72.91	 -979.16	   33.76
     85.3576	   83.00	   71.54	 -960.79	   33.76
     85.3910	   74.00	   70.23	 -968.48	   33.76
     85.4244	   84.00	   69.00	 -957.25	   33.75
     85.4578	   76.00	   67.84	 -964.09	   33.75
     85.4913	   71.00	   66.76	 -968.01	   33.75
     85.5247	   51.00	   65.76	 -987.01	   33.74
     85.5581	   81.00	   64.83	 -956.08	   33.74
     85.5915	   57.00	   63.98	 -979.23	   33.74
     85.6250	   60.00	   63.20	 -975.45	   33.74
     85.6584	   55.00	   62.48	 -979.73	   33.73
     85.6918	   71.00	   61.83	 -963.08	   33.73
     85.7252	   72.00	   61.25	 -961.50	   33.73
     85.7586	   60.00	   60.72	 -972.97	   33.72
     85.7921	   62.00	   60.24	 -970.49	   33.72
     85.8255	   71.00	   59.82	 -961.07	   33.72
     85.8589	   65.00	   59.45	 -966.70	   33.72
     85.8923	   68.00	   59.13	 -963.38	   33.71
     85.9258	   65.00	   58.86	 -966.11	   33.71
     85.9592	   58.00	   58.63	 -972.88	   33.71
     85.9926	   59.00	   58.44	 -971.69	   33.71
     86.0260	   65.00	   58.29	 -965.54	   33.71
     86.0594	   71.00	   58.18	 -959.43	   33.70
     86.0929	   64.00	   58.10	 -966.35	   33.70
     86.1263	   69.00	   58.05	 -961.30	   33.70
     86.1597	   73.00	   58.03	 -957.28	   33.70
     86.1931	   58.00	   58.04	 -972.29	   33.70
     86.2266	   65.00	   58.06	 -965.31	   33.70
     86.2600	   74.00	   58.09	 -956.34	   33.69
     86.2934	   63.00	   58.12	 -967.37	   33.69
     86.3268	   66.00	   58.15	 -964.40	   33.69
     86.3602	   72.00	   58.15	 -958.40	   33.69
     86.3937	   65.00	   58.15	 -965.40	   33.69
     86.4271	   53.00	   58.12	 -977.37	   33.69
     86.4605	   79.00	   58.06	 -951.31	   33.69
     86.4939	   45.00	   57.96	 -985.21	   33.68
     86.5274	   73.00	   57.83	 -957.08	   33.68
     86.5608	   63.00	   57.66	 -966.91	   33.68
     86.5942	   53.00	   57.46	 -976.71	   33.68
     86.6276	   69.00	   57.21	 -960.46	   33.68
     86.6610	   56.00	   56.94	 -973.19	   33.68
     86.6945	   59.00	   56.64	 -969.89	   33.68
     86.7279	   58.00	   56.33	 -970.58	   33.68
     86.7613	   40.00	   55.99	 -988.24	   33.68
     86.7947	   55.00	   55.64	 -972.89	   33.68
     86.8282	   49.00	   55.28	 -978.53	   33.68
     86.8616	   60.00	   54.92	 -967.17	   33.68
     86.8950	   62.00	   54.56	 -964.81	   33.68
     86.9284	   57.00	   54.20	 -969.45	   33.68
     86.9619	   53.00	   53.85	 -973.10	   33.68
     86.9953	   67.00	   53.51	 -958.76	   33.68
     87.0287	   58.00	   53.18	 -967.43	   33.68
     87.0621	   60.00	   52.86	 -965.11	   33.68
     87.0955	   52.00	   52.57	 -972.82	   33.68
     87.1290	   66.00	   52.28	 -958.53	   33.68
     87.1624	   56.00	   52.02	 -968.27	   33.68
     87.1958	   53.00	   51.76	 -971.01	   33.68
     87.2292	   58.00	   51.53	 -965.78	   33.68
     87.2627	   54.00	   51.31	 -969.56	   33.68
     87.2961	   51.00	   51.10	 -972.35	   33.68
     87.3295	   66.00	   50.90	 -957.15	   33.68
     87.3629	   50.00	   50.72	 -972.97	   33.68
     87.3963	   50.00	   50.55	 -972.80	   33.68
     87.4298	   42.00	   50.39	 -980.64	   33.68
     87.4632	   47.00	   50.25	 -975.50	   33.68
     87.4966	   58.00	   50.11	 -964.36	   33.68
     87.5300	   51.00	   49.98	 -971.23	   33.68
     87.5635	   54.00	   49.85	 -968.10	   33.68
     87.5969	   52.00	   49.74	 -969.99	   33.69
     87.6303	   65.00	   49.63	 -956.88	   33.69
     87.6637	   43.00	   49.53	 -978.78	   33.69
     87.6972	   55.00	   49.44	 -966.69	   33.69
     87.7306	   49.00	   49.34	 -972.59	   33.69
     87.7640	   53.00	   49.26	 -968.51	   33.69
     87.7974	   58.00	   49.18	 -963.43	   33.69
     87.8308	   60.00	   49.10	 -961.35	   33.69
     87.8643	   55.00	   49.03	 -966.28	   33.70
     87.8977	   55.00	   48.96	 -966.21	   33.70
     87.9311	   40.00	   48.89	 -981.14	   33.70
     87.9645	   51.00	   48.83	 -970.08	   33.70
     87.9979	   57.00	   48.78	 -964.03	   33.70
     88.0314	   36.00	   48.72	 -984.97	   33.70
     88.0648	   48.00	   48.67	 -972.92	   33.71
     88.0982	   67.00	   48.62	 -953.87	   33.71
     88.1316	   54.00	   48.57	 -966.82	   33.71
     88.1651	   40.00	   48.53	 -980.78	   33.71
     88.1985	   70.00	   48.49	 -950.74	   33.72
     88.2319	   58.00	   48.45	 -962.70	   33.72
     88.2653	   41.00	   48.41	 -979.66	   33.72
     88.2988	   44.00	   48.37	 -976.62	   33.72
     88.3322	   50.00	   48.34	 -970.59	   33.72
     88.3656	   50.00	   48.31	 -970.56	   33.73
     88.3990	   52.00	   48.28	 -968.53	   33.73
     88.4324	   45.00	   48.25	 -975.50	   33.73
     88.4659	   41.00	   48.22	 -979.47	   33.73
     88.4993	   48.00	   48.19	 -972.44	   33.74
     88.5327	   49.00	   48.17	 -971.42	   33.74
     88.5661	   45.00	   48.15	 -975.40	   33.74
     88.5996	   63.00	   48.13	 -957.38	   33.75
     88.6330	   63.00	   48.11	 -957.36	   33.75
     88.6664	   63.00	   48.09	 -957.34	   33.75
     88.6998	   45.00	   48.07	 -975.32	   33.75
     88.7332	   51.00	   48.05	 -969.30	   33.76
     88.7667	   50.00	   48.04	 -970.29	   33.76
     88.8001	   47.00	   48.02	 -973.27	   33.76
     88.8335	   35.00	   48.01	 -985.26	   33.77
     88.8669	   37.00	   48.00	 -983.25	   33.77
     88.9004	   45.00	   47.99	 -975.24	   33.77
     88.9338	   59.00	   47.98	 -961.23	   33.78
     88.9672	   57.00	   47.97	 -963.22	   33.78
     89.0006	   54.00	   47.96	 -966.21	   33.78
     89.0340	   59.00	   47.95	 -961.20	   33.79
     89.0675	   45.00	   47.94	 -975.19	   33.79
     89.1009	   64.00	   47.94	 -956.19	   33.80
     89.1343	   60.00	   47.93	 -960.18	   33.80
     89.1677	   58.00	   47.93	 -962.18	   33.80
     89.2012	   44.00	   47.93	 -976.18	   33.81
     89.2346	   56.00	   47.92	 -964.17	   33.81
     89.2680	   51.00	   47.92	 -969.17	   33.82
     89.3014	   42.00	   47.92	 -978.17	   33.82
     89.3349	   55.00	   47.92	 -965.17	   33.82
     89.3683	   47.00	   47.92	 -973.17	   33.83
     89.4017	   48.00	   47.92	 -972.17	   33.83
     89.4351	   52.00	   47.93	 -968.18	   33.84
     89.4685	   66.00	   47.93	 -954.18	   33.84
     89.5020	   47.00	   47.93	 -973.18	   33.85
     89.5354	   48.00	   47.94	 -972.19	   33.85
     89.5688	   53.00	   47.94	 -967.19	   33.85
     89.6022	   28.00	   47.95	 -992.20	   33.86
     89.6357	   42.00	   47.94	 -978.19	   33.86
     89.6691	   33.00	   47.95	 -987.20	   33.87
     89.7025	   52.00	   47.96	 -968.21	   33.87
     89.7359	   54.00	   47.97	 -966.22	   33.88
     89.7693	   37.00	   47.98	 -983.23	   33.88
     89.8028	   44.00	   47.99	 -976.24	   33.89
     89.8362	   48.00	   48.00	 -972.25	   33.89
     89.8696	   58.00	   48.01	 -962.26	   33.90
     89.9030	   48.00	   48.01	 -972.26	   33.90
     89.9365	   34.00	   48.03	 -986.28	   33.91
     89.9699	   39.00	   48.04	 -981.29	   33.91
     90.0033	   38.00	   48.06	 -982.31	   33.92
     90.0367	   43.00	   48.07	 -977.32	   33.92
     90.0701	   50.00	   48.09	 -970.34	   33.93
     90.1036	   38.00	   48.11	 -982.36	   33.93
     90.1370	   70.00	   48.13	 -950.38	   33.94
     90.1704	   49.00	   48.15	 -971.40	   33.94
     90.2038	   58.00	   48.17	 -962.42	   33.95
     90.2373	   53.00	   48.19	 -967.44	   33.96
     90.2707	   37.00	   48.21	 -983.46	   33.96
     90.3041	   51.00	   48.24	 -969.49	   33.97
     90.3375	   47.00	   48.26	 -973.51	   33.97
     90.3709	   55.00	   48.28	 -965.53	   33.98
     90.4044	   54.00	   48.31	 -966.56	   33.98
     90.4378	   60.00	   48.34	 -960.59	   33.99
     90.4712	   60.00	   48.37	 -960.62	   34.00
     90.5046	   44.00	   48.40	 -976.65	   34.00
     90.5381	   40.00	   48.43	 -980.68	   34.01
     90.5715	   51.00	   48.46	 -969.71	   34.01
     90.6049	   58.00	   48.48	 -962.73	   34.02
     90.6383	   53.00	   48.52	 -967.77	   34.03
     90.6718	   39.00	   48.55	 -981.80	   34.03
     90.7052	   45.00	   48.59	 -975.84	   34.04
     90.7386	   51.00	   48.63	 -969.88	   34.05
     90.7720	   54.00	   48.67	 -966.92	   34.05
     90.8054	   49.00	   48.71	 -971.96	   34.06
     90.8389	   50.00	   48.75	 -971.00	   34.07
     90.8723	   47.00	   48.79	 -974.04	   34.07
     90.9057	   49.00	   48.83	 -972.08	   34.08
     90.9391	   45.00	   48.88	 -976.13	   34.08
     90.9726	   54.00	   48.93	 -967.18	   34.09
     91.0060	   52.00	   48.98	 -969.23	   34.10
     91.0394	   53.00	   49.03	 -968.28	   34.11
     91.0728	   52.00	   49.08	 -969.33	   34.11
     91.1062	   48.00	   49.14	 -973.39	   34.12
     91.1397	   43.00	   49.20	 -978.45	   34.13
     91.1731	   50.00	   49.26	 -971.51	   34.13
     91.2065	   56.00	   49.32	 -965.57	   34.14
     91.2399	   57.00	   49.39	 -964.64	   34.15
     91.2734	   50.00	   49.45	 -971.70	   34.15
     91.3068	   47.00	   49.52	 -974.77	   34.16
     91.3402	   43.00	   49.60	 -978.85	   34.17
     91.3736	   51.00	   49.67	 -970.92	   34.18
     91.4071	   58.00	   49.75	 -964.00	   34.18
     91.4405	   48.00	   49.83	 -974.08	   34.19
     91.4739	   48.00	   49.92	 -974.17	   34.20
     91.5073	   45.00	   50.01	 -977.26	   34.21
     91.5407	   48.00	   50.10	 -974.35	   34.21
     91.5742	   50.00	   50.20	 -972.45	   34.22
     91.6076	   51.00	   50.30	 -971.55	   34.23
     91.6410	   42.00	   50.40	 -980.65	   34.24
     91.6744	   60.00	   50.51	 -962.76	   34.24
     91.7079	   64.00	   50.62	 -958.87	   34.25
     91.7413	   41.00	   50.74	 -981.99	   34.26
     91.7747	   63.00	   50.87	 -960.12	   34.27
     91.8081	   49.00	   50.99	 -974.24	   34.27
     91.8415	   50.00	   51.13	 -973.38	   34.28
     91.8750	   58.00	   51.27	 -965.52	   34.29
     91.9084	   43.00	   51.41	 -980.66	   34.30
     91.9418	   50.00	   51.57	 -973.82	   34.31
     91.9752	   52.00	   51.73	 -971.98	   34.31
     92.0087	   67.00	   51.89	 -957.14	   34.32
     92.0421	   49.00	   52.07	 -975.32	   34.33
     92.0755	   59.00	   52.25	 -965.50	   34.34
     92.1089	   52.00	   52.45	 -972.70	   34.35
     92.1423	   56.00	   52.65	 -968.90	   34.36
     92.1758	   72.00	   52.87	 -953.12	   34.36
     92.2092	   54.00	   53.09	 -971.34	   34.37
     92.2426	   57.00	   53.33	 -968.58	   34.38
     92.2760	   45.00	   53.59	 -980.84	   34.39
     92.3095	   54.00	   53.86	 -972.11	   34.40
     92.3429	   56.00	   54.15	 -970.40	   34.41
     92.3763	   57.00	   54.45	 -969.70	   34.41
     92.4097	   71.00	   54.77	 -956.02	   34.42
     92.4431	   54.00	   55.12	 -973.37	   34.43
     92.4766	   50.00	   55.48	 -977.73	   34.44
     92.5100	   69.00	   55.86	 -959.11	   34.45
     92.5434	   45.00	   56.27	 -983.52	   34.46
     92.5768	   54.00	   56.69	 -974.94	   34.47
     92.6103	   53.00	   57.14	 -976.39	   34.48
     92.6437	   73.00	   57.61	 -956.86	   34.48
     92.6771	   59.00	   58.09	 -971.34	   34.49
     92.7105	   54.00	   58.59	 -976.84	   34.50
     92.7439	   58.00	   59.11	 -973.36	   34.51
     92.7774	   62.00	   59.63	 -969.88	   34.52
     92.8108	   66.00	   60.16	 -966.41	   34.53
     92.8442	   65.00	   60.68	 -967.93	   34.54
     92.8776	   60.00	   61.19	 -973.44	   34.55
     92.9111	   73.00	   61.69	 -960.94	   34.56
     92.9445	   64.00	   62.16	 -970.41	   34.57
     92.9779	   72.00	   62.60	 -962.85	   34.58
     93.0113	   69.00	   63.01	 -966.26	   34.59
     93.0448	   76.00	   63.37	 -959.62	   34.59
     93.0782	   63.00	   63.69	 -972.94	   34.60
     93.1116	   76.00	   63.96	 -960.21	   34.61
     93.1450	   70.00	   64.19	 -966.44	   34.62
     93.1784	   62.00	   64.38	 -974.63	   34.63
     93.2119	   63.00	   64.52	 -973.77	   34.64
     93.2453	   70.00	   64.64	 -966.89	   34.65
     93.2787	   70.00	   64.72	 -966.97	   34.66
     93.3121	   68.00	   64.78	 -969.03	   34.67
     93.3456	   78.00	   64.82	 -959.07	   34.68
     93.3790	   78.00	   64.85	 -959.10	   34.69
     93.4124	   68.00	   64.88	 -969.13	   34.70
     93.4458	   73.00	   64.91	 -964.16	   34.71
     93.4792	   63.00	   64.94	 -974.19	   34.72
     93.5127	   56.00	   64.99	 -981.24	   34.73
     93.5461	   82.00	   65.06	 -955.31	   34.74
     93.5795	   70.00	   65.16	 -967.41	   34.75
     93.6129	   67.00	   65.29	 -970.54	   34.76
     93.6464	   71.00	   65.46	 -966.71	   34.77
     93.6798	   78.00	   65.67	 -959.92	   34.78
     93.7132	   72.00	   65.93	 -966.18	   34.79
     93.7466	   66.00	   66.24	 -972.49	   34.80
     93.7801	   85.00	   66.61	 -953.86	   34.81
     93.8135	   79.00	   67.03	 -960.28	   34.82
     93.8469	   73.00	   67.51	 -966.76	   34.83
     93.8803	   71.00	   68.06	 -969.31	   34.84
     93.9137	   69.00	   68.68	 -971.93	   34.85
     93.9472	   75.00	   69.37	 -966.62	   34.86
     93.9806	   88.00	   70.13	 -954.38	   34.87
     94.0140	   80.00	   70.98	 -963.23	   34.88
     94.0474	   75.00	   71.90	 -969.15	   34.89
     94.0808	  101.00	   72.91	 -944.16	   34.90
     94.1143	   98.00	   74.00	 -948.25	   34.91
     94.1477	   95.00	   75.19	 -952.44	   34.92
     94.1811	   87.00	   76.47	 -961.72	   34.93
     94.2145	  103.00	   77.85	 -947.10	   34.95
     94.2480	   82.00	   79.33	 -969.58	   34.96
     94.2814	  101.00	   80.91	 -952.16	   34.97
     94.3148	   90.00	   82.59	 -964.84	   34.98
     94.3482	   93.00	   84.36	 -963.61	   34.99
     94.3817	   85.00	   86.22	 -973.47	   35.00
     94.4151	   96.00	   88.16	 -964.41	   35.01
     94.4485	   87.00	   90.17	 -975.42	   35.02
     94.4819	   99.00	   92.24	 -965.49	   35.03
     94.5153	  130.00	   94.34	 -936.59	   35.04
     94.5488	  106.00	   96.46	 -962.71	   35.05
     94.5822	  121.00	   98.57	 -949.82	   35.06
     94.6156	  119.00	  100.65	 -953.90	   35.07
     94.6490	  137.00	  102.66	 -937.91	   35.09
     94.6825	  164.00	  104.59	 -912.84	   35.10
     94.7159	  130.00	  106.39	 -948.64	   35.11
     94.7493	  139.00	  108.06	 -941.31	   35.12
     94.7827	  153.00	  109.56	 -928.81	   35.13
     94.8161	  141.00	  110.87	 -942.12	   35.14
     94.8496	  157.00	  111.97	 -927.22	   35.15
     94.8830	  151.00	  112.85	 -934.10	   35.16
     94.9164	  137.00	  113.48	 -948.73	   35.17
     94.9498	  147.00	  113.88	 -939.13	   35.19
     94.9833	  166.00	  114.03	 -920.28	   35.20
     95.0167	  164.00	  113.92	 -922.17	   35.21
     95.0501	  176.00	  113.58	 -909.83	   35.22
     95.0835	  143.00	  113.00	 -942.25	   35.23
     95.1170	  162.00	  112.21	 -922.46	   35.24
     95.1504	  159.00	  111.23	 -924.48	   35.25
     95.1838	  161.00	  110.07	 -921.32	   35.27
     95.2172	  165.00	  108.77	 -916.02	   35.28
     95.2506	  152.00	  107.36	 -927.61	   35.29
     95.2841	  171.00	  105.86	 -907.11	   35.30
     95.3175	  137.00	  104.30	 -939.55	   35.31
     95.3509	  153.00	  102.69	 -921.94	   35.32
     95.3843	  129.00	  101.08	 -944.33	   35.33
     95.4178	  139.00	   99.47	 -932.72	   35.35
     95.4512	  134.00	   97.89	 -936.14	   35.36
     95.4846	  146.00	   96.36	 -922.61	   35.37
     95.5180	  127.00	   94.89	 -940.14	   35.38
     95.5514	  109.00	   93.50	 -956.75	   35.39
     95.5849	  116.00	   92.21	 -948.46	   35.40
     95.6183	  132.00	   91.01	 -931.26	   35.42
     95.6517	  125.00	   89.92	 -937.17	   35.43
     95.6851	  114.00	   88.93	 -947.18	   35.44
     95.7186	  113.00	   88.06	 -947.31	   35.45
     95.7520	   91.00	   87.30	 -968.54	   35.46
     95.7854	  109.00	   86.63	 -949.88	   35.48
     95.8188	  112.00	   86.07	 -946.32	   35.49
     95.8522	  120.00	   85.59	 -937.84	   35.50
     95.8857	   97.00	   85.19	 -960.44	   35.51
     95.9191	  106.00	   84.84	 -951.09	   35.52
     95.9525	  109.00	   84.55	 -947.80	   35.54
     95.9859	  104.00	   84.28	 -952.53	   35.55
     96.0194	  101.00	   84.03	 -955.28	   35.56
     96.0528	  100.00	   83.77	 -956.02	   35.57
     96.0862	  103.00	   83.50	 -952.75	   35.58
     96.1196	  126.00	   83.20	 -929.45	   35.60
     96.1531	   98.00	   82.85	 -957.10	   35.61
     96.1865	  110.00	   82.45	 -944.70	   35.62
     96.2199	  104.00	   82.00	 -950.25	   35.63
     96.2533	  106.00	   81.49	 -947.74	   35.64
     96.2867	   83.00	   80.92	 -970.17	   35.66
     96.3202	  101.00	   80.30	 -951.55	   35.67
     96.3536	   89.00	   79.62	 -962.87	   35.68
     96.3870	   76.00	   78.90	 -975.15	   35.69
     96.4204	  104.00	   78.13	 -946.38	   35.71
     96.4538	   96.00	   77.34	 -953.59	   35.72
     96.4873	   75.00	   76.51	 -973.76	   35.73
     96.5207	   91.00	   75.67	 -956.92	   35.74
     96.5541	   83.00	   74.81	 -964.06	   35.76
     96.5875	   70.00	   73.95	 -976.20	   35.77
     96.6210	   69.00	   73.09	 -976.34	   35.78
     96.6544	   84.00	   72.24	 -960.49	   35.79
     96.6878	   85.00	   71.41	 -958.66	   35.80
     96.7212	   76.00	   70.61	 -966.86	   35.82
     96.7547	   75.00	   69.83	 -967.08	   35.83
     96.7881	   83.00	   69.09	 -958.34	   35.84
     96.8215	   69.00	   68.38	 -971.63	   35.85
     96.8549	   89.00	   67.71	 -950.96	   35.87
     96.8883	   79.00	   67.09	 -960.34	   35.88
     96.9218	   68.00	   66.51	 -970.76	   35.89
     96.9552	   94.00	   65.97	 -944.22	   35.90
     96.9886	   72.00	   65.47	 -965.72	   35.92
     97.0220	   60.00	   65.02	 -977.27	   35.93
     97.0555	   67.00	   64.61	 -969.86	   35.94
     97.0889	   71.00	   64.24	 -965.49	   35.96
     97.1223	   55.00	   63.91	 -981.16	   35.97
     97.1557	   63.00	   63.61	 -972.86	   35.98
     97.1891	   78.00	   63.35	 -957.60	   35.99
     97.2226	   56.00	   63.13	 -979.38	   36.01
     97.2560	   66.00	   62.94	 -969.19	   36.02
     97.2894	   69.00	   62.78	 -966.03	   36.03
     97.3228	   59.00	   62.66	 -975.91	   36.04
     97.3563	   74.00	   62.55	 -960.80	   36.06
     97.3897	   78.00	   62.48	 -956.73	   36.07
     97.4231	   75.00	   62.42	 -959.67	   36.08
     97.4565	   66.00	   62.39	 -968.64	   36.09
     97.4900	   75.00	   62.37	 -959.62	   36.11
     97.5234	   52.00	   62.36	 -982.61	   36.12
     97.5568	   72.00	   62.37	 -962.62	   36.13
     97.5902	   81.00	   62.38	 -953.63	   36.15
     97.6236	   81.00	   62.40	 -953.65	   36.16
     97.6571	   64.00	   62.43	 -970.68	   36.17
     97.6905	   71.00	   62.45	 -963.70	   36.18
     97.7239	   53.00	   62.48	 -981.73	   36.20
     97.7573	   51.00	   62.51	 -983.76	   36.21
     97.7908	   83.00	   62.53	 -951.78	   36.22
     97.8242	   82.00	   62.56	 -952.81	   36.24
     97.8576	   69.00	   62.59	 -965.84	   36.25
     97.8910	   73.00	   62.63	 -961.88	   36.26
     97.9244	   55.00	   62.66	 -979.91	   36.28
     97.9579	   69.00	   62.71	 -965.96	   36.29
     97.9913	   76.00	   62.77	 -959.02	   36.30
     98.0247	   56.00	   62.83	 -979.08	   36.31
     98.0581	   60.00	   62.91	 -975.16	   36.33
     98.0916	   68.00	   63.01	 -967.26	   36.34
     98.1250	   68.00	   63.13	 -967.38	   36.35
     98.1584	   66.00	   63.27	 -969.52	   36.37
     98.1918	   71.00	   63.43	 -964.68	   36.38
     98.2253	   80.00	   63.62	 -955.87	   36.39
     98.2587	   55.00	   63.84	 -981.09	   36.40
     98.2921	   55.00	   64.09	 -981.34	   36.42
     98.3255	   75.00	   64.38	 -961.63	   36.43
     98.3589	   59.00	   64.70	 -977.95	   36.44
     98.3924	   70.00	   65.07	 -967.32	   36.46
     98.4258	   68.00	   65.48	 -969.73	   36.47
     98.4592	   72.00	   65.93	 -966.18	   36.48
     98.4926	   63.00	   66.43	 -975.68	   36.50
     98.5260	   76.00	   66.97	 -963.22	   36.51
     98.5595	   79.00	   67.57	 -960.82	   36.52
     98.5929	   88.00	   68.21	 -952.46	   36.54
     98.6263	   87.00	   68.90	 -954.15	   36.55
     98.6597	   80.00	   69.63	 -961.88	   36.56
     98.6932	   68.00	   70.41	 -974.66	   36.57
     98.7266	   67.00	   71.23	 -976.48	   36.59
     98.7600	   87.00	   72.09	 -957.34	   36.60
     98.7934	   96.00	   72.97	 -949.22	   36.61
     98.8269	   78.00	   73.88	 -968.13	   36.63
     98.8603	   88.00	   74.79	 -959.04	   36.64
     98.8937	   94.00	   75.70	 -953.95	   36.65
     98.9271	   79.00	   76.60	 -969.85	   36.67
     98.9605	   87.00	   77.46	 -962.71	   36.68
     98.9940	   95.00	   78.27	 -955.52	   36.69
     99.0274	   97.00	   79.02	 -954.27	   36.71
     99.0608	   96.00	   79.68	 -955.93	   36.72
     99.0942	  100.00	   80.25	 -952.50	   36.73
     99.1277	  117.00	   80.70	 -935.95	   36.75
     99.1611	  119.00	   81.04	 -934.29	   36.76
     99.1945	   99.00	   81.25	 -954.50	   36.77
     99.2279	  112.00	   81.34	 -941.59	   36.78
     99.2613	   97.00	   81.30	 -956.55	   36.80
     99.2948	  112.00	   81.13	 -941.38	   36.81
     99.3282	   97.00	   80.85	 -956.10	   36.82
     99.3616	   99.00	   80.46	 -953.71	   36.84
     99.3950	   99.00	   79.97	 -953.22	   36.85
     99.4285	   97.00	   79.39	 -954.64	   36.86
     99.4619	  102.00	   78.72	 -948.97	   36.88
     99.4953	   99.00	   77.98	 -951.23	   36.89
     99.5287	   72.00	   77.19	 -977.44	   36.90
     99.5621	  100.00	   76.34	 -948.59	   36.92
     99.5956	  101.00	   75.46	 -946.71	   36.93
     99.6290	   87.00	   74.55	 -959.80	   36.94
     99.6624	   73.00	   73.62	 -972.87	   36.96
     99.6958	   88.00	   72.69	 -956.94	   36.97
     99.7293	  102.00	   71.76	 -942.01	   36.98
     99.7627	   90.00	   70.85	 -953.10	   36.99
     99.7961	   84.00	   69.95	 -958.20	   37.01
     99.8295	   80.00	   69.08	 -961.33	   37.02
     99.8630	   74.00	   68.25	 -966.50	   37.03
     99.8964	   70.00	   67.44	 -969.69	   37.05
     99.9298	   72.00	   66.68	 -966.93	   37.06
     99.9632	   66.00	   65.95	 -972.20	   37.07
     99.9966	  104.00	   65.25	 -933.50	   37.09
    100.0301	   71.00	   64.60	 -965.85	   37.10
    100.0635	   68.00	   63.99	 -968.24	   37.11
    100.0969	   93.00	   63.41	 -942.66	   37.13
    100.1303	   73.00	   62.87	 -962.12	   37.14
    100.1638	   66.00	   62.37	 -968.62	   37.15
    100.1972	   69.00	   61.90	 -965.15	   37.17
    100.2306	   83.00	   61.46	 -950.71	   37.18
    100.2640	   59.00	   61.05	 -974.30	   37.19
    100.2974	   57.00	   60.67	 -975.92	   37.20
    100.3309	   63.00	   60.31	 -969.56	   37.22
    100.3643	   54.00	   59.99	 -978.24	   37.23
    100.3977	   68.00	   59.67	 -963.92	   37.24
    100.4311	   78.00	   59.39	 -953.64	   37.26
    100.4646	   70.00	   59.13	 -961.38	   37.27
    100.4980	   84.00	   58.89	 -947.14	   37.28
    100.5314	   69.00	   58.67	 -961.92	   37.30
    100.5648	   78.00	   58.47	 -952.72	   37.31
    100.5982	   68.00	   58.28	 -962.53	   37.32
    100.6317	   74.00	   58.11	 -956.36	   37.33
    100.6651	   68.00	   57.96	 -962.21	   37.35
    100.6985	   66.00	   57.81	 -964.06	   37.36
    100.7319	   56.00	   57.69	 -973.94	   37.37
    100.7654	   74.00	   57.58	 -955.83	   37.39
    100.7988	   58.00	   57.48	 -971.73	   37.40
    100.8322	   58.00	   57.39	 -971.64	   37.41
    100.8656	   49.00	   57.31	 -980.56	   37.43
    100.8990	   67.00	   57.25	 -962.50	   37.44
    100.9325	   76.00	   57.20	 -953.45	   37.45
    100.9659	   56.00	   57.16	 -973.41	   37.46
    100.9993	   64.00	   57.12	 -965.37	   37.48
    101.0327	   66.00	   57.10	 -963.35	   37.49
    101.0662	   71.00	   57.09	 -958.34	   37.50
    101.0996	   56.00	   57.09	 -973.34	   37.52
    101.1330	   44.00	   57.10	 -985.35	   37.53
    101.1664	   78.00	   57.11	 -951.36	   37.54
    101.1999	   72.00	   57.14	 -957.39	   37.55
    101.2333	   67.00	   57.18	 -962.43	   37.57
    101.2667	   54.00	   57.23	 -975.48	   37.58
    101.3001	   76.00	   57.29	 -953.54	   37.59
    101.3335	   63.00	   57.36	 -966.61	   37.60
    101.3670	   50.00	   57.44	 -979.69	   37.62
    101.4004	   76.00	   57.53	 -953.78	   37.63
    101.4338	   54.00	   57.63	 -975.88	   37.64
    101.4672	   64.00	   57.75	 -966.00	   37.66
    101.5007	   67.00	   57.87	 -963.12	   37.67
    101.5341	   60.00	   58.01	 -970.26	   37.68
    101.5675	   69.00	   58.16	 -961.41	   37.69
    101.6009	   58.00	   58.33	 -972.58	   37.71
    101.6343	   60.00	   58.50	 -970.75	   37.72
    101.6678	   63.00	   58.69	 -967.94	   37.73
    101.7012	   68.00	   58.90	 -963.15	   37.74
    101.7346	   73.00	   59.12	 -958.37	   37.76
    101.7680	   84.00	   59.35	 -947.60	   37.77
    101.8015	   82.00	   59.60	 -949.85	   37.78
    101.8349	   69.00	   59.86	 -963.11	   37.79
    101.8683	   68.00	   60.14	 -964.39	   37.81
    101.9017	   63.00	   60.43	 -969.68	   37.82
    101.9352	   85.00	   60.74	 -947.99	   37.83
    101.9686	   63.00	   61.05	 -970.30	   37.84
    102.0020	   66.00	   61.38	 -967.63	   37.86
    102.0354	   48.00	   61.73	 -985.98	   37.87
    102.0688	   74.00	   62.08	 -960.33	   37.88
    102.1023	   65.00	   62.44	 -969.69	   37.89
    102.1357	   73.00	   62.82	 -962.07	   37.91
    102.1691	   78.00	   63.20	 -957.45	   37.92
    102.2025	   74.00	   63.59	 -961.84	   37.93
    102.2360	   76.00	   63.99	 -960.24	   37.94
    102.2694	   73.00	   64.40	 -963.65	   37.96
    102.3028	   72.00	   64.81	 -965.06	   37.97
    102.3362	   66.00	   65.24	 -971.49	   37.98
    102.3696	   74.00	   65.67	 -963.92	   37.99
    102.4031	   71.00	   66.12	 -967.37	   38.00
    102.4365	   78.00	   66.57	 -960.82	   38.02
    102.4699	   83.00	   67.04	 -956.29	   38.03
    102.5033	   62.00	   67.52	 -977.77	   38.04
    102.5368	   83.00	   68.01	 -957.26	   38.05
    102.5702	   84.00	   68.50	 -956.75	   38.06
    102.6036	   80.00	   69.01	 -961.26	   38.08
    102.6370	   68.00	   69.52	 -973.77	   38.09
    102.6704	   90.00	   70.03	 -952.28	   38.10
    102.7039	   75.00	   70.54	 -967.79	   38.11
    102.7373	   85.00	   71.04	 -958.29	   38.12
    102.7707	   73.00	   71.53	 -970.78	   38.14
    102.8041	   95.00	   72.01	 -949.26	   38.15
    102.8376	   74.00	   72.46	 -970.71	   38.16
    102.8710	   76.00	   72.88	 -969.13	   38.17
    102.9044	   95.00	   73.27	 -950.52	   38.18
    102.9378	   80.00	   73.63	 -965.88	   38.20
    102.9712	   83.00	   73.95	 -963.20	   38.21
    103.0047	   76.00	   74.23	 -970.48	   38.22
    103.0381	  108.00	   74.47	 -938.72	   38.23
    103.0715	   95.00	   74.67	 -951.92	   38.24
    103.1049	   90.00	   74.84	 -957.09	   38.25
    103.1384	   87.00	   74.97	 -960.22	   38.27
    103.1718	   97.00	   75.07	 -950.32	   38.28
    103.2052	   87.00	   75.14	 -960.39	   38.29
    103.2386	   86.00	   75.19	 -961.44	   38.30
    103.2720	   91.00	   75.19	 -956.44	   38.31
    103.3055	  104.00	   75.20	 -943.45	   38.32
    103.3389	   76.00	   75.19	 -971.44	   38.34
    103.3723	   90.00	   75.17	 -957.42	   38.35
    103.4057	   81.00	   75.14	 -966.39	   38.36
    103.4392	   91.00	   75.10	 -956.35	   38.37
    103.4726	  105.00	   75.07	 -942.32	   38.38
    103.5060	   85.00	   75.03	 -962.28	   38.39
    103.5394	   95.00	   75.00	 -952.25	   38.40
    103.5729	   66.00	   74.98	 -981.23	   38.41
    103.6063	   78.00	   74.95	 -969.20	   38.43
    103.6397	   93.00	   74.94	 -954.19	   38.44
    103.6731	   81.00	   74.95	 -966.20	   38.45
    103.7065	   60.00	   74.97	 -987.22	   38.46
    103.7400	   91.00	   75.00	 -956.25	   38.47
    103.7734	   85.00	   75.04	 -962.29	   38.48
    103.8068	   85.00	   75.09	 -962.34	   38.49
    103.8402	   93.00	   75.15	 -954.40	   38.50
    103.8737	   78.00	   75.21	 -969.46	   38.51
    103.9071	   73.00	   75.26	 -974.51	   38.53
    103.9405	   95.00	   75.31	 -952.56	   38.54
    103.9739	   94.00	   75.34	 -953.59	   38.55
    104.0073	   79.00	   75.36	 -968.61	   38.56
    104.0408	   67.00	   75.35	 -980.60	   38.57
    104.0742	   75.00	   75.32	 -972.57	   38.58
    104.1076	   86.00	   75.26	 -961.51	   38.59
    104.1410	   90.00	   75.16	 -957.41	   38.60
    104.1745	  115.00	   75.03	 -932.28	   38.61
    104.2079	   72.00	   74.88	 -975.13	   38.62
    104.2413	   76.00	   74.69	 -970.94	   38.63
    104.2747	   85.00	   74.47	 -961.72	   38.64
    104.3082	   89.00	   74.22	 -957.47	   38.65
    104.3416	   79.00	   73.95	 -967.20	   38.66
    104.3750	   70.00	   73.66	 -975.91	   38.68
    104.4084	   78.00	   73.35	 -967.60	   38.69
    104.4418	   91.00	   73.03	 -954.28	   38.70
    104.4753	   91.00	   72.70	 -953.95	   38.71
    104.5087	   66.00	   72.36	 -978.61	   38.72
    104.5421	   68.00	   72.02	 -976.27	   38.73
    104.5755	   67.00	   71.68	 -976.93	   38.74
    104.6089	   78.00	   71.33	 -965.58	   38.75
    104.6424	   81.00	   71.01	 -962.26	   38.76
    104.6758	   66.00	   70.70	 -976.95	   38.77
    104.7092	   74.00	   70.41	 -968.66	   38.78
    104.7426	   76.00	   70.14	 -966.39	   38.79
    104.7761	   73.00	   69.89	 -969.14	   38.80
    104.8095	   80.00	   69.67	 -961.92	   38.81
    104.8429	   84.00	   69.49	 -957.74	   38.82
    104.8763	   68.00	   69.33	 -973.58	   38.83
    104.9098	   79.00	   69.21	 -962.46	   38.84
    104.9432	   71.00	   69.12	 -970.37	   38.85
    104.9766	   78.00	   69.08	 -963.33	   38.86
    105.0100	   71.00	   69.07	 -970.32	   38.87
    105.0434	   85.00	   69.10	 -956.35	   38.88
    105.0769	   99.00	   69.17	 -942.42	   38.89
    105.1103	   82.00	   69.29	 -959.54	   38.90
    105.1437	   62.00	   69.45	 -979.70	   38.91
    105.1771	   83.00	   69.65	 -958.90	   38.91
    105.2106	   80.00	   69.89	 -962.14	   38.92
    105.2440	   69.00	   70.17	 -973.42	   38.93
    105.2774	   75.00	   70.50	 -967.75	   38.94
    105.3108	   74.00	   70.88	 -969.13	   38.95
    105.3442	   85.00	   71.29	 -958.54	   38.96
    105.3777	   79.00	   71.75	 -965.00	   38.97
    105.4111	   84.00	   72.25	 -960.50	   38.98
    105.4445	   74.00	   72.79	 -971.04	   38.99
    105.4779	  101.00	   73.36	 -944.61	   39.00
    105.5114	   74.00	   73.97	 -972.22	   39.01
    105.5448	   78.00	   74.62	 -968.87	   39.02
    105.5782	   81.00	   75.29	 -966.54	   39.03
    105.6116	   81.00	   75.98	 -967.23	   39.03
    105.6451	   73.00	   76.70	 -975.95	   39.04
    105.6785	   89.00	   77.42	 -960.67	   39.05
    105.7119	  102.00	   78.15	 -948.40	   39.06
    105.7453	  102.00	   78.88	 -949.13	   39.07
    105.7787	   97.00	   79.60	 -954.85	   39.08
    105.8122	   88.00	   80.30	 -964.55	   39.09
    105.8456	   99.00	   80.97	 -954.22	   39.10
    105.8790	  115.00	   81.61	 -938.86	   39.10
    105.9124	   78.00	   82.21	 -976.46	   39.11
    105.9459	   74.00	   82.75	 -981.00	   39.12
    105.9793	   84.00	   83.23	 -971.48	   39.13
    106.0127	   89.00	   83.64	 -966.89	   39.14
    106.0461	  112.00	   83.98	 -944.23	   39.15
    106.0795	   75.00	   84.25	 -981.50	   39.15
    106.1130	  113.00	   84.42	 -943.67	   39.16
    106.1464	  101.00	   84.52	 -955.77	   39.17
    106.1798	   81.00	   84.52	 -975.77	   39.18
    106.2132	  108.00	   84.45	 -948.70	   39.19
    106.2467	   98.00	   84.28	 -958.53	   39.19
    106.2801	  100.00	   84.04	 -956.29	   39.20
    106.3135	   83.00	   83.73	 -972.98	   39.21
    106.3469	  100.00	   83.35	 -955.60	   39.22
    106.3803	   91.00	   82.91	 -964.16	   39.23
    106.4138	  109.00	   82.41	 -945.66	   39.23
    106.4472	   80.00	   81.87	 -974.12	   39.24
    106.4806	   88.00	   81.29	 -965.54	   39.25
    106.5140	   95.00	   80.67	 -957.92	   39.26
    106.5475	   84.00	   80.03	 -968.28	   39.26
    106.5809	  103.00	   79.37	 -948.62	   39.27
    106.6143	   88.00	   78.70	 -962.95	   39.28
    106.6477	   84.00	   78.03	 -966.28	   39.29
    106.6812	   98.00	   77.35	 -951.60	   39.29
    106.7146	   93.00	   76.69	 -955.94	   39.30
    106.7480	   70.00	   76.03	 -978.28	   39.31
    106.7814	   80.00	   75.40	 -967.65	   39.31
    106.8148	   58.00	   74.79	 -989.04	   39.32
    106.8483	   73.00	   74.20	 -973.45	   39.33
    106.8817	   94.00	   73.64	 -951.89	   39.34
    106.9151	   85.00	   73.11	 -960.36	   39.34
    106.9485	   84.00	   72.61	 -960.86	   39.35
    106.9819	   76.00	   72.14	 -968.39	   39.36
    107.0154	   75.00	   71.70	 -968.95	   39.36
    107.0488	   72.00	   71.28	 -971.53	   39.37
    107.0822	   58.00	   70.90	 -985.15	   39.38
    107.1156	   66.00	   70.54	 -976.79	   39.38
    107.1491	   73.00	   70.21	 -969.46	   39.39
    107.1825	   80.00	   69.90	 -962.15	   39.39
    107.2159	   89.00	   69.61	 -952.86	   39.40
    107.2493	   76.00	   69.33	 -965.58	   39.41
    107.2828	   90.00	   69.07	 -951.32	   39.41
    107.3162	   60.00	   68.83	 -981.08	   39.42
    107.3496	   78.00	   68.59	 -962.84	   39.43
    107.3830	   87.00	   68.37	 -953.62	   39.43
    107.4164	   79.00	   68.15	 -961.40	   39.44
    107.4499	   75.00	   67.94	 -965.19	   39.44
    107.4833	   76.00	   67.74	 -963.99	   39.45
    107.5167	   87.00	   67.55	 -952.80	   39.46
    107.5501	   72.00	   67.37	 -967.62	   39.46
    107.5836	   70.00	   67.19	 -969.44	   39.47
    107.6170	   68.00	   67.02	 -971.27	   39.47
    107.6504	   69.00	   66.86	 -970.11	   39.48
    107.6838	   75.00	   66.70	 -963.95	   39.48
    107.7172	   72.00	   66.55	 -966.80	   39.49
    107.7507	   68.00	   66.41	 -970.66	   39.49
    107.7841	   66.00	   66.27	 -972.52	   39.50
    107.8175	   71.00	   66.14	 -967.39	   39.50
    107.8509	   83.00	   66.02	 -955.27	   39.51
    107.8844	   74.00	   65.90	 -964.15	   39.51
    107.9178	   71.00	   65.78	 -967.03	   39.52
    107.9512	   53.00	   65.68	 -984.93	   39.52
    107.9846	   62.00	   65.58	 -975.83	   39.53
    108.0181	   81.00	   65.48	 -956.73	   39.53
    108.0515	   72.00	   65.39	 -965.64	   39.54
    108.0849	   81.00	   65.31	 -956.56	   39.54
    108.1183	   64.00	   65.23	 -973.48	   39.55
    108.1517	   81.00	   65.16	 -956.41	   39.55
    108.1852	   58.00	   65.09	 -979.34	   39.56
    108.2186	   52.00	   65.04	 -985.29	   39.56
    108.2520	   63.00	   64.99	 -974.24	   39.57
    108.2854	   59.00	   64.95	 -978.20	   39.57
    108.3189	   57.00	   64.93	 -980.18	   39.57
    108.3523	   56.00	   64.91	 -981.16	   39.58
    108.3857	   71.00	   64.91	 -966.16	   39.58
    108.4191	   60.00	   64.92	 -977.17	   39.59
    108.4525	   45.00	   64.94	 -992.19	   39.59
    108.4860	   62.00	   64.98	 -975.23	   39.59
    108.5194	   64.00	   65.04	 -973.29	   39.60
    108.5528	   64.00	   65.11	 -973.36	   39.60
    108.5862	   75.00	   65.21	 -962.46	   39.60
    108.6197	   67.00	   65.32	 -970.57	   39.61
    108.6531	   65.00	   65.45	 -972.70	   39.61
    108.6865	   68.00	   65.60	 -969.85	   39.61
    108.7199	   62.00	   65.78	 -976.03	   39.62
    108.7533	   59.00	   65.98	 -979.23	   39.62
    108.7868	   79.00	   66.21	 -959.46	   39.62
    108.8202	   71.00	   66.46	 -967.71	   39.63
    108.8536	   60.00	   66.74	 -978.99	   39.63
    108.8870	   65.00	   67.04	 -974.29	   39.63
    108.9205	   65.00	   67.37	 -974.62	   39.64
    108.9539	   70.00	   67.73	 -969.98	   39.64
    108.9873	   70.00	   68.12	 -970.37	   39.64
    109.0207	   54.00	   68.53	 -986.78	   39.64
    109.0541	   70.00	   68.97	 -971.22	   39.65
    109.0876	   55.00	   69.42	 -986.67	   39.65
    109.1210	   63.00	   69.90	 -979.15	   39.65
    109.1544	   67.00	   70.40	 -975.65	   39.65
    109.1878	   96.00	   70.91	 -947.16	   39.66
    109.2213	   72.00	   71.44	 -971.69	   39.66
    109.2547	   73.00	   71.97	 -971.22	   39.66
    109.2881	   70.00	   72.50	 -974.75	   39.66
    109.3215	   74.00	   73.02	 -971.27	   39.66
    109.3549	   79.00	   73.53	 -966.78	   39.67
    109.3884	   69.00	   74.03	 -977.28	   39.67
    109.4218	   71.00	   74.50	 -975.75	   39.67
    109.4552	   64.00	   74.94	 -983.19	   39.67
    109.4886	   74.00	   75.34	 -973.59	   39.67
    109.5221	   72.00	   75.70	 -975.95	   39.67
    109.5555	   74.00	   76.01	 -974.26	   39.68
    109.5889	   83.00	   76.28	 -965.53	   39.68
    109.6223	   83.00	   76.50	 -965.75	   39.68
    109.6558	   87.00	   76.66	 -961.91	   39.68
    109.6892	   85.00	   76.78	 -964.03	   39.68
    109.7226	   75.00	   76.84	 -974.09	   39.68
    109.7560	   85.00	   76.86	 -964.11	   39.68
    109.7894	   73.00	   76.83	 -976.08	   39.68
    109.8229	   94.00	   76.76	 -955.01	   39.68
    109.8563	   79.00	   76.65	 -969.91	   39.68
    109.8897	  104.00	   76.51	 -944.76	   39.68
    109.9231	   87.00	   76.34	 -961.59	   39.68
    109.9566	   83.00	   76.14	 -965.39	   39.69
    109.9900	   79.00	   75.91	 -969.16	   39.69
    110.0234	   85.00	   75.66	 -962.91	   39.69
    110.0568	   72.00	   75.39	 -975.64	   39.69
    110.0902	   89.00	   75.11	 -958.36	   39.69
    110.1237	   70.00	   74.81	 -977.06	   39.69
    110.1571	   87.00	   74.50	 -959.75	   39.69
    110.1905	  104.00	   74.19	 -942.44	   39.69
    110.2239	   72.00	   73.86	 -974.11	   39.68
    110.2574	   68.00	   73.53	 -977.78	   39.68
    110.2908	   76.00	   73.19	 -969.44	   39.68
    110.3242	   73.00	   72.84	 -972.09	   39.68
    110.3576	   82.00	   72.49	 -962.74	   39.68
    110.3911	   90.00	   72.13	 -954.38	   39.68
    110.4245	   74.00	   71.76	 -970.01	   39.68
    110.4579	   82.00	   71.39	 -961.64	   39.68
    110.4913	   82.00	   71.01	 -961.26	   39.68
    110.5247	   78.00	   70.62	 -964.87	   39.68
    110.5582	   80.00	   70.23	 -962.48	   39.68
    110.5916	   66.00	   69.82	 -976.07	   39.68
    110.6250	   63.00	   69.41	 -978.66	   39.67
    110.6584	   74.00	   69.00	 -967.25	   39.67
    110.6919	   83.00	   68.58	 -957.83	   39.67
    110.7253	   85.00	   68.15	 -955.40	   39.67
    110.7587	   66.00	   67.72	 -973.97	   39.67
    110.7921	   67.00	   67.29	 -972.54	   39.67
    110.8255	   81.00	   66.86	 -958.11	   39.66
    110.8590	   57.00	   66.43	 -981.68	   39.66
    110.8924	   69.00	   65.99	 -969.24	   39.66
    110.9258	   71.00	   65.56	 -966.81	   39.66
    110.9592	   66.00	   65.13	 -971.38	   39.65
    110.9927	   74.00	   64.70	 -962.95	   39.65
    111.0261	   74.00	   64.28	 -962.53	   39.65
    111.0595	   72.00	   63.87	 -964.12	   39.65
    111.0929	   82.00	   63.46	 -953.71	   39.64
    111.1263	   53.00	   63.06	 -982.31	   39.64
    111.1598	   80.00	   62.67	 -954.92	   39.64
    111.1932	   84.00	   62.29	 -950.54	   39.64
    111.2266	   75.00	   61.92	 -959.17	   39.63
    111.2600	   65.00	   61.56	 -968.81	   39.63
    111.2935	   69.00	   61.21	 -964.46	   39.63
    111.3269	   62.00	   60.88	 -971.13	   39.62
    111.3603	   69.00	   60.56	 -963.81	   39.62
    111.3937	   76.00	   60.25	 -956.50	   39.61
    111.4271	   69.00	   59.95	 -963.20	   39.61
    111.4606	   62.00	   59.67	 -969.92	   39.61
    111.4940	   58.00	   59.40	 -973.65	   39.60
    111.5274	   59.00	   59.14	 -972.39	   39.60
    111.5608	   66.00	   58.89	 -965.14	   39.60
    111.5943	   67.00	   58.66	 -963.91	   39.59
    111.6277	   65.00	   58.43	 -965.68	   39.59
    111.6611	   66.00	   58.22	 -964.47	   39.58
    111.6945	   71.00	   58.01	 -959.26	   39.58
    111.7280	   65.00	   57.82	 -965.07	   39.57
    111.7614	   74.00	   57.63	 -955.88	   39.57
    111.7948	   74.00	   57.46	 -955.71	   39.56
    111.8282	   71.00	   57.29	 -958.54	   39.56
    111.8616	   73.00	   57.13	 -956.38	   39.55
    111.8951	   64.00	   56.97	 -965.22	   39.55
    111.9285	   51.00	   56.83	 -978.08	   39.54
    111.9619	   59.00	   56.69	 -969.94	   39.54
    111.9953	   66.00	   56.56	 -962.81	   39.53
    112.0288	   62.00	   56.43	 -966.68	   39.53
    112.0622	   59.00	   56.31	 -969.56	   39.52
    112.0956	   53.00	   56.20	 -975.45	   39.52
    112.1290	   67.00	   56.09	 -961.34	   39.51
    112.1624	   51.00	   55.99	 -977.24	   39.50
    112.1959	   51.00	   55.89	 -977.14	   39.50
    112.2293	   55.00	   55.80	 -973.05	   39.49
    112.2627	   51.00	   55.71	 -976.96	   39.48
    112.2961	   60.00	   55.62	 -967.87	   39.48
    112.3296	   57.00	   55.54	 -970.79	   39.47
    112.3630	   59.00	   55.46	 -968.71	   39.47
    112.3964	   45.00	   55.39	 -982.64	   39.46
    112.4298	   58.00	   55.32	 -969.57	   39.45
    112.4632	   60.00	   55.25	 -967.50	   39.44
    112.4967	   66.00	   55.19	 -961.44	   39.44
    112.5301	   68.00	   55.13	 -959.38	   39.43
    112.5635	   65.00	   55.08	 -962.33	   39.42
    112.5969	   62.00	   55.03	 -965.28	   39.42
    112.6304	   62.00	   54.98	 -965.23	   39.41
    112.6638	   67.00	   54.93	 -960.18	   39.40
    112.6972	   57.00	   54.89	 -970.14	   39.39
    112.7306	   67.00	   54.85	 -960.10	   39.38
    112.7641	   40.00	   54.81	 -987.06	   39.38
    112.7975	   64.00	   54.77	 -963.02	   39.37
    112.8309	   53.00	   54.74	 -973.99	   39.36
    112.8643	   57.00	   54.71	 -969.96	   39.35
    112.8977	   53.00	   54.69	 -973.94	   39.34
    112.9312	   55.00	   54.66	 -971.91	   39.34
    112.9646	   47.00	   54.64	 -979.89	   39.33
    112.9980	   70.00	   54.63	 -956.88	   39.32
    113.0314	   47.00	   54.61	 -979.86	   39.31
    113.0648	   62.00	   54.60	 -964.85	   39.30
    113.0983	   42.00	   54.59	 -984.84	   39.29
    113.1317	   56.00	   54.58	 -970.83	   39.28
    113.1651	   68.00	   54.58	 -958.83	   39.27
    113.1985	   75.00	   54.58	 -951.83	   39.26
    113.2320	   66.00	   54.58	 -960.83	   39.25
    113.2654	   63.00	   54.59	 -963.84	   39.24
    113.2988	   57.00	   54.60	 -969.85	   39.23
    113.3322	   56.00	   54.61	 -970.86	   39.22
    113.3657	   57.00	   54.62	 -969.87	   39.21
    113.3991	   72.00	   54.64	 -954.89	   39.20
    113.4325	   62.00	   54.66	 -964.91	   39.19
    113.4659	   59.00	   54.68	 -967.93	   39.18
    113.4993	   60.00	   54.71	 -966.96	   39.17
    113.5328	   54.00	   54.73	 -972.98	   39.16
    113.5662	   69.00	   54.76	 -958.01	   39.15
    113.5996	   54.00	   54.80	 -973.05	   39.14
    113.6330	   70.00	   54.83	 -957.08	   39.13
    113.6665	   56.00	   54.86	 -971.11	   39.12
    113.6999	   63.00	   54.89	 -964.14	   39.11
    113.7333	   65.00	   54.93	 -962.18	   39.10
    113.7667	   37.00	   54.96	 -990.21	   39.08
    113.8001	   53.00	   54.99	 -974.24	   39.07
    113.8336	   49.00	   55.02	 -978.27	   39.06
    113.8670	   53.00	   55.05	 -974.30	   39.05
    113.9004	   58.00	   55.08	 -969.33	   39.04
    113.9338	   45.00	   55.10	 -982.35	   39.02
    113.9673	   55.00	   55.12	 -972.37	   39.01
    114.0007	   38.00	   55.13	 -989.38	   39.00
    114.0341	   68.00	   55.14	 -959.39	   38.99
    114.0675	   62.00	   55.14	 -965.39	   38.97
    114.1010	   55.00	   55.14	 -972.39	   38.96
    114.1344	   64.00	   55.13	 -963.38	   38.95
    114.1678	   56.00	   55.11	 -971.36	   38.94
    114.2012	   52.00	   55.09	 -975.34	   38.92
    114.2346	   49.00	   55.07	 -978.32	   38.91
    114.2681	   66.00	   55.04	 -961.29	   38.90
    114.3015	   63.00	   55.01	 -964.26	   38.88
    114.3349	   54.00	   54.97	 -973.22	   38.87
    114.3683	   70.00	   54.92	 -957.17	   38.86
    114.4018	   51.00	   54.88	 -976.13	   38.84
    114.4352	   58.00	   54.83	 -969.08	   38.83
    114.4686	   51.00	   54.77	 -976.02	   38.81
    114.5020	   59.00	   54.72	 -967.97	   38.80
    114.5354	   58.00	   54.66	 -968.91	   38.78
    114.5689	   67.00	   54.60	 -959.85	   38.77
    114.6023	   58.00	   54.54	 -968.79	   38.76
    114.6357	   59.00	   54.48	 -967.73	   38.74
    114.6691	   53.00	   54.41	 -973.66	   38.73
    114.7026	   64.00	   54.35	 -962.60	   38.71
    114.7360	   63.00	   54.29	 -963.54	   38.70
    114.7694	   57.00	   54.22	 -969.47	   38.68
    114.8028	   58.00	   54.16	 -968.41	   38.66
    114.8363	   82.00	   54.10	 -944.35	   38.65
    114.8697	   60.00	   54.04	 -966.29	   38.63
    114.9031	   56.00	   53.98	 -970.23	   38.62
    114.9365	   63.00	   53.93	 -963.18	   38.60
    114.9699	   70.00	   53.87	 -956.12	   38.58
    115.0034	   64.00	   53.82	 -962.07	   38.57
    115.0368	   57.00	   53.77	 -969.02	   38.55
    115.0702	   64.00	   53.72	 -961.97	   38.54
    115.1036	   50.00	   53.67	 -975.92	   38.52
    115.1371	   52.00	   53.63	 -973.88	   38.50
    115.1705	   66.00	   53.59	 -959.84	   38.49
    115.2039	   60.00	   53.55	 -965.80	   38.47
    115.2373	   71.00	   53.51	 -954.76	   38.45
    115.2707	   66.00	   53.47	 -959.72	   38.43
    115.3042	   59.00	   53.44	 -966.69	   38.42
    115.3376	   69.00	   53.40	 -956.65	   38.40
    115.3710	   63.00	   53.37	 -962.62	   38.38
    115.4044	   50.00	   53.34	 -975.59	   38.36
    115.4379	   43.00	   53.32	 -982.57	   38.34
    115.4713	   64.00	   53.30	 -961.55	   38.33
    115.5047	   70.00	   53.27	 -955.52	   38.31
    115.5381	   45.00	   53.25	 -980.50	   38.29
    115.5715	   41.00	   53.24	 -984.49	   38.27
    115.6050	   69.00	   53.22	 -956.47	   38.25
    115.6384	   59.00	   53.21	 -966.46	   38.23
    115.6718	   60.00	   53.20	 -965.45	   38.21
    115.7052	   49.00	   53.19	 -976.44	   38.19
    115.7387	   63.00	   53.18	 -962.43	   38.18
    115.7721	   59.00	   53.17	 -966.42	   38.16
    115.8055	   59.00	   53.17	 -966.42	   38.14
    115.8389	   53.00	   53.17	 -972.42	   38.12
    115.8723	   55.00	   53.17	 -970.42	   38.10
    115.9058	   60.00	   53.17	 -965.42	   38.08
    115.9392	   45.00	   53.18	 -980.43	   38.06
    115.9726	   60.00	   53.18	 -965.43	   38.04
    116.0060	   64.00	   53.19	 -961.44	   38.01
    116.0395	   60.00	   53.20	 -965.45	   37.99
    116.0729	   78.00	   53.22	 -947.47	   37.97
    116.1063	   56.00	   53.24	 -969.49	   37.95
    116.1397	   60.00	   53.26	 -965.51	   37.93
    116.1731	   50.00	   53.28	 -975.53	   37.91
    116.2066	   49.00	   53.30	 -976.55	   37.89
    116.2400	   57.00	   53.33	 -968.58	   37.87
    116.2734	   53.00	   53.36	 -972.61	   37.85
    116.3068	   50.00	   53.40	 -975.65	   37.82
    116.3403	   56.00	   53.43	 -969.68	   37.80
    116.3737	   55.00	   53.47	 -970.72	   37.78
    116.4071	   73.00	   53.52	 -952.77	   37.76
    116.4405	   73.00	   53.56	 -952.81	   37.73
    116.4740	   71.00	   53.61	 -954.86	   37.71
    116.5074	   58.00	   53.67	 -967.92	   37.69
    116.5408	   67.00	   53.73	 -958.98	   37.67
    116.5742	   67.00	   53.79	 -959.04	   37.64
    116.6076	   64.00	   53.86	 -962.11	   37.62
    116.6411	   52.00	   53.93	 -974.18	   37.60
    116.6745	   55.00	   54.00	 -971.25	   37.57
    116.7079	   60.00	   54.08	 -966.33	   37.55
    116.7413	   72.00	   54.17	 -954.42	   37.53
    116.7748	   42.00	   54.26	 -984.51	   37.50
    116.8082	   65.00	   54.36	 -961.61	   37.48
    116.8416	   67.00	   54.46	 -959.71	   37.45
    116.8750	   51.00	   54.57	 -975.82	   37.43
    116.9084	   63.00	   54.68	 -963.93	   37.40
    116.9419	   48.00	   54.80	 -979.05	   37.38
    116.9753	   56.00	   54.93	 -971.18	   37.35
    117.0087	   63.00	   55.07	 -964.32	   37.33
    117.0421	   60.00	   55.21	 -967.46	   37.30
    117.0756	   70.00	   55.36	 -957.61	   37.28
    117.1090	   43.00	   55.52	 -984.77	   37.25
    117.1424	   64.00	   55.68	 -963.93	   37.23
    117.1758	   53.00	   55.85	 -975.10	   37.20
    117.2093	   53.00	   56.04	 -975.29	   37.17
    117.2427	   59.00	   56.23	 -969.48	   37.15
    117.2761	   67.00	   56.42	 -961.67	   37.12
    117.3095	   66.00	   56.63	 -962.88	   37.10
    117.3429	   74.00	   56.84	 -955.09	   37.07
    117.3764	   76.00	   57.06	 -953.31	   37.04
    117.4098	   62.00	   57.29	 -967.54	   37.02
    117.4432	   62.00	   57.53	 -967.78	   36.99
    117.4766	   66.00	   57.77	 -964.02	   36.96
    117.5100	   57.00	   58.02	 -973.27	   36.93
    117.5435	   63.00	   58.28	 -967.53	   36.91
    117.5769	   68.00	   58.52	 -962.77	   36.88
    117.6103	   58.00	   58.78	 -973.03	   36.85
    117.6437	   76.00	   59.05	 -955.30	   36.82
    117.6772	   68.00	   59.31	 -963.56	   36.79
    117.7106	   56.00	   59.58	 -975.83	   36.76
    117.7440	   62.00	   59.84	 -970.09	   36.74
    117.7774	   73.00	   60.10	 -959.35	   36.71
    117.8109	   86.00	   60.35	 -946.60	   36.68
    117.8443	   76.00	   60.60	 -956.85	   36.65
    117.8777	   76.00	   60.85	 -957.10	   36.62
    117.9111	   75.00	   61.09	 -958.34	   36.59
    117.9445	   84.00	   61.32	 -949.57	   36.56
    117.9780	   89.00	   61.53	 -944.78	   36.53
    118.0114	   67.00	   61.73	 -966.98	   36.50
    118.0448	   73.00	   61.94	 -961.19	   36.47
    118.0782	   85.00	   62.14	 -949.39	   36.44
    118.1117	   65.00	   62.33	 -969.58	   36.41
    118.1451	   62.00	   62.52	 -972.77	   36.38
    118.1785	   84.00	   62.70	 -950.95	   36.35
    118.2119	   70.00	   62.87	 -965.12	   36.32
    118.2453	   66.00	   63.04	 -969.29	   36.29
    118.2788	   91.00	   63.20	 -944.45	   36.25
    118.3122	   97.00	   63.36	 -938.61	   36.22
    118.3456	   84.00	   63.52	 -951.77	   36.19
    118.3790	   85.00	   63.66	 -950.91	   36.16
    118.4125	   87.00	   63.81	 -949.06	   36.13
    118.4459	   80.00	   63.96	 -956.21	   36.10
    118.4793	   74.00	   64.10	 -962.35	   36.06
    118.5127	   75.00	   64.23	 -961.48	   36.03
    118.5462	   79.00	   64.36	 -957.61	   36.00
    118.5796	   71.00	   64.49	 -965.74	   35.96
    118.6130	   78.00	   64.61	 -958.86	   35.93
    118.6464	   81.00	   64.73	 -955.98	   35.90
    118.6798	   72.00	   64.84	 -965.09	   35.86
    118.7133	   76.00	   64.93	 -961.18	   35.83
    118.7467	   71.00	   65.03	 -966.28	   35.80
    118.7801	   81.00	   65.11	 -956.36	   35.76
    118.8135	   79.00	   65.18	 -958.43	   35.73
    118.8470	   96.00	   65.24	 -941.49	   35.69
    118.8804	   79.00	   65.29	 -958.54	   35.66
    118.9138	   87.00	   65.33	 -950.58	   35.63
    118.9472	   76.00	   65.35	 -961.60	   35.59
    118.9806	   83.00	   65.36	 -954.61	   35.56
    119.0141	   95.00	   65.36	 -942.61	   35.52
    119.0475	   84.00	   65.34	 -953.59	   35.48
    119.0809	   83.00	   65.30	 -954.55	   35.45
    119.1143	  100.00	   65.25	 -937.50	   35.41
    119.1478	   87.00	   65.19	 -950.44	   35.38
    119.1812	   85.00	   65.10	 -952.35	   35.34
    119.2146	   76.00	   65.00	 -961.25	   35.30
    119.2480	   85.00	   64.88	 -952.13	   35.27
    119.2814	   81.00	   64.75	 -956.00	   35.23
    119.3149	   68.00	   64.60	 -968.85	   35.19
    119.3483	   81.00	   64.44	 -955.69	   35.16
    119.3817	   89.00	   64.26	 -947.51	   35.12
    119.4151	   80.00	   64.08	 -956.33	   35.08
    119.4486	  104.00	   63.88	 -932.13	   35.05
    119.4820	   84.00	   63.66	 -951.91	   35.01
    119.5154	   95.00	   63.45	 -940.70	   34.97
    119.5488	   74.00	   63.23	 -961.48	   34.93
    119.5822	   84.00	   63.00	 -951.25	   34.89
    119.6157	   88.00	   62.78	 -947.03	   34.85
    119.6491	   86.00	   62.55	 -948.80	   34.82
    119.6825	   79.00	   62.32	 -955.57	   34.78
    119.7159	   84.00	   62.09	 -950.34	   34.74
    119.7494	   74.00	   61.87	 -960.12	   34.70
    119.7828	  106.00	   61.65	 -927.90	   34.66
    119.8162	   84.00	   61.44	 -949.69	   34.62
    119.8496	   71.00	   61.23	 -962.48	   34.58
    119.8830	   87.00	   61.03	 -946.28	   34.54
    119.9165	   85.00	   60.84	 -948.09	   34.50
    119.9499	   75.00	   60.66	 -957.91	   34.46
    119.9833	   88.00	   60.49	 -944.74	   34.42
     23.0709	        	        	        	        	       0	(  0  1  2)	  0  1 :  1
     23.1284	        	        	        	        	       0	(  0  1  2)	  0  2 :  1
     29.4137	        	        	        	        	       0	(  1  0  4)	  0  1 :  1
     29.4876	        	        	        	        	       0	(  1  0  4)	  0  2 :  1
     31.4433	        	        	        	        	       0	(  0  0  6)	  0  1 :  1
     31.5226	        	        	        	        	       0	(  0  0  6)	  0  2 :  1
     35.9878	        	        	        	        	       0	(  1  1  0)	  0  1 :  1
     36.0794	        	        	        	        	       0	(  1  1  0)	  0  2 :  1
     39.4248	        	        	        	        	       0	(  1  1  3)	  0  1 :  1
     39.5258	        	        	        	        	       0	(  1  1  3)	  0  2 :  1
     43.1758	        	        	        	        	       0	(  2  0  2)	  0  1 :  1
     43.2873	        	        	        	        	       0	(  2  0  2)	  0  2 :  1
     47.1289	        	        	        	        	       0	(  0  2  4)	  0  1 :  1
     47.2518	        	        	        	        	       0	(  0  2  4)	  0  2 :  1
     47.5106	        	        	        	        	       0	(  0  1  8)	  0  1 :  1
     47.6347	        	        	        	        	       0	(  0  1  8)	  0  2 :  1
     48.5155	        	        	        	        	       0	(  1  1  6)	  0  1 :  1
     48.6425	        	        	        	        	       0	(  1  1  6)	  0  2 :  1
     56.5803	        	        	        	        	       0	(  2  1  1)	  0  1 :  1
     56.7320	        	        	        	        	       0	(  2  1  1)	  0  2 :  1
     57.4155	        	        	        	        	       0	(  1  2  2)	  0  1 :  1
     57.5699	        	        	        	        	       0	(  1  2  2)	  0  2 :  1
     58.0792	        	        	        	        	       0	(  1  0 10)	  0  1 :  1
     58.2357	        	        	        	        	       0	(  1  0 10)	  0  2 :  1
     60.6828	        	        	        	        	       0	(  2  1  4)	  0  1 :  1
     60.8479	        	        	        	        	       0	(  2  1  4)	  0  2 :  1
     61.0042	        	        	        	        	       0	(  2  0  8)	  0  1 :  1
     61.1703	        	        	        	        	       0	(  2  0  8)	  0  2 :  1
     61.3774	        	        	        	        	       0	(  1  1  9)	  0  1 :  1
     61.5447	        	        	        	        	       0	(  1  1  9)	  0  2 :  1
     63.0656	        	        	        	        	       0	(  1  2  5)	  0  1 :  1
     63.2386	        	        	        	        	       0	(  1  2  5)	  0  2 :  1
     64.6776	        	        	        	        	       0	(  3  0  0)	  0  1 :  1
     64.8561	        	        	        	        	       0	(  3  0  0)	  0  2 :  1
     65.6054	        	        	        	        	       0	(  0  0 12)	  0  1 :  1
     65.7872	        	        	        	        	       0	(  0  0 12)	  0  2 :  1
     69.1957	        	        	        	        	       0	(  2  1  7)	  0  1 :  1
     69.3902	        	        	        	        	       0	(  2  1  7)	  0  2 :  1
     70.2416	        	        	        	        	       0	(  0  2 10)	  0  1 :  1
     70.4399	        	        	        	        	       0	(  0  2 10)	  0  2 :  1
     72.8990	        	        	        	        	       0	(  1  2  8)	  0  1 :  1
     73.1072	        	        	        	        	       0	(  1  2  8)	  0  2 :  1
     73.6786	        	        	        	        	       0	(  0  3  6)	  0  1 :  1
     73.6786	        	        	        	        	       0	(  3  0  6)	  0  1 :  1
     73.8899	        	        	        	        	       0	(  0  3  6)	  0  2 :  1
     73.8899	        	        	        	        	       0	(  3  0  6)	  0  2 :  1
     76.2888	        	        	        	        	       0	(  2  2  0)	  0  1 :  1
     76.5103	        	        	        	        	       0	(  2  2  0)	  0  2 :  1
     77.1537	        	        	        	        	       0	(  1  1 12)	  0  1 :  1
     77.3787	        	        	        	        	       0	(  1  1 12)	  0  2 :  1
     78.4421	        	        	        	        	       0	(  2  2  3)	  0  1 :  1
     78.6723	        	        	        	        	       0	(  2  2  3)	  0  2 :  1
     80.2473	        	        	        	        	       0	(  1  3  1)	  0  1 :  1
     80.4850	        	        	        	        	       0	(  1  3  1)	  0  2 :  1
     80.9572	        	        	        	        	       0	(  3  1  2)	  0  1 :  1
     81.1979	        	        	        	        	       0	(  3  1  2)	  0  2 :  1
     81.5250	        	        	        	        	       0	(  2  1 10)	  0  1 :  1
     81.7681	        	        	        	        	       0	(  2  1 10)	  0  2 :  1
     82.0920	        	        	        	        	       0	(  0  1 14)	  0  1 :  1
     82.3376	        	        	        	        	       0	(  0  1 14)	  0  2 :  1
     83.7837	        	        	        	        	       0	(  1  3  4)	  0  1 :  1
     84.0368	        	        	        	        	       0	(  1  3  4)	  0  2 :  1
     84.8161	        	        	        	        	       0	(  2  2  6)	  0  1 :  1
     85.0738	        	        	        	        	       0	(  2  2  6)	  0  2 :  1
     85.8933	        	        	        	        	       0	(  3  1  5)	  0  1 :  1
     86.1559	        	        	        	        	       0	(  3  1  5)	  0  2 :  1
     86.4558	        	        	        	        	       0	(  1  2 11)	  0  1 :  1
     86.7210	        	        	        	        	       0	(  1  2 11)	  0  2 :  1
     91.4994	        	        	        	        	       0	(  1  3  7)	  0  1 :  1
     91.7891	        	        	        	        	       0	(  1  3  7)	  0  2 :  1
     91.9193	        	        	        	        	       0	(  0  4  2)	  0  1 :  1
     92.2111	        	        	        	        	       0	(  0  4  2)	  0  2 :  1
     93.0427	        	        	        	        	       0	(  2  0 14)	  0  1 :  1
     93.3403	        	        	        	        	       0	(  2  0 14)	  0  2 :  1
     94.7255	        	        	        	        	       0	(  4  0  4)	  0  1 :  1
     95.0070	        	        	        	        	       0	(  3  1  8)	  0  1 :  1
     95.0320	        	        	        	        	       0	(  4  0  4)	  0  2 :  1
     95.3151	        	        	        	        	       0	(  3  1  8)	  0  2 :  1
     95.3353	        	        	        	        	       0	(  2  2  9)	  0  1 :  1
     95.6452	        	        	        	        	       0	(  2  2  9)	  0  2 :  1
     96.1347	        	        	        	        	       0	(  1  0 16)	  0  1 :  1
     96.1814	        	        	        	        	       0	(  1  1 15)	  0  1 :  1
     96.4489	        	        	        	        	       0	(  1  0 16)	  0  2 :  1
     96.4958	        	        	        	        	       0	(  1  1 15)	  0  2 :  1
     97.6857	        	        	        	        	       0	(  2  1 13)	  0  1 :  1
     98.0086	        	        	        	        	       0	(  2  1 13)	  0  2 :  1
     99.1484	        	        	        	        	       0	(  0  3 12)	  0  1 :  1
     99.1484	        	        	        	        	       0	(  3  0 12)	  0  1 :  1
     99.4798	        	        	        	        	       0	(  0  3 12)	  0  2 :  1
     99.4798	        	        	        	        	       0	(  3  0 12)	  0  2 :  1
    102.2352	        	        	        	        	       0	(  3  2  1)	  0  1 :  1
    102.5854	        	        	        	        	       0	(  3  2  1)	  0  2 :  1
    102.9528	        	        	        	        	       0	(  2  3  2)	  0  1 :  1
    103.3075	        	        	        	        	       0	(  2  3  2)	  0  2 :  1
    103.5292	        	        	        	        	       0	(  1  3 10)	  0  1 :  1
    103.8876	        	        	        	        	       0	(  1  3 10)	  0  2 :  1
    104.1071	        	        	        	        	       0	(  1  2 14)	  0  1 :  1
    104.4692	        	        	        	        	       0	(  1  2 14)	  0  2 :  1
    105.8449	        	        	        	        	       0	(  3  2  4)	  0  1 :  1
    106.1368	        	        	        	        	       0	(  0  4  8)	  0  1 :  1
    106.2187	        	        	        	        	       0	(  3  2  4)	  0  2 :  1
    106.5125	        	        	        	        	       0	(  0  4  8)	  0  2 :  1
    107.3086	        	        	        	        	       0	(  0  2 16)	  0  1 :  1
    107.6925	        	        	        	        	       0	(  0  2 16)	  0  2 :  1
    108.0411	        	        	        	        	       0	(  2  3  5)	  0  1 :  1
    108.4302	        	        	        	        	       0	(  2  3  5)	  0  2 :  1
    108.6322	        	        	        	        	       0	(  3  1 11)	  0  1 :  1
    108.6837	        	        	        	        	       0	(  0  0 18)	  0  1 :  1
    109.0256	        	        	        	        	       0	(  3  1 11)	  0  2 :  1
    109.0774	        	        	        	        	       0	(  0  0 18)	  0  2 :  1
    109.5696	        	        	        	        	       0	(  4  1  0)	  0  1 :  1
    109.9698	        	        	        	        	       0	(  4  1  0)	  0  2 :  1
    110.4654	        	        	        	        	       0	(  2  2 12)	  0  1 :  1
    110.8724	        	        	        	        	       0	(  2  2 12)	  0  2 :  1
    111.8153	        	        	        	        	       0	(  1  4  3)	  0  1 :  1
    111.8153	        	        	        	        	       0	(  4  1  3)	  0  1 :  1
    112.2328	        	        	        	        	       0	(  1  4  3)	  0  2 :  1
    112.2328	        	        	        	        	       0	(  4  1  3)	  0  2 :  1
    114.0460	        	        	        	        	       0	(  3  2  7)	  0  1 :  1
    114.4816	        	        	        	        	       0	(  3  2  7)	  0  2 :  1
    115.1246	        	        	        	        	       0	(  4  0 10)	  0  1 :  1
    115.5694	        	        	        	        	       0	(  4  0 10)	  0  2 :  1
    117.9419	        	        	        	        	       0	(  2  3  8)	  0  1 :  1
    118.4120	        	        	        	        	       0	(  2  3  8)	  0  2 :  1
    118.7904	        	        	        	        	       0	(  1  4  6)	  0  1 :  1
    118.7904	        	        	        	        	       0	(  4  1  6)	  0  1 :  1
    119.2199	        	        	        	        	       0	(  2  1 16)	  0  1 :  1
    119.2685	        	        	        	        	       0	(  1  4  6)	  0  2 :  1
    119.2685	        	        	        	        	       0	(  4  1  6)	  0  2 :  1
    119.7022	        	        	        	        	       0	(  2  1 16)	  0  2 :  1
    120.7295	        	        	        	        	       0	(  1  1 18)	  0  1 :  1
    120.9996	        	        	        	        	       0	(  1  3 13)	  0  1 :  1
    121.2268	        	        	        	        	       0	(  1  1 18)	  0  2 :  1
    121.4997	        	        	        	        	       0	(  1  3 13)	  0  2 :  1
    127.2601	        	        	        	        	       0	(  5  0  2)	  0  1 :  1
    127.8315	        	        	        	        	       0	(  5  0  2)	  0  2 :  1
    127.9684	        	        	        	        	       0	(  3  2 10)	  0  1 :  1
    128.5057	        	        	        	        	       0	(  1  2 17)	  0  1 :  1
    128.5489	        	        	        	        	       0	(  3  2 10)	  0  2 :  1
    128.6837	        	        	        	        	       0	(  3  1 14)	  0  1 :  1
    129.0932	        	        	        	        	       0	(  1  2 17)	  0  2 :  1
    129.2735	        	        	        	        	       0	(  3  1 14)	  0  2 :  1
    130.8679	        	        	        	        	       0	(  0  5  4)	  0  1 :  1
    131.4881	        	        	        	        	       0	(  0  5  4)	  0  2 :  1
    131.6761	        	        	        	        	       0	(  1  4  9)	  0  1 :  1
    131.6761	        	        	        	        	       0	(  4  1  9)	  0  1 :  1
    132.3082	        	        	        	        	       0	(  1  4  9)	  0  2 :  1
    132.3082	        	        	        	        	       0	(  4  1  9)	  0  2 :  1
    132.8131	        	        	        	        	       0	(  2  2 15)	  0  1 :  1
    133.4626	        	        	        	        	       0	(  2  2 15)	  0  2 :  1
    133.9069	        	        	        	        	       0	(  0  1 20)	  0  1 :  1
    134.4890	        	        	        	        	       0	(  2  3 11)	  0  1 :  1
    134.5739	        	        	        	        	       0	(  0  1 20)	  0  2 :  1
    135.1656	        	        	        	        	       0	(  2  3 11)	  0  2 :  1
    135.7440	        	        	        	        	       0	(  3  3  0)	  0  1 :  1
    136.4424	        	        	        	        	       0	(  3  3  0)	  0  2 :  1
    138.8414	        	        	        	        	       0	(  3  3  3)	  0  1 :  1
    139.5987	        	        	        	        	       0	(  3  3  3)	  0  2 :  1
    141.6141	        	        	        	        	       0	(  2  4  1)	  0  1 :  1
    142.4321	        	        	        	        	       0	(  2  4  1)	  0  2 :  1
    142.7562	        	        	        	        	       0	(  4  2  2)	  0  1 :  1
    143.6018	        	        	        	        	       0	(  4  2  2)	  0  2 :  1
    144.6519	        	        	        	        	       0	(  0  4 14)	  0  1 :  1
    145.5473	        	        	        	        	       0	(  0  4 14)	  0  2 :  1
    147.6664	        	        	        	        	       0	(  2  4  4)	  0  1 :  1
    148.1948	        	        	        	        	       0	(  5  0  8)	  0  1 :  1
    148.6532	        	        	        	        	       0	(  2  4  4)	  0  2 :  1
    149.1994	        	        	        	        	       0	(  5  0  8)	  0  2 :  1
    149.6408	        	        	        	        	       0	(  3  3  6)	  0  1 :  1
    150.3924	        	        	        	        	       0	(  1  3 16)	  0  1 :  1
    150.6976	        	        	        	        	       0	(  3  3  6)	  0  2 :  1
    151.4783	        	        	        	        	       0	(  1  3 16)	  0  2 :  1
    151.8371	        	        	        	        	       0	(  4  2  5)	  0  1 :  1
    152.1432	        	        	        	        	       0	(  2  0 20)	  0  1 :  1
    152.9835	        	        	        	        	       0	(  4  2  5)	  0  2 :  1
    153.1576	        	        	        	        	       0	(  0  3 18)	  0  1 :  1
    153.1576	        	        	        	        	       0	(  3  0 18)	  0  1 :  1
    153.3033	        	        	        	        	       0	(  2  0 20)	  0  2 :  1
    153.6756	        	        	        	        	       0	(  3  2 13)	  0  1 :  1
    154.3653	        	        	        	        	       0	(  0  3 18)	  0  2 :  1
    154.3653	        	        	        	        	       0	(  3  0 18)	  0  2 :  1
    154.9092	        	        	        	        	       0	(  3  2 13)	  0  2 :  1
    156.3314	        	        	        	        	       0	(  2  1 19)	  0  1 :  1
    157.1533	        	        	        	        	       0	(  1  4 12)	  0  1 :  1
    157.1533	        	        	        	        	       0	(  4  1 12)	  0  1 :  1
    157.7164	        	        	        	        	       0	(  2  1 19)	  0  2 :  1
    158.5929	        	        	        	        	       0	(  1  4 12)	  0  2 :  1
    158.5929	        	        	        	        	       0	(  4  1 12)	  0  2 :  1
