CaCO3   Chi2:  1.5198  CELL:    4.99056   4.99056  17.06771   90.0000   90.0000  120.0000   SPGR: R -3 C                 TEMP:      0.00
  1   2992     1.54060     1.54439     0.00000     0.04853     0.00000    0
   135     0     1
       0.00000      10.00000
 2Theta	Yobs	Ycal	Yobs-Ycal	Backg	Posr	(hkl)	K
     20.0165	   27.00	   28.20	-1347.70	   26.53
     20.0499	   47.00	   28.16	-1327.66	   26.50
     20.0834	   31.00	   28.13	-1343.63	   26.46
     20.1168	   45.00	   28.09	-1329.59	   26.43
     20.1502	   35.00	   28.06	-1339.56	   26.39
     20.1836	   41.00	   28.02	-1333.52	   26.36
     20.2170	   35.00	   27.99	-1339.49	   26.32
     20.2505	   36.00	   27.95	-1338.45	   26.29
     20.2839	   44.00	   27.92	-1330.42	   26.26
     20.3173	   46.00	   27.88	-1328.38	   26.22
     20.3507	   36.00	   27.85	-1338.35	   26.19
     20.3842	   43.00	   27.81	-1331.31	   26.15
     20.4176	   35.00	   27.78	-1339.28	   26.12
     20.4510	   30.00	   27.74	-1344.24	   26.08
     20.4844	   23.00	   27.71	-1351.21	   26.05
     20.5179	   28.00	   27.67	-1346.17	   26.01
     20.5513	   24.00	   27.64	-1350.14	   25.98
     20.5847	   40.00	   27.60	-1334.10	   25.94
     20.6181	   27.00	   27.57	-1347.07	   25.91
     20.6515	   28.00	   27.54	-1346.04	   25.88
     20.6850	   36.00	   27.50	-1338.00	   25.84
     20.7184	   27.00	   27.47	-1346.97	   25.81
     20.7518	   37.00	   27.43	-1336.93	   25.77
     20.7852	   32.00	   27.47	-1341.97	   25.74
     20.8187	   34.00	   27.43	-1339.93	   25.70
     20.8521	   21.00	   27.44	-1352.94	   25.67
     20.8855	   31.00	   27.41	-1342.91	   25.64
     20.9189	   30.00	   27.37	-1343.87	   25.60
     20.9523	   33.00	   27.34	-1340.84	   25.57
     20.9858	   29.00	   27.31	-1344.81	   25.54
     21.0192	   30.00	   27.28	-1343.78	   25.50
     21.0526	   45.00	   27.25	-1328.75	   25.47
     21.0860	   32.00	   27.22	-1341.72	   25.43
     21.1195	   26.00	   27.20	-1347.70	   25.40
     21.1529	   36.00	   27.17	-1337.67	   25.37
     21.1863	   23.00	   27.14	-1350.64	   25.33
     21.2197	   36.00	   27.11	-1337.61	   25.30
     21.2531	   33.00	   27.08	-1340.58	   25.27
     21.2866	   31.00	   27.05	-1342.55	   25.23
     21.3200	   35.00	   27.03	-1338.53	   25.20
     21.3534	   34.00	   27.00	-1339.50	   25.17
     21.3868	   22.00	   26.97	-1351.47	   25.13
     21.4203	   37.00	   26.95	-1336.45	   25.10
     21.4537	   29.00	   26.92	-1344.42	   25.07
     21.4871	   29.00	   26.90	-1344.40	   25.03
     21.5205	   20.00	   26.87	-1353.37	   25.00
     21.5539	   28.00	   26.85	-1345.35	   24.97
     21.5874	   32.00	   26.82	-1341.32	   24.93
     21.6208	   31.00	   26.80	-1342.30	   24.90
     21.6542	   26.00	   26.78	-1347.28	   24.87
     21.6876	   34.00	   26.76	-1339.26	   24.83
     21.7211	   29.00	   26.74	-1344.24	   24.80
     21.7545	   21.00	   26.72	-1352.22	   24.77
     21.7879	   28.00	   26.70	-1345.20	   24.74
     21.8213	   28.00	   26.68	-1345.18	   24.70
     21.8548	   26.00	   26.67	-1347.17	   24.67
     21.8882	   22.00	   26.65	-1351.15	   24.64
     21.9216	   32.00	   26.64	-1341.14	   24.60
     21.9550	   18.00	   26.63	-1355.13	   24.57
     21.9884	   33.00	   26.62	-1340.12	   24.54
     22.0219	   30.00	   26.62	-1343.12	   24.51
     22.0553	   31.00	   26.61	-1342.11	   24.47
     22.0887	   32.00	   26.61	-1341.11	   24.44
     22.1221	   32.00	   26.61	-1341.11	   24.41
     22.1556	   35.00	   26.62	-1338.12	   24.38
     22.1890	   32.00	   26.63	-1341.13	   24.34
     22.2224	   28.00	   26.64	-1345.14	   24.31
     22.2558	   24.00	   26.67	-1349.17	   24.28
     22.2892	   29.00	   26.69	-1344.19	   24.25
     22.3227	   29.00	   26.73	-1344.23	   24.22
     22.3561	   35.00	   26.77	-1338.27	   24.18
     22.3895	   24.00	   26.83	-1349.33	   24.15
     22.4229	   35.00	   26.90	-1338.40	   24.12
     22.4564	   26.00	   26.98	-1347.48	   24.09
     22.4898	   46.00	   27.08	-1327.58	   24.05
     22.5232	   41.00	   27.21	-1332.71	   24.02
     22.5566	   32.00	   27.36	-1341.86	   23.99
     22.5900	   29.00	   27.56	-1345.06	   23.96
     22.6235	   33.00	   27.80	-1341.30	   23.93
     22.6569	   49.00	   28.10	-1325.60	   23.90
     22.6903	   35.00	   28.48	-1339.98	   23.86
     22.7237	   31.00	   28.96	-1344.46	   23.83
     22.7572	   30.00	   29.60	-1346.10	   23.80
     22.7906	   33.00	   30.46	-1343.96	   23.77
     22.8240	   41.00	   31.62	-1337.12	   23.74
     22.8574	   32.00	   33.27	-1347.77	   23.71
     22.8909	   58.00	   35.73	-1324.23	   23.67
     22.9243	   58.00	   40.15	-1328.65	   23.64
     22.9577	   68.00	   51.93	-1330.43	   23.61
     22.9911	   96.00	   91.11	-1341.61	   23.58
     23.0245	  184.00	  197.20	-1359.70	   23.55
     23.0580	  403.00	  384.77	-1328.27	   23.52
     23.0914	  556.00	  560.31	-1350.81	   23.49
     23.1248	  561.00	  572.47	-1357.97	   23.46
     23.1582	  436.00	  441.58	-1352.08	   23.42
     23.1917	  284.00	  263.90	-1326.40	   23.39
     23.2251	  125.00	  132.42	-1353.92	   23.36
     23.2585	   67.00	   68.03	-1347.53	   23.33
     23.2919	   37.00	   44.81	-1354.31	   23.30
     23.3253	   32.00	   37.15	-1351.65	   23.27
     23.3588	   31.00	   33.81	-1349.31	   23.24
     23.3922	   21.00	   31.77	-1357.27	   23.21
     23.4256	   24.00	   30.34	-1352.84	   23.18
     23.4590	   34.00	   29.30	-1341.80	   23.15
     23.4925	   39.00	   28.52	-1336.02	   23.11
     23.5259	   34.00	   27.91	-1340.41	   23.08
     23.5593	   31.00	   27.42	-1342.92	   23.05
     23.5927	   24.00	   27.03	-1349.53	   23.02
     23.6261	   37.00	   26.70	-1336.20	   22.99
     23.6596	   23.00	   26.43	-1349.93	   22.96
     23.6930	   27.00	   26.19	-1345.69	   22.93
     23.7264	   27.00	   25.99	-1345.49	   22.90
     23.7598	   27.00	   25.82	-1345.32	   22.87
     23.7933	   30.00	   25.66	-1342.17	   22.84
     23.8267	   24.00	   25.53	-1348.03	   22.81
     23.8601	   22.00	   25.41	-1349.91	   22.78
     23.8935	   26.00	   25.29	-1345.79	   22.75
     23.9269	   28.00	   25.19	-1343.69	   22.72
     23.9604	   27.00	   25.10	-1344.60	   22.69
     23.9938	   33.00	   25.01	-1338.51	   22.66
     24.0272	   27.00	   24.93	-1344.43	   22.63
     24.0606	   20.00	   24.86	-1351.36	   22.60
     24.0941	   27.00	   24.79	-1344.29	   22.57
     24.1275	   20.00	   24.72	-1351.22	   22.54
     24.1609	   41.00	   24.66	-1330.16	   22.51
     24.1943	   21.00	   24.60	-1350.10	   22.48
     24.2278	   28.00	   24.54	-1343.04	   22.45
     24.2612	   24.00	   24.49	-1346.99	   22.42
     24.2946	   33.00	   24.43	-1337.93	   22.39
     24.3280	   26.00	   24.38	-1344.88	   22.36
     24.3614	   27.00	   24.33	-1343.83	   22.33
     24.3949	   34.00	   24.29	-1336.79	   22.30
     24.4283	   23.00	   24.24	-1347.74	   22.27
     24.4617	   19.00	   24.20	-1351.70	   22.24
     24.4951	   28.00	   24.15	-1342.65	   22.21
     24.5286	   30.00	   24.11	-1340.61	   22.18
     24.5620	   32.00	   24.07	-1338.57	   22.15
     24.5954	   23.00	   24.03	-1347.53	   22.12
     24.6288	   27.00	   23.99	-1343.49	   22.09
     24.6622	   35.00	   23.95	-1335.45	   22.06
     24.6957	   27.00	   23.91	-1343.41	   22.03
     24.7291	   20.00	   23.87	-1350.37	   22.00
     24.7625	   27.00	   23.83	-1343.33	   21.98
     24.7959	   11.00	   23.80	-1359.30	   21.95
     24.8294	   21.00	   23.76	-1349.26	   21.92
     24.8628	   27.00	   23.72	-1343.22	   21.89
     24.8962	   23.00	   23.69	-1347.19	   21.86
     24.9296	   19.00	   23.65	-1351.15	   21.83
     24.9630	   18.00	   23.62	-1352.12	   21.80
     24.9965	   23.00	   23.58	-1347.08	   21.77
     25.0299	   23.00	   23.55	-1347.05	   21.74
     25.0633	   17.00	   23.52	-1353.02	   21.71
     25.0967	   29.00	   23.48	-1340.98	   21.68
     25.1302	   17.00	   23.45	-1352.95	   21.66
     25.1636	   30.00	   23.42	-1339.92	   21.63
     25.1970	   22.00	   23.38	-1347.88	   21.60
     25.2304	   30.00	   23.35	-1339.85	   21.57
     25.2639	   21.00	   23.32	-1348.82	   21.54
     25.2973	   28.00	   23.29	-1341.79	   21.51
     25.3307	   18.00	   23.25	-1351.75	   21.48
     25.3641	   24.00	   23.22	-1345.72	   21.46
     25.3975	   18.00	   23.19	-1351.69	   21.43
     25.4310	   24.00	   23.09	-1345.59	   21.40
     25.4644	   27.00	   23.06	-1342.56	   21.37
     25.4978	   28.00	   23.00	-1341.50	   21.34
     25.5312	   24.00	   22.97	-1345.47	   21.31
     25.5647	   24.00	   22.95	-1345.45	   21.28
     25.5981	   22.00	   22.92	-1347.42	   21.26
     25.6315	   27.00	   22.89	-1342.39	   21.23
     25.6649	   17.00	   22.86	-1352.36	   21.20
     25.6983	   27.00	   22.83	-1342.33	   21.17
     25.7318	   24.00	   22.80	-1345.30	   21.14
     25.7652	   10.00	   22.78	-1359.28	   21.12
     25.7986	   26.00	   22.75	-1343.25	   21.09
     25.8320	   29.00	   22.72	-1340.22	   21.06
     25.8655	   16.00	   22.69	-1353.19	   21.03
     25.8989	   17.00	   22.66	-1352.16	   21.00
     25.9323	   21.00	   22.64	-1348.14	   20.98
     25.9657	   29.00	   22.61	-1340.11	   20.95
     25.9991	   19.00	   22.58	-1350.08	   20.92
     26.0326	   21.00	   22.55	-1348.05	   20.89
     26.0660	   17.00	   22.52	-1352.02	   20.86
     26.0994	   26.00	   22.50	-1343.00	   20.84
     26.1328	   27.00	   22.47	-1341.97	   20.81
     26.1663	   26.00	   22.44	-1342.94	   20.78
     26.1997	   22.00	   22.41	-1346.91	   20.75
     26.2331	   20.00	   22.39	-1348.89	   20.73
     26.2665	   18.00	   22.36	-1350.86	   20.70
     26.2999	   21.00	   22.33	-1347.83	   20.67
     26.3334	   23.00	   22.30	-1345.80	   20.64
     26.3668	   13.00	   22.28	-1355.78	   20.62
     26.4002	   28.00	   22.25	-1340.75	   20.59
     26.4336	   19.00	   22.22	-1349.72	   20.56
     26.4671	   26.00	   22.19	-1342.69	   20.53
     26.5005	   24.00	   22.17	-1344.67	   20.51
     26.5339	   22.00	   22.14	-1346.64	   20.48
     26.5673	   20.00	   22.11	-1348.61	   20.45
     26.6008	   22.00	   22.09	-1346.59	   20.42
     26.6342	   27.00	   22.06	-1341.56	   20.40
     26.6676	   35.00	   22.03	-1333.53	   20.37
     26.7010	   22.00	   22.00	-1346.50	   20.34
     26.7344	   27.00	   21.98	-1341.48	   20.32
     26.7679	   26.00	   21.95	-1342.45	   20.29
     26.8013	   21.00	   21.92	-1347.42	   20.26
     26.8347	   20.00	   21.90	-1348.40	   20.24
     26.8681	   21.00	   21.87	-1347.37	   20.21
     26.9016	   22.00	   21.84	-1346.34	   20.18
     26.9350	   26.00	   21.82	-1342.32	   20.15
     26.9684	   30.00	   21.79	-1338.29	   20.13
     27.0018	   28.00	   21.76	-1340.26	   20.10
     27.0352	   20.00	   21.74	-1348.24	   20.07
     27.0687	   19.00	   21.71	-1349.21	   20.05
     27.1021	   18.00	   22.40	-1350.90	   20.02
     27.1355	   27.00	   22.40	-1341.90	   19.99
     27.1689	   23.00	   22.75	-1346.25	   19.97
     27.2024	   16.00	   22.76	-1353.26	   19.94
     27.2358	   21.00	   22.76	-1348.26	   19.91
     27.2692	   19.00	   22.77	-1350.27	   19.89
     27.3026	   17.00	   22.79	-1352.29	   19.86
     27.3360	   18.00	   22.80	-1351.30	   19.84
     27.3695	   13.00	   22.82	-1356.32	   19.81
     27.4029	   21.00	   22.83	-1348.33	   19.78
     27.4363	   18.00	   22.85	-1351.35	   19.76
     27.4697	   19.00	   22.88	-1350.38	   19.73
     27.5032	   15.00	   22.90	-1354.40	   19.70
     27.5366	   23.00	   22.93	-1346.43	   19.68
     27.5700	   16.00	   22.96	-1353.46	   19.65
     27.6034	   16.00	   22.99	-1353.49	   19.63
     27.6369	   14.00	   23.03	-1355.53	   19.60
     27.6703	   26.00	   23.07	-1343.57	   19.57
     27.7037	   26.00	   23.11	-1343.61	   19.55
     27.7371	   26.00	   23.16	-1343.66	   19.52
     27.7705	   29.00	   23.22	-1340.72	   19.50
     27.8040	   26.00	   23.27	-1343.77	   19.47
     27.8374	   15.00	   23.34	-1354.84	   19.44
     27.8708	   26.00	   23.41	-1343.91	   19.42
     27.9042	   30.00	   23.48	-1339.98	   19.39
     27.9377	   24.00	   23.56	-1346.06	   19.37
     27.9711	   18.00	   23.65	-1352.15	   19.34
     28.0045	   16.00	   23.75	-1354.25	   19.32
     28.0379	   21.00	   23.86	-1349.36	   19.29
     28.0713	   22.00	   23.97	-1348.47	   19.26
     28.1048	   31.00	   24.10	-1339.60	   19.24
     28.1382	   26.00	   24.24	-1344.74	   19.21
     28.1716	   27.00	   24.39	-1343.89	   19.19
     28.2050	   16.00	   24.55	-1355.05	   19.16
     28.2385	   22.00	   24.73	-1349.23	   19.14
     28.2719	   27.00	   24.93	-1344.43	   19.11
     28.3053	   24.00	   25.15	-1347.65	   19.09
     28.3387	   30.00	   25.39	-1341.89	   19.06
     28.3721	   23.00	   25.65	-1349.15	   19.04
     28.4056	   33.00	   25.95	-1339.45	   19.01
     28.4390	   41.00	   26.27	-1331.77	   18.99
     28.4724	   39.00	   26.63	-1334.13	   18.96
     28.5058	   37.00	   27.03	-1336.53	   18.93
     28.5393	   32.00	   27.48	-1341.98	   18.91
     28.5727	   47.00	   27.99	-1327.49	   18.88
     28.6061	   49.00	   28.55	-1326.05	   18.86
     28.6395	   40.00	   29.20	-1335.70	   18.83
     28.6729	   46.00	   29.92	-1330.42	   18.81
     28.7064	   39.00	   30.75	-1338.25	   18.78
     28.7398	   54.00	   31.70	-1324.20	   18.76
     28.7732	   44.00	   32.79	-1335.29	   18.73
     28.8066	   50.00	   34.06	-1330.56	   18.71
     28.8401	   54.00	   35.55	-1328.05	   18.69
     28.8735	   46.00	   37.30	-1337.80	   18.66
     28.9069	   43.00	   39.37	-1342.87	   18.64
     28.9403	   50.00	   41.86	-1338.36	   18.61
     28.9738	   45.00	   44.88	-1346.38	   18.59
     29.0072	   57.00	   48.60	-1338.10	   18.56
     29.0406	   57.00	   53.23	-1342.73	   18.54
     29.0740	   56.00	   59.12	-1349.62	   18.51
     29.1074	   73.00	   66.74	-1340.24	   18.49
     29.1409	   82.00	   76.83	-1341.33	   18.46
     29.1743	  112.00	   90.59	-1325.09	   18.44
     29.2077	  148.00	  110.07	-1308.57	   18.41
     29.2411	  175.00	  139.91	-1311.41	   18.39
     29.2746	  246.00	  198.23	-1298.73	   18.37
     29.3080	  433.00	  366.13	-1279.63	   18.34
     29.3414	  823.00	  891.02	-1414.52	   18.32
     29.3748	 1899.00	 2127.20	-1574.70	   18.29
     29.4082	 3964.00	 3963.35	-1345.85	   18.27
     29.4417	 5386.00	 5230.65	-1191.15	   18.24
     29.4751	 5009.00	 4954.80	-1292.30	   18.22
     29.5085	 3857.00	 3882.70	-1372.20	   18.20
     29.5419	 2477.00	 2486.74	-1356.24	   18.17
     29.5754	 1218.00	 1267.63	-1396.13	   18.15
     29.6088	  505.00	  556.20	-1397.70	   18.12
     29.6422	  227.00	  260.02	-1379.52	   18.10
     29.6756	  132.00	  158.53	-1373.03	   18.08
     29.7090	  119.00	  118.20	-1345.70	   18.05
     29.7425	   80.00	   95.50	-1362.00	   18.03
     29.7759	   61.00	   80.09	-1365.59	   18.00
     29.8093	   59.00	   68.96	-1356.46	   17.98
     29.8427	   62.00	   60.63	-1345.13	   17.96
     29.8762	   54.00	   54.24	-1346.74	   17.93
     29.9096	   40.00	   49.22	-1355.72	   17.91
     29.9430	   47.00	   45.22	-1344.72	   17.89
     29.9764	   36.00	   41.97	-1352.47	   17.86
     30.0098	   44.00	   39.29	-1341.79	   17.84
     30.0433	   36.00	   37.06	-1347.56	   17.82
     30.0767	   33.00	   35.18	-1348.68	   17.79
     30.1101	   33.00	   33.58	-1347.08	   17.77
     30.1435	   30.00	   32.21	-1348.71	   17.74
     30.1770	   39.00	   31.03	-1338.53	   17.72
     30.2104	   39.00	   29.99	-1337.49	   17.70
     30.2438	   35.00	   29.09	-1340.59	   17.67
     30.2772	   37.00	   28.29	-1337.79	   17.65
     30.3107	   23.00	   27.59	-1351.09	   17.63
     30.3441	   29.00	   26.96	-1344.46	   17.60
     30.3775	   31.00	   26.39	-1341.89	   17.58
     30.4109	   40.00	   25.89	-1332.39	   17.56
     30.4443	   23.00	   25.43	-1348.93	   17.53
     30.4778	   31.00	   25.02	-1340.52	   17.51
     30.5112	   32.00	   24.65	-1339.15	   17.49
     30.5446	   31.00	   24.31	-1339.81	   17.47
     30.5780	   27.00	   24.00	-1343.50	   17.44
     30.6115	   30.00	   23.71	-1340.21	   17.42
     30.6449	   28.00	   23.45	-1341.95	   17.40
     30.6783	   20.00	   23.21	-1349.71	   17.37
     30.7117	   37.00	   23.00	-1332.50	   17.35
     30.7451	   29.00	   22.80	-1340.30	   17.33
     30.7786	   31.00	   22.62	-1338.12	   17.30
     30.8120	   19.00	   22.45	-1349.95	   17.28
     30.8454	   23.00	   22.30	-1345.80	   17.26
     30.8788	   27.00	   22.17	-1341.67	   17.24
     30.9123	   18.00	   22.05	-1350.55	   17.21
     30.9457	   19.00	   21.95	-1349.45	   17.19
     30.9791	   18.00	   21.86	-1350.36	   17.17
     31.0125	   33.00	   21.80	-1335.30	   17.15
     31.0459	   31.00	   21.76	-1337.26	   17.12
     31.0794	   20.00	   21.74	-1348.24	   17.10
     31.1128	   19.00	   21.76	-1349.26	   17.08
     31.1462	   11.00	   21.82	-1357.32	   17.06
     31.1796	   32.00	   21.95	-1336.45	   17.03
     31.2131	   21.00	   22.16	-1347.66	   17.01
     31.2465	   23.00	   22.51	-1346.01	   16.99
     31.2799	   22.00	   23.13	-1347.63	   16.97
     31.3133	   16.00	   24.57	-1355.07	   16.94
     31.3468	   41.00	   29.09	-1334.59	   16.92
     31.3802	   43.00	   42.64	-1346.14	   16.90
     31.4136	   69.00	   71.41	-1348.91	   16.88
     31.4470	  134.00	  108.36	-1320.86	   16.85
     31.4804	  137.00	  126.24	-1335.74	   16.83
     31.5139	  129.00	  115.10	-1332.60	   16.81
     31.5473	  123.00	   93.65	-1317.15	   16.79
     31.5807	   53.00	   67.07	-1360.57	   16.77
     31.6141	   41.00	   43.79	-1349.29	   16.74
     31.6476	   37.00	   30.09	-1339.59	   16.72
     31.6810	   14.00	   24.34	-1356.84	   16.70
     31.7144	   20.00	   22.31	-1348.81	   16.68
     31.7478	   23.00	   21.46	-1344.96	   16.66
     31.7812	   21.00	   20.95	-1346.45	   16.63
     31.8147	   18.00	   19.88	-1348.38	   16.61
     31.8481	   20.00	   19.63	-1346.13	   16.59
     31.8815	   30.00	   19.08	-1335.58	   16.57
     31.9149	   24.00	   18.92	-1341.42	   16.55
     31.9484	   18.00	   18.80	-1347.30	   16.53
     31.9818	   15.00	   18.70	-1350.20	   16.50
     32.0152	   24.00	   18.61	-1341.11	   16.48
     32.0486	   17.00	   18.53	-1348.03	   16.46
     32.0820	   21.00	   18.46	-1343.96	   16.44
     32.1155	   24.00	   18.40	-1340.90	   16.42
     32.1489	   17.00	   18.35	-1347.85	   16.40
     32.1823	   19.00	   18.30	-1345.80	   16.37
     32.2157	   24.00	   18.25	-1340.75	   16.35
     32.2492	   20.00	   18.21	-1344.71	   16.33
     32.2826	   14.00	   18.17	-1350.67	   16.31
     32.3160	   17.00	   18.14	-1347.64	   16.29
     32.3494	   16.00	   18.10	-1348.60	   16.27
     32.3829	   20.00	   18.07	-1344.57	   16.25
     32.4163	   17.00	   18.03	-1347.53	   16.22
     32.4497	   13.00	   18.00	-1351.50	   16.20
     32.4831	   10.00	   17.97	-1354.47	   16.18
     32.5165	   22.00	   17.94	-1342.44	   16.16
     32.5500	   13.00	   17.91	-1351.41	   16.14
     32.5834	   24.00	   17.88	-1340.38	   16.12
     32.6168	   20.00	   17.86	-1344.36	   16.10
     32.6502	   16.00	   17.83	-1348.33	   16.08
     32.6837	   15.00	   17.80	-1349.30	   16.05
     32.7171	   17.00	   17.78	-1347.28	   16.03
     32.7505	   14.00	   17.75	-1350.25	   16.01
     32.7839	   17.00	   17.73	-1347.23	   15.99
     32.8173	   20.00	   17.70	-1344.20	   15.97
     32.8508	   24.00	   17.68	-1340.18	   15.95
     32.8842	   11.00	   17.65	-1353.15	   15.93
     32.9176	   18.00	   17.63	-1346.13	   15.91
     32.9510	   13.00	   17.61	-1351.11	   15.89
     32.9845	   22.00	   17.58	-1342.08	   15.87
     33.0179	   15.00	   17.56	-1349.06	   15.85
     33.0513	   27.00	   17.54	-1337.04	   15.83
     33.0847	   14.00	   17.51	-1350.01	   15.80
     33.1181	   16.00	   17.49	-1347.99	   15.78
     33.1516	   20.00	   17.47	-1343.97	   15.76
     33.1850	   18.00	   17.45	-1345.95	   15.74
     33.2184	   10.00	   17.43	-1353.93	   15.72
     33.2518	   14.00	   17.40	-1349.90	   15.70
     33.2853	   15.00	   17.38	-1348.88	   15.68
     33.3187	   22.00	   17.36	-1341.86	   15.66
     33.3521	   17.00	   17.34	-1346.84	   15.64
     33.3855	   19.00	   17.32	-1344.82	   15.62
     33.4189	   14.00	   17.29	-1349.79	   15.60
     33.4524	   17.00	   17.27	-1346.77	   15.58
     33.4858	   11.00	   17.25	-1352.75	   15.56
     33.5192	   15.00	   17.23	-1348.73	   15.54
     33.5526	   20.00	   17.21	-1343.71	   15.52
     33.5861	   17.00	   17.19	-1346.69	   15.50
     33.6195	   21.00	   17.27	-1342.77	   15.48
     33.6529	   20.00	   17.26	-1343.76	   15.46
     33.6863	   20.00	   17.24	-1343.74	   15.44
     33.7198	   21.00	   17.27	-1342.77	   15.42
     33.7532	   14.00	   17.26	-1349.76	   15.40
     33.7866	   11.00	   17.24	-1352.74	   15.38
     33.8200	   15.00	   17.23	-1348.73	   15.36
     33.8534	   13.00	   17.20	-1350.70	   15.34
     33.8869	   18.00	   17.18	-1345.68	   15.32
     33.9203	   11.00	   17.16	-1352.66	   15.30
     33.9537	   15.00	   17.15	-1348.65	   15.28
     33.9871	   18.00	   17.14	-1345.64	   15.26
     34.0206	   10.00	   17.12	-1353.62	   15.24
     34.0540	   11.00	   17.11	-1352.61	   15.22
     34.0874	   19.00	   17.10	-1344.60	   15.20
     34.1208	   11.00	   17.09	-1352.59	   15.18
     34.1542	   19.00	   17.08	-1344.58	   15.16
     34.1877	   16.00	   17.07	-1347.57	   15.14
     34.2211	    4.00	   17.06	-1359.56	   15.12
     34.2545	   17.00	   17.05	-1346.55	   15.10
     34.2879	   20.00	   17.04	-1343.54	   15.08
     34.3214	   20.00	   17.03	-1343.53	   15.06
     34.3548	   20.00	   17.02	-1343.52	   15.04
     34.3882	   17.00	   17.02	-1346.52	   15.02
     34.4216	   17.00	   17.01	-1346.51	   15.00
     34.4550	   18.00	   17.01	-1345.51	   14.98
     34.4885	   21.00	   17.00	-1342.50	   14.96
     34.5219	   11.00	   17.00	-1352.50	   14.94
     34.5553	    6.00	   17.00	-1357.50	   14.92
     34.5887	   17.00	   17.00	-1346.50	   14.90
     34.6222	   18.00	   17.00	-1345.50	   14.89
     34.6556	   10.00	   17.00	-1353.50	   14.87
     34.6890	   21.00	   17.01	-1342.51	   14.85
     34.7224	   20.00	   17.02	-1343.52	   14.83
     34.7559	   11.00	   17.02	-1352.52	   14.81
     34.7893	   24.00	   17.04	-1339.54	   14.79
     34.8227	   14.00	   17.05	-1349.55	   14.77
     34.8561	   21.00	   17.07	-1342.57	   14.75
     34.8895	   10.00	   17.09	-1353.59	   14.73
     34.9230	   11.00	   17.11	-1352.61	   14.71
     34.9564	   13.00	   17.14	-1350.64	   14.69
     34.9898	   24.00	   17.17	-1339.67	   14.67
     35.0232	   13.00	   17.20	-1350.70	   14.66
     35.0567	   19.00	   17.25	-1344.75	   14.64
     35.0901	   18.00	   17.30	-1345.80	   14.62
     35.1235	   14.00	   17.35	-1349.85	   14.60
     35.1569	   20.00	   17.42	-1343.92	   14.58
     35.1903	   13.00	   17.49	-1350.99	   14.56
     35.2238	   15.00	   17.58	-1349.08	   14.54
     35.2572	   13.00	   17.68	-1351.18	   14.52
     35.2906	   15.00	   17.80	-1349.30	   14.50
     35.3240	   11.00	   17.94	-1353.44	   14.49
     35.3575	   21.00	   18.10	-1343.60	   14.47
     35.3909	   11.00	   18.29	-1353.79	   14.45
     35.4243	   22.00	   18.52	-1343.02	   14.43
     35.4577	   16.00	   18.79	-1349.29	   14.41
     35.4911	   16.00	   19.12	-1349.62	   14.39
     35.5246	   13.00	   19.51	-1353.01	   14.37
     35.5580	   20.00	   19.99	-1346.49	   14.36
     35.5914	   11.00	   20.60	-1356.10	   14.34
     35.6248	   17.00	   21.35	-1350.85	   14.32
     35.6583	   21.00	   22.33	-1347.83	   14.30
     35.6917	   33.00	   23.60	-1337.10	   14.28
     35.7251	   18.00	   25.31	-1353.81	   14.26
     35.7585	   35.00	   27.68	-1339.18	   14.25
     35.7920	   32.00	   31.13	-1345.63	   14.23
     35.8254	   43.00	   36.90	-1340.40	   14.21
     35.8588	   62.00	   50.39	-1334.89	   14.19
     35.8922	   90.00	   91.74	-1348.24	   14.17
     35.9256	  168.00	  204.46	-1382.96	   14.15
     35.9591	  336.00	  416.27	-1426.77	   14.14
     35.9925	  627.00	  645.83	-1365.33	   14.12
     36.0259	  666.00	  705.41	-1385.91	   14.10
     36.0593	  521.00	  606.14	-1431.64	   14.08
     36.0928	  477.00	  489.89	-1359.39	   14.06
     36.1262	  329.00	  346.89	-1364.39	   14.05
     36.1596	  176.00	  198.38	-1368.88	   14.03
     36.1930	  106.00	   99.03	-1339.53	   14.01
     36.2264	   45.00	   53.27	-1354.77	   13.99
     36.2599	   34.00	   36.76	-1349.26	   13.97
     36.2933	   27.00	   30.37	-1349.87	   13.96
     36.3267	   26.00	   26.93	-1347.43	   13.94
     36.3601	   21.00	   24.62	-1350.12	   13.92
     36.3936	   18.00	   22.95	-1351.45	   13.90
     36.4270	   21.00	   21.70	-1347.20	   13.88
     36.4604	   18.00	   20.73	-1349.23	   13.87
     36.4938	   18.00	   19.97	-1348.47	   13.85
     36.5272	   23.00	   19.36	-1342.86	   13.83
     36.5607	   16.00	   18.86	-1349.36	   13.81
     36.5941	   26.00	   18.44	-1338.94	   13.80
     36.6275	   17.00	   18.09	-1347.59	   13.78
     36.6609	   16.00	   17.79	-1348.29	   13.76
     36.6944	   19.00	   17.54	-1345.04	   13.74
     36.7278	   18.00	   17.32	-1345.82	   13.72
     36.7612	   11.00	   17.13	-1352.63	   13.71
     36.7946	   17.00	   16.96	-1346.46	   13.69
     36.8280	   10.00	   16.80	-1353.30	   13.67
     36.8615	   22.00	   16.67	-1341.17	   13.65
     36.8949	   16.00	   16.55	-1347.05	   13.64
     36.9283	   14.00	   16.44	-1348.94	   13.62
     36.9617	   19.00	   16.34	-1343.84	   13.60
     36.9952	   13.00	   16.25	-1349.75	   13.59
     37.0286	   18.00	   16.31	-1344.81	   13.57
     37.0620	   18.00	   16.24	-1344.74	   13.55
     37.0954	   15.00	   16.17	-1347.67	   13.53
     37.1289	   21.00	   16.18	-1341.68	   13.52
     37.1623	   20.00	   16.13	-1342.63	   13.50
     37.1957	   14.00	   16.08	-1348.58	   13.48
     37.2291	   16.00	   16.03	-1346.53	   13.46
     37.2625	   13.00	   15.98	-1349.48	   13.45
     37.2960	    8.00	   15.94	-1354.44	   13.43
     37.3294	   13.00	   15.90	-1349.40	   13.41
     37.3628	   23.00	   15.87	-1339.37	   13.40
     37.3962	   16.00	   15.84	-1346.34	   13.38
     37.4297	   13.00	   15.81	-1349.31	   13.36
     37.4631	   13.00	   15.78	-1349.28	   13.35
     37.4965	   11.00	   15.75	-1351.25	   13.33
     37.5299	   19.00	   15.73	-1343.23	   13.31
     37.5633	   19.00	   15.70	-1343.20	   13.29
     37.5968	    8.00	   15.68	-1354.18	   13.28
     37.6302	   11.00	   15.66	-1351.16	   13.26
     37.6636	   15.00	   15.65	-1347.15	   13.24
     37.6970	   10.00	   15.63	-1352.13	   13.23
     37.7305	   10.00	   15.62	-1352.12	   13.21
     37.7639	   18.00	   15.60	-1344.10	   13.19
     37.7973	   19.00	   15.59	-1343.09	   13.18
     37.8307	   11.00	   15.58	-1351.08	   13.16
     37.8641	    6.00	   15.58	-1356.08	   13.14
     37.8976	   18.00	   15.57	-1344.07	   13.13
     37.9310	   16.00	   15.57	-1346.07	   13.11
     37.9644	   15.00	   15.57	-1347.07	   13.09
     37.9978	   19.00	   15.57	-1343.07	   13.08
     38.0313	   15.00	   15.57	-1347.07	   13.06
     38.0647	   15.00	   15.58	-1347.08	   13.04
     38.0981	   22.00	   15.59	-1340.09	   13.03
     38.1315	   29.00	   15.60	-1333.10	   13.01
     38.1649	   19.00	   15.61	-1343.11	   12.99
     38.1984	   24.00	   15.63	-1338.13	   12.98
     38.2318	   10.00	   15.65	-1352.15	   12.96
     38.2652	   13.00	   15.68	-1349.18	   12.95
     38.2986	   18.00	   15.70	-1344.20	   12.93
     38.3321	   16.00	   15.74	-1346.24	   12.91
     38.3655	   13.00	   15.78	-1349.28	   12.90
     38.3989	   20.00	   15.82	-1342.32	   12.88
     38.4323	   22.00	   15.77	-1340.27	   12.86
     38.4658	   17.00	   15.83	-1345.33	   12.85
     38.4992	   16.00	   15.90	-1346.40	   12.83
     38.5326	   18.00	   15.93	-1344.43	   12.82
     38.5660	   23.00	   16.03	-1339.53	   12.80
     38.5994	   15.00	   16.13	-1347.63	   12.78
     38.6329	   22.00	   16.25	-1340.75	   12.77
     38.6663	   14.00	   16.39	-1348.89	   12.75
     38.6997	   16.00	   16.55	-1347.05	   12.74
     38.7331	   20.00	   16.73	-1343.23	   12.72
     38.7666	   14.00	   16.94	-1349.44	   12.70
     38.8000	   16.00	   17.19	-1347.69	   12.69
     38.8334	   17.00	   17.47	-1346.97	   12.67
     38.8668	   21.00	   17.81	-1343.31	   12.66
     38.9002	   14.00	   18.22	-1350.72	   12.64
     38.9337	   20.00	   18.70	-1345.20	   12.62
     38.9671	   20.00	   19.28	-1345.78	   12.61
     39.0005	    8.00	   20.00	-1358.50	   12.59
     39.0339	   21.00	   20.89	-1346.39	   12.58
     39.0674	   29.00	   22.01	-1339.51	   12.56
     39.1008	   16.00	   23.45	-1353.95	   12.55
     39.1342	   27.00	   25.34	-1344.84	   12.53
     39.1676	   22.00	   27.88	-1352.38	   12.51
     39.2010	   41.00	   31.42	-1336.92	   12.50
     39.2345	   49.00	   36.66	-1334.16	   12.48
     39.2679	   68.00	   45.86	-1324.36	   12.47
     39.3013	   81.00	   68.89	-1334.39	   12.45
     39.3347	  138.00	  138.66	-1347.16	   12.44
     39.3682	  301.00	  314.79	-1360.29	   12.42
     39.4016	  598.00	  613.60	-1362.10	   12.40
     39.4350	  950.00	  887.71	-1284.21	   12.39
     39.4684	  970.00	  899.81	-1276.31	   12.37
     39.5019	  744.00	  748.55	-1351.05	   12.36
     39.5353	  673.00	  621.39	-1294.89	   12.34
     39.5687	  494.00	  465.91	-1318.41	   12.33
     39.6021	  299.00	  277.66	-1325.16	   12.31
     39.6355	  123.00	  138.81	-1362.31	   12.30
     39.6690	   67.00	   70.29	-1349.79	   12.28
     39.7024	   34.00	   44.65	-1357.15	   12.27
     39.7358	   32.00	   34.95	-1349.45	   12.25
     39.7692	   31.00	   29.96	-1345.46	   12.24
     39.8027	   21.00	   26.68	-1352.18	   12.22
     39.8361	   28.00	   24.32	-1342.82	   12.21
     39.8695	   24.00	   22.56	-1345.06	   12.19
     39.9029	   16.00	   21.20	-1351.70	   12.18
     39.9363	   24.00	   20.13	-1342.63	   12.16
     39.9698	   17.00	   19.27	-1348.77	   12.15
     40.0032	   11.00	   18.57	-1354.07	   12.13
     40.0366	   19.00	   18.00	-1345.50	   12.12
     40.0700	   19.00	   17.51	-1345.01	   12.10
     40.1035	   21.00	   17.10	-1342.60	   12.09
     40.1369	   18.00	   16.75	-1345.25	   12.07
     40.1703	   19.00	   16.45	-1343.95	   12.06
     40.2037	   14.00	   16.19	-1348.69	   12.04
     40.2371	   16.00	   15.96	-1346.46	   12.03
     40.2706	   10.00	   15.75	-1352.25	   12.01
     40.3040	   19.00	   15.57	-1343.07	   12.00
     40.3374	    5.00	   15.41	-1356.91	   11.98
     40.3708	   20.00	   15.27	-1341.77	   11.97
     40.4043	   10.00	   15.13	-1351.63	   11.95
     40.4377	    9.00	   15.02	-1352.52	   11.94
     40.4711	   16.00	   14.91	-1345.41	   11.92
     40.5045	   17.00	   14.81	-1344.31	   11.91
     40.5379	    9.00	   14.71	-1352.21	   11.89
     40.5714	   14.00	   14.63	-1347.13	   11.88
     40.6048	   13.00	   14.55	-1348.05	   11.86
     40.6382	   15.00	   14.48	-1345.98	   11.85
     40.6716	    6.00	   14.41	-1354.91	   11.83
     40.7051	   16.00	   14.35	-1344.85	   11.82
     40.7385	   11.00	   14.40	-1349.90	   11.81
     40.7719	   22.00	   14.35	-1338.85	   11.79
     40.8053	   13.00	   14.30	-1347.80	   11.78
     40.8388	    7.00	   14.25	-1353.75	   11.76
     40.8722	   10.00	   14.27	-1350.77	   11.75
     40.9056	   15.00	   14.23	-1345.73	   11.73
     40.9390	   11.00	   14.19	-1349.69	   11.72
     40.9724	   17.00	   14.15	-1343.65	   11.70
     41.0059	   11.00	   14.12	-1349.62	   11.69
     41.0393	   14.00	   14.09	-1346.59	   11.68
     41.0727	   16.00	   14.06	-1344.56	   11.66
     41.1061	   13.00	   14.03	-1347.53	   11.65
     41.1396	    8.00	   14.01	-1352.51	   11.63
     41.1730	   18.00	   13.98	-1342.48	   11.62
     41.2064	   18.00	   13.96	-1342.46	   11.60
     41.2398	   15.00	   13.94	-1345.44	   11.59
     41.2732	   10.00	   13.92	-1350.42	   11.58
     41.3067	   11.00	   13.90	-1349.40	   11.56
     41.3401	   26.00	   13.88	-1334.38	   11.55
     41.3735	   22.00	   13.86	-1338.36	   11.53
     41.4069	   13.00	   13.85	-1347.35	   11.52
     41.4404	   13.00	   13.83	-1347.33	   11.51
     41.4738	   13.00	   13.82	-1347.32	   11.49
     41.5072	   15.00	   13.81	-1345.31	   11.48
     41.5406	   15.00	   13.80	-1345.30	   11.46
     41.5741	    7.00	   13.79	-1353.29	   11.45
     41.6075	   18.00	   13.78	-1342.28	   11.44
     41.6409	   20.00	   13.78	-1340.28	   11.42
     41.6743	   21.00	   13.77	-1339.27	   11.41
     41.7077	   15.00	   13.77	-1345.27	   11.39
     41.7412	   13.00	   13.77	-1347.27	   11.38
     41.7746	   11.00	   13.77	-1349.27	   11.37
     41.8080	   23.00	   13.77	-1337.27	   11.35
     41.8414	   19.00	   13.78	-1341.28	   11.34
     41.8749	   10.00	   13.64	-1350.14	   11.32
     41.9083	   21.00	   13.65	-1339.15	   11.31
     41.9417	    9.00	   13.67	-1351.17	   11.30
     41.9751	   15.00	   13.61	-1345.11	   11.28
     42.0085	   10.00	   13.64	-1350.14	   11.27
     42.0420	   13.00	   13.67	-1347.17	   11.26
     42.0754	   11.00	   13.70	-1349.20	   11.24
     42.1088	   21.00	   13.73	-1339.23	   11.23
     42.1422	   14.00	   13.77	-1346.27	   11.22
     42.1757	   22.00	   13.81	-1338.31	   11.20
     42.2091	   11.00	   13.86	-1349.36	   11.19
     42.2425	   19.00	   13.92	-1341.42	   11.18
     42.2759	   16.00	   13.98	-1344.48	   11.16
     42.3093	   20.00	   14.06	-1340.56	   11.15
     42.3428	   17.00	   14.14	-1343.64	   11.13
     42.3762	   16.00	   14.23	-1344.73	   11.12
     42.4096	   20.00	   14.34	-1340.84	   11.11
     42.4430	   26.00	   14.46	-1334.96	   11.09
     42.4765	   23.00	   14.61	-1338.11	   11.08
     42.5099	   13.00	   14.77	-1348.27	   11.07
     42.5433	   18.00	   14.96	-1343.46	   11.05
     42.5767	   21.00	   15.19	-1340.69	   11.04
     42.6101	   14.00	   15.45	-1347.95	   11.03
     42.6436	   20.00	   15.76	-1342.26	   11.02
     42.6770	   17.00	   16.14	-1345.64	   11.00
     42.7104	   18.00	   16.59	-1345.09	   10.99
     42.7438	   16.00	   17.15	-1347.65	   10.98
     42.7773	   14.00	   17.83	-1350.33	   10.96
     42.8107	   17.00	   18.69	-1348.19	   10.95
     42.8441	   24.00	   19.79	-1342.29	   10.94
     42.8775	   42.00	   21.23	-1325.73	   10.92
     42.9109	   28.00	   23.16	-1341.66	   10.91
     42.9444	   28.00	   25.83	-1344.33	   10.90
     42.9778	   40.00	   29.72	-1336.22	   10.88
     43.0112	   54.00	   36.32	-1328.82	   10.87
     43.0446	   59.00	   51.91	-1339.41	   10.86
     43.0781	   87.00	   98.07	-1357.57	   10.85
     43.1115	  231.00	  217.42	-1332.92	   10.83
     43.1449	  428.00	  431.27	-1349.77	   10.82
     43.1783	  773.00	  650.31	-1223.81	   10.81
     43.2118	  743.00	  685.74	-1289.24	   10.79
     43.2452	  598.00	  566.07	-1314.57	   10.78
     43.2786	  529.00	  474.05	-1291.55	   10.77
     43.3120	  483.00	  402.77	-1266.27	   10.76
     43.3454	  336.00	  278.90	-1289.40	   10.74
     43.3789	  148.00	  154.00	-1352.50	   10.73
     43.4123	   84.00	   77.03	-1339.53	   10.72
     43.4457	   44.00	   43.93	-1346.43	   10.70
     43.4791	   33.00	   31.86	-1345.36	   10.69
     43.5126	   40.00	   26.63	-1333.13	   10.68
     43.5460	   20.00	   23.54	-1350.04	   10.67
     43.5794	   21.00	   21.39	-1346.89	   10.65
     43.6128	   22.00	   19.80	-1344.30	   10.64
     43.6462	   17.00	   18.60	-1348.10	   10.63
     43.6797	   14.00	   17.65	-1350.15	   10.62
     43.7131	   18.00	   16.91	-1345.41	   10.60
     43.7465	   10.00	   16.30	-1352.80	   10.59
     43.7799	   20.00	   15.80	-1342.30	   10.58
     43.8134	   11.00	   15.38	-1350.88	   10.57
     43.8468	   15.00	   15.03	-1346.53	   10.55
     43.8802	   17.00	   14.74	-1344.24	   10.54
     43.9136	   16.00	   14.48	-1344.98	   10.53
     43.9470	    9.00	   14.25	-1351.75	   10.52
     43.9805	   21.00	   14.06	-1339.56	   10.50
     44.0139	   16.00	   13.89	-1344.39	   10.49
     44.0473	   16.00	   13.73	-1344.23	   10.48
     44.0807	   20.00	   13.60	-1340.10	   10.47
     44.1142	   20.00	   13.48	-1339.98	   10.45
     44.1476	   18.00	   13.37	-1341.87	   10.44
     44.1810	   21.00	   13.27	-1338.77	   10.43
     44.2144	   17.00	   13.17	-1342.67	   10.42
     44.2478	    8.00	   13.09	-1351.59	   10.41
     44.2813	   17.00	   13.01	-1342.51	   10.39
     44.3147	    9.00	   12.94	-1350.44	   10.38
     44.3481	   16.00	   12.88	-1343.38	   10.37
     44.3815	   17.00	   12.82	-1342.32	   10.36
     44.4150	   17.00	   12.76	-1342.26	   10.34
     44.4484	   21.00	   12.71	-1338.21	   10.33
     44.4818	   22.00	   12.66	-1337.16	   10.32
     44.5152	   14.00	   12.61	-1345.11	   10.31
     44.5487	   19.00	   12.57	-1340.07	   10.30
     44.5821	   21.00	   12.52	-1338.02	   10.28
     44.6155	   17.00	   12.49	-1341.99	   10.27
     44.6489	   21.00	   12.45	-1337.95	   10.26
     44.6823	   21.00	   12.46	-1337.96	   10.25
     44.7158	   13.00	   12.43	-1345.93	   10.24
     44.7492	   14.00	   12.40	-1344.90	   10.23
     44.7826	   19.00	   12.40	-1339.90	   10.21
     44.8160	   18.00	   12.37	-1340.87	   10.20
     44.8495	   20.00	   12.34	-1338.84	   10.19
     44.8829	    9.00	   12.32	-1349.82	   10.18
     44.9163	   13.00	   12.29	-1345.79	   10.17
     44.9497	   13.00	   12.27	-1345.77	   10.15
     44.9831	   20.00	   12.25	-1338.75	   10.14
     45.0166	    7.00	   12.23	-1351.73	   10.13
     45.0500	    6.00	   12.36	-1352.86	   10.12
     45.0834	    7.00	   12.35	-1351.85	   10.11
     45.1168	   15.00	   12.33	-1343.83	   10.10
     45.1503	   17.00	   12.32	-1341.82	   10.08
     45.1837	   10.00	   12.39	-1348.89	   10.07
     45.2171	   11.00	   12.38	-1347.88	   10.06
     45.2505	   20.00	   12.37	-1338.87	   10.05
     45.2840	   15.00	   12.36	-1343.86	   10.04
     45.3174	   14.00	   12.35	-1344.85	   10.03
     45.3508	   20.00	   12.35	-1338.85	   10.01
     45.3842	   19.00	   12.34	-1339.84	   10.00
     45.4176	   20.00	   12.34	-1338.84	    9.99
     45.4511	   11.00	   12.34	-1347.84	    9.98
     45.4845	   17.00	   12.34	-1341.84	    9.97
     45.5179	   10.00	   12.34	-1348.84	    9.96
     45.5513	   20.00	   12.34	-1338.84	    9.95
     45.5848	   19.00	   12.34	-1339.84	    9.93
     45.6182	   16.00	   12.35	-1342.85	    9.92
     45.6516	   15.00	   12.24	-1343.74	    9.91
     45.6850	   20.00	   12.25	-1338.75	    9.90
     45.7184	   10.00	   12.26	-1348.76	    9.89
     45.7519	   18.00	   12.27	-1340.77	    9.88
     45.7853	   13.00	   12.23	-1345.73	    9.87
     45.8187	   23.00	   12.25	-1335.75	    9.86
     45.8521	   11.00	   12.27	-1347.77	    9.84
     45.8856	   20.00	   12.29	-1338.79	    9.83
     45.9190	   18.00	   12.32	-1340.82	    9.82
     45.9524	   17.00	   12.34	-1341.84	    9.81
     45.9858	    8.00	   12.37	-1350.87	    9.80
     46.0192	   18.00	   12.41	-1340.91	    9.79
     46.0527	   14.00	   12.62	-1345.12	    9.78
     46.0861	   18.00	   12.66	-1341.16	    9.77
     46.1195	   17.00	   12.71	-1342.21	    9.76
     46.1529	   23.00	   12.77	-1336.27	    9.74
     46.1864	   18.00	   12.92	-1341.42	    9.73
     46.2198	   16.00	   12.99	-1343.49	    9.72
     46.2532	   16.00	   13.06	-1343.56	    9.71
     46.2866	   20.00	   13.15	-1339.65	    9.70
     46.3200	   17.00	   13.24	-1342.74	    9.69
     46.3535	   15.00	   13.34	-1344.84	    9.68
     46.3869	   18.00	   13.46	-1341.96	    9.67
     46.4203	   21.00	   13.59	-1339.09	    9.66
     46.4537	   20.00	   13.73	-1340.23	    9.65
     46.4872	   15.00	   13.90	-1345.40	    9.63
     46.5206	   21.00	   14.08	-1339.58	    9.62
     46.5540	   17.00	   14.29	-1343.79	    9.61
     46.5874	   19.00	   14.53	-1342.03	    9.60
     46.6208	   23.00	   14.81	-1338.31	    9.59
     46.6543	   19.00	   15.14	-1342.64	    9.58
     46.6877	   19.00	   15.52	-1343.02	    9.57
     46.7211	   21.00	   15.97	-1341.47	    9.56
     46.7545	   26.00	   16.52	-1337.02	    9.55
     46.7880	   18.00	   17.19	-1345.69	    9.54
     46.8214	   27.00	   18.02	-1337.52	    9.53
     46.8548	   34.00	   19.09	-1331.59	    9.52
     46.8882	   35.00	   20.49	-1331.99	    9.51
     46.9217	   26.00	   22.42	-1342.92	    9.50
     46.9551	   33.00	   25.37	-1338.87	    9.48
     46.9885	   44.00	   31.36	-1333.86	    9.47
     47.0219	   44.00	   47.59	-1350.09	    9.46
     47.0553	   95.00	   90.24	-1341.74	    9.45
     47.0888	  210.00	  172.95	-1309.45	    9.44
     47.1222	  270.00	  271.99	-1348.49	    9.43
     47.1556	  325.00	  310.05	-1331.55	    9.42
     47.1890	  240.00	  263.63	-1370.13	    9.41
     47.2225	  211.00	  216.94	-1352.44	    9.40
     47.2559	  202.00	  201.84	-1346.34	    9.39
     47.2893	  195.00	  175.79	-1327.29	    9.38
     47.3227	  160.00	  128.26	-1314.76	    9.37
     47.3561	  129.00	   93.28	-1310.78	    9.36
     47.3896	  124.00	   95.16	-1317.66	    9.35
     47.4230	  182.00	  161.88	-1326.38	    9.34
     47.4564	  324.00	  338.82	-1361.32	    9.33
     47.4898	  663.00	  625.27	-1308.77	    9.32
     47.5233	  938.00	  866.34	-1274.84	    9.31
     47.5567	  941.00	  837.56	-1243.06	    9.30
     47.5901	  685.00	  659.30	-1320.80	    9.29
     47.6235	  580.00	  560.90	-1327.40	    9.28
     47.6570	  528.00	  513.04	-1331.54	    9.27
     47.6904	  441.00	  384.91	-1290.41	    9.26
     47.7238	  248.00	  224.81	-1323.31	    9.25
     47.7572	  118.00	  114.12	-1342.62	    9.24
     47.7906	   71.00	   62.32	-1337.82	    9.23
     47.8241	   41.00	   42.94	-1348.44	    9.22
     47.8575	   37.00	   35.11	-1344.61	    9.21
     47.8909	   31.00	   30.89	-1346.39	    9.20
     47.9243	   28.00	   28.14	-1346.64	    9.19
     47.9578	   35.00	   26.29	-1337.79	    9.18
     47.9912	   15.00	   25.05	-1356.55	    9.17
     48.0246	   18.00	   24.30	-1352.80	    9.16
     48.0580	   23.00	   23.94	-1347.44	    9.15
     48.0914	   26.00	   23.95	-1344.45	    9.14
     48.1249	   29.00	   24.31	-1341.81	    9.13
     48.1583	   34.00	   25.08	-1337.58	    9.12
     48.1917	   39.00	   26.33	-1333.83	    9.11
     48.2251	   45.00	   28.20	-1329.70	    9.10
     48.2586	   37.00	   30.91	-1340.41	    9.09
     48.2920	   50.00	   34.89	-1331.39	    9.08
     48.3254	   65.00	   41.04	-1322.54	    9.07
     48.3588	   66.00	   52.53	-1333.03	    9.06
     48.3922	  119.00	   82.08	-1309.58	    9.05
     48.4257	  169.00	  167.10	-1344.60	    9.04
     48.4591	  355.00	  365.39	-1356.89	    9.03
     48.4925	  667.00	  677.30	-1356.80	    9.02
     48.5259	  892.00	  932.89	-1387.39	    9.01
     48.5594	  962.00	  893.26	-1277.76	    9.00
     48.5928	  654.00	  696.39	-1388.89	    8.99
     48.6262	  573.00	  591.57	-1365.07	    8.98
     48.6596	  568.00	  551.00	-1329.50	    8.97
     48.6930	  468.00	  423.65	-1302.15	    8.96
     48.7265	  229.00	  250.83	-1368.33	    8.95
     48.7599	  118.00	  126.25	-1354.75	    8.94
     48.7933	   77.00	   66.11	-1335.61	    8.93
     48.8267	   44.00	   43.18	-1345.68	    8.92
     48.8602	   33.00	   33.91	-1347.41	    8.91
     48.8936	   33.00	   28.86	-1342.36	    8.90
     48.9270	   23.00	   25.44	-1348.94	    8.89
     48.9604	   15.00	   22.94	-1354.44	    8.88
     48.9939	   18.00	   21.04	-1349.54	    8.87
     49.0273	   28.00	   19.56	-1338.06	    8.86
     49.0607	   17.00	   18.39	-1347.89	    8.85
     49.0941	   23.00	   17.43	-1340.93	    8.84
     49.1275	   17.00	   16.65	-1346.15	    8.84
     49.1610	   23.00	   15.99	-1339.49	    8.83
     49.1944	   23.00	   15.44	-1338.94	    8.82
     49.2278	   19.00	   14.97	-1342.47	    8.81
     49.2612	   16.00	   14.56	-1345.06	    8.80
     49.2947	   14.00	   14.21	-1346.71	    8.79
     49.3281	   11.00	   13.90	-1349.40	    8.78
     49.3615	   28.00	   13.62	-1332.12	    8.77
     49.3949	   19.00	   13.38	-1340.88	    8.76
     49.4283	   19.00	   13.17	-1340.67	    8.75
     49.4618	   14.00	   12.97	-1345.47	    8.74
     49.4952	   16.00	   12.80	-1343.30	    8.73
     49.5286	   20.00	   12.64	-1339.14	    8.72
     49.5620	   14.00	   12.49	-1344.99	    8.71
     49.5955	   15.00	   12.36	-1343.86	    8.71
     49.6289	   13.00	   12.24	-1345.74	    8.70
     49.6623	   17.00	   12.08	-1341.58	    8.69
     49.6957	   13.00	   11.98	-1345.48	    8.68
     49.7291	   29.00	   11.88	-1329.38	    8.67
     49.7626	   18.00	   11.77	-1340.27	    8.66
     49.7960	   26.00	   11.69	-1332.19	    8.65
     49.8294	   16.00	   11.62	-1342.12	    8.64
     49.8628	   16.00	   11.55	-1342.05	    8.63
     49.8963	   11.00	   11.48	-1346.98	    8.62
     49.9297	   13.00	   11.42	-1344.92	    8.61
     49.9631	   13.00	   11.36	-1344.86	    8.61
     49.9965	   15.00	   11.30	-1342.80	    8.60
     50.0300	   24.00	   11.10	-1333.60	    8.59
     50.0634	    9.00	   11.05	-1348.55	    8.58
     50.0968	   13.00	   11.01	-1344.51	    8.57
     50.1302	   14.00	   10.97	-1343.47	    8.56
     50.1636	   14.00	   10.85	-1343.35	    8.55
     50.1971	    9.00	   10.82	-1348.32	    8.54
     50.2305	   17.00	   10.78	-1340.28	    8.53
     50.2639	   16.00	   10.75	-1341.25	    8.53
     50.2973	   10.00	   10.72	-1347.22	    8.52
     50.3308	   10.00	   10.69	-1347.19	    8.51
     50.3642	   16.00	   10.66	-1341.16	    8.50
     50.3976	   11.00	   10.64	-1346.14	    8.49
     50.4310	   15.00	   10.61	-1342.11	    8.48
     50.4644	   13.00	   10.58	-1344.08	    8.47
     50.4979	   17.00	   10.56	-1340.06	    8.46
     50.5313	    7.00	   10.54	-1350.04	    8.46
     50.5647	   15.00	   10.51	-1342.01	    8.45
     50.5981	    8.00	   10.49	-1348.99	    8.44
     50.6316	    6.00	   10.47	-1350.97	    8.43
     50.6650	    7.00	   10.45	-1349.95	    8.42
     50.6984	   13.00	   10.43	-1343.93	    8.41
     50.7318	   13.00	   10.41	-1343.91	    8.40
     50.7652	   11.00	   10.39	-1345.89	    8.39
     50.7987	   18.00	   10.37	-1338.87	    8.39
     50.8321	    8.00	   10.35	-1348.85	    8.38
     50.8655	    9.00	   10.34	-1347.84	    8.37
     50.8989	   13.00	   10.32	-1343.82	    8.36
     50.9324	   16.00	   10.30	-1340.80	    8.35
     50.9658	   10.00	   10.29	-1346.79	    8.34
     50.9992	   11.00	   10.27	-1345.77	    8.33
     51.0326	   13.00	   10.25	-1343.75	    8.33
     51.0660	   16.00	   10.07	-1340.57	    8.32
     51.0995	    6.00	   10.06	-1350.56	    8.31
     51.1329	    6.00	   10.05	-1350.55	    8.30
     51.1663	   10.00	   10.04	-1346.54	    8.29
     51.1997	    5.00	    9.94	-1351.44	    8.28
     51.2332	   10.00	    9.94	-1346.44	    8.28
     51.2666	   13.00	    9.93	-1343.43	    8.27
     51.3000	   11.00	    9.92	-1345.42	    8.26
     51.3334	    6.00	    9.91	-1350.41	    8.25
     51.3669	   10.00	    9.90	-1346.40	    8.24
     51.4003	    7.00	    9.89	-1349.39	    8.23
     51.4337	   17.00	    9.89	-1339.39	    8.23
     51.4671	    8.00	    9.88	-1348.38	    8.22
     51.5005	    8.00	    9.87	-1348.37	    8.21
     51.5340	   14.00	    9.86	-1342.36	    8.20
     51.5674	   13.00	    9.85	-1343.35	    8.19
     51.6008	   13.00	    9.85	-1343.35	    8.18
     51.6342	   16.00	    9.84	-1340.34	    8.18
     51.6677	   10.00	    9.83	-1346.33	    8.17
     51.7011	   13.00	    9.82	-1343.32	    8.16
     51.7345	    8.00	    9.81	-1348.31	    8.15
     51.7679	   16.00	    9.80	-1340.30	    8.14
     51.8013	   11.00	    9.80	-1345.30	    8.14
     51.8348	   17.00	    9.79	-1339.29	    8.13
     51.8682	    8.00	    9.78	-1348.28	    8.12
     51.9016	   17.00	    9.77	-1339.27	    8.11
     51.9350	    8.00	    9.76	-1348.26	    8.10
     51.9685	    7.00	    9.76	-1349.26	    8.10
     52.0019	   13.00	    9.75	-1343.25	    8.09
     52.0353	    8.00	    9.74	-1348.24	    8.08
     52.0687	   11.00	    9.73	-1345.23	    8.07
     52.1021	    6.00	    9.72	-1350.22	    8.06
     52.1356	   15.00	    9.72	-1341.22	    8.06
     52.1690	    6.00	    9.71	-1350.21	    8.05
     52.2024	    9.00	    9.70	-1347.20	    8.04
     52.2358	    6.00	    9.69	-1350.19	    8.03
     52.2693	    7.00	    9.68	-1349.18	    8.02
     52.3027	   17.00	    9.68	-1339.18	    8.02
     52.3361	   13.00	    9.67	-1343.17	    8.01
     52.3695	   11.00	    9.66	-1345.16	    8.00
     52.4030	   16.00	    9.65	-1340.15	    7.99
     52.4364	    9.00	    9.65	-1347.15	    7.98
     52.4698	    8.00	    9.64	-1348.14	    7.98
     52.5032	   10.00	    9.63	-1346.13	    7.97
     52.5366	    9.00	    9.62	-1347.12	    7.96
     52.5701	   11.00	    9.61	-1345.11	    7.95
     52.6035	    6.00	    9.61	-1350.11	    7.95
     52.6369	   13.00	    9.60	-1343.10	    7.94
     52.6703	    7.00	    9.59	-1349.09	    7.93
     52.7038	   11.00	    9.58	-1345.08	    7.92
     52.7372	   10.00	    9.58	-1346.08	    7.92
     52.7706	   10.00	    9.57	-1346.07	    7.91
     52.8040	   10.00	    9.56	-1346.06	    7.90
     52.8374	   17.00	    9.55	-1339.05	    7.89
     52.8709	    8.00	    9.55	-1348.05	    7.88
     52.9043	   11.00	    9.54	-1345.04	    7.88
     52.9377	   17.00	    9.53	-1339.03	    7.87
     52.9711	   13.00	    9.52	-1343.02	    7.86
     53.0046	   14.00	    9.52	-1342.02	    7.85
     53.0380	   15.00	    9.51	-1341.01	    7.85
     53.0714	   16.00	    9.50	-1340.00	    7.84
     53.1048	   14.00	    9.49	-1341.99	    7.83
     53.1382	   13.00	    9.48	-1342.98	    7.82
     53.1717	    9.00	    9.48	-1346.98	    7.82
     53.2051	   14.00	    9.47	-1341.97	    7.81
     53.2385	   11.00	    9.46	-1344.96	    7.80
     53.2719	    7.00	    9.46	-1348.96	    7.79
     53.3054	   11.00	    9.45	-1344.95	    7.79
     53.3388	   10.00	    9.44	-1345.94	    7.78
     53.3722	    9.00	    9.43	-1346.93	    7.77
     53.4056	    6.00	    9.43	-1349.93	    7.76
     53.4390	    9.00	    9.42	-1346.92	    7.76
     53.4725	    7.00	    9.41	-1348.91	    7.75
     53.5059	    8.00	    9.40	-1347.90	    7.74
     53.5393	   13.00	    9.40	-1342.90	    7.74
     53.5727	   10.00	    9.39	-1345.89	    7.73
     53.6062	   18.00	    9.38	-1337.88	    7.72
     53.6396	   11.00	    9.37	-1344.87	    7.71
     53.6730	    6.00	    9.37	-1349.87	    7.71
     53.7064	    6.00	    9.36	-1349.86	    7.70
     53.7399	    7.00	    9.35	-1348.85	    7.69
     53.7733	   14.00	    9.35	-1341.85	    7.68
     53.8067	   15.00	    9.34	-1340.84	    7.68
     53.8401	   21.00	    9.33	-1334.83	    7.67
     53.8735	   11.00	    9.32	-1344.82	    7.66
     53.9070	   10.00	    9.32	-1345.82	    7.66
     53.9404	    7.00	    9.31	-1348.81	    7.65
     53.9738	    9.00	    9.30	-1346.80	    7.64
     54.0072	   15.00	    9.30	-1340.80	    7.63
     54.0407	   14.00	    9.32	-1341.82	    7.63
     54.0741	    8.00	    9.31	-1347.81	    7.62
     54.1075	    7.00	    9.30	-1348.80	    7.61
     54.1409	   17.00	    9.30	-1338.80	    7.61
     54.1743	   10.00	    9.31	-1345.81	    7.60
     54.2078	    8.00	    9.30	-1347.80	    7.59
     54.2412	   18.00	    9.30	-1337.80	    7.58
     54.2746	   10.00	    9.29	-1345.79	    7.58
     54.3080	   15.00	    9.28	-1340.78	    7.57
     54.3415	   13.00	    9.28	-1342.78	    7.56
     54.3749	    8.00	    9.27	-1347.77	    7.56
     54.4083	    9.00	    9.27	-1346.77	    7.55
     54.4417	   14.00	    9.26	-1341.76	    7.54
     54.4752	    9.00	    9.26	-1346.76	    7.54
     54.5086	    8.00	    9.25	-1347.75	    7.53
     54.5420	   10.00	    9.25	-1345.75	    7.52
     54.5754	   15.00	    9.24	-1340.74	    7.52
     54.6088	   11.00	    9.24	-1344.74	    7.51
     54.6423	   13.00	    9.23	-1342.73	    7.50
     54.6757	   10.00	    9.23	-1345.73	    7.49
     54.7091	   17.00	    9.23	-1338.73	    7.49
     54.7425	    8.00	    9.22	-1347.72	    7.48
     54.7759	    9.00	    9.22	-1346.72	    7.47
     54.8094	   16.00	    9.21	-1339.71	    7.47
     54.8428	    8.00	    9.29	-1347.79	    7.46
     54.8762	   10.00	    9.29	-1345.79	    7.45
     54.9096	   15.00	    9.29	-1340.79	    7.45
     54.9431	    4.00	    9.29	-1351.79	    7.44
     54.9765	   11.00	    9.29	-1344.79	    7.43
     55.0099	   11.00	    9.33	-1344.83	    7.43
     55.0433	    6.00	    9.33	-1349.83	    7.42
     55.0768	   11.00	    9.34	-1344.84	    7.41
     55.1102	   11.00	    9.34	-1344.84	    7.41
     55.1436	    8.00	    9.34	-1347.84	    7.40
     55.1770	   15.00	    9.35	-1340.85	    7.39
     55.2104	   13.00	    9.35	-1342.85	    7.39
     55.2439	   13.00	    9.36	-1342.86	    7.38
     55.2773	   13.00	    9.36	-1342.86	    7.37
     55.3107	    9.00	    9.37	-1346.87	    7.37
     55.3441	   11.00	    9.38	-1344.88	    7.36
     55.3776	   21.00	    9.38	-1334.88	    7.35
     55.4110	   13.00	    9.39	-1342.89	    7.35
     55.4444	   11.00	    9.41	-1344.91	    7.34
     55.4778	   14.00	    9.42	-1341.92	    7.33
     55.5112	   10.00	    9.44	-1345.94	    7.33
     55.5447	   11.00	    9.46	-1344.96	    7.32
     55.5781	   14.00	    9.47	-1341.97	    7.32
     55.6115	    6.00	    9.49	-1349.99	    7.31
     55.6449	   11.00	    9.51	-1345.01	    7.30
     55.6784	   13.00	    9.54	-1343.04	    7.30
     55.7118	    6.00	    9.57	-1350.07	    7.29
     55.7452	    9.00	    9.60	-1347.10	    7.28
     55.7786	   13.00	    9.63	-1343.13	    7.28
     55.8120	   16.00	    9.67	-1340.17	    7.27
     55.8455	   18.00	    9.71	-1338.21	    7.26
     55.8789	    9.00	    9.76	-1347.26	    7.26
     55.9123	   14.00	    9.82	-1342.32	    7.25
     55.9457	   11.00	    9.88	-1345.38	    7.24
     55.9792	   10.00	    9.95	-1346.45	    7.24
     56.0126	   18.00	   10.04	-1338.54	    7.23
     56.0460	   15.00	   10.14	-1341.64	    7.23
     56.0794	   14.00	   10.26	-1342.76	    7.22
     56.1129	   10.00	   10.40	-1346.90	    7.21
     56.1463	   17.00	   10.56	-1340.06	    7.21
     56.1797	   17.00	   10.77	-1340.27	    7.20
     56.2131	   22.00	   11.02	-1335.52	    7.19
     56.2465	   18.00	   11.34	-1339.84	    7.19
     56.2800	   20.00	   11.75	-1338.25	    7.18
     56.3134	   13.00	   12.30	-1345.80	    7.18
     56.3468	   22.00	   13.05	-1337.55	    7.17
     56.3802	   23.00	   14.16	-1337.66	    7.16
     56.4137	   28.00	   16.14	-1334.64	    7.16
     56.4471	   32.00	   20.93	-1335.43	    7.15
     56.4805	   37.00	   33.95	-1343.45	    7.15
     56.5139	   58.00	   63.40	-1351.90	    7.14
     56.5473	  124.00	  109.86	-1332.36	    7.13
     56.5808	  179.00	  150.34	-1317.84	    7.13
     56.6142	  148.00	  146.72	-1345.22	    7.12
     56.6476	   94.00	  111.53	-1364.03	    7.11
     56.6810	   81.00	   88.07	-1353.57	    7.11
     56.7145	  100.00	   87.79	-1334.29	    7.10
     56.7479	   83.00	   88.71	-1352.21	    7.10
     56.7813	   64.00	   70.58	-1353.08	    7.09
     56.8147	   47.00	   45.68	-1345.18	    7.08
     56.8481	   36.00	   28.07	-1338.57	    7.08
     56.8816	   20.00	   19.63	-1346.13	    7.07
     56.9150	   16.00	   16.51	-1347.01	    7.07
     56.9484	   14.00	   15.45	-1347.95	    7.06
     56.9818	   10.00	   15.11	-1351.61	    7.05
     57.0153	   13.00	   15.12	-1348.62	    7.05
     57.0487	   10.00	   15.41	-1351.91	    7.04
     57.0821	   17.00	   15.99	-1345.49	    7.04
     57.1155	   20.00	   16.89	-1343.39	    7.03
     57.1489	   21.00	   18.23	-1343.73	    7.03
     57.1824	   33.00	   20.20	-1333.70	    7.02
     57.2158	   32.00	   23.25	-1337.75	    7.01
     57.2492	   28.00	   28.92	-1347.42	    7.01
     57.2826	   42.00	   43.03	-1347.53	    7.00
     57.3161	   91.00	   81.47	-1336.97	    7.00
     57.3495	  175.00	  167.67	-1339.17	    6.99
     57.3829	  309.00	  302.32	-1339.82	    6.98
     57.4163	  402.00	  417.54	-1362.04	    6.98
     57.4498	  435.00	  404.03	-1315.53	    6.97
     57.4832	  295.00	  300.22	-1351.72	    6.97
     57.5166	  210.00	  231.04	-1367.54	    6.96
     57.5500	  221.00	  230.34	-1355.84	    6.96
     57.5834	  236.00	  236.91	-1347.41	    6.95
     57.6169	  180.00	  187.98	-1354.48	    6.94
     57.6503	  110.00	  115.32	-1351.82	    6.94
     57.6837	   58.00	   61.82	-1350.32	    6.93
     57.7171	   41.00	   35.07	-1340.57	    6.93
     57.7506	   22.00	   24.48	-1348.98	    6.92
     57.7840	   22.00	   20.18	-1344.68	    6.92
     57.8174	   23.00	   17.96	-1341.46	    6.91
     57.8508	   16.00	   16.58	-1347.08	    6.90
     57.8842	   19.00	   15.73	-1343.23	    6.90
     57.9177	   15.00	   15.42	-1346.92	    6.89
     57.9511	   16.00	   16.15	-1346.65	    6.89
     57.9845	   24.00	   19.45	-1341.95	    6.88
     58.0179	   32.00	   27.73	-1342.23	    6.88
     58.0514	   43.00	   41.29	-1344.79	    6.87
     58.0848	   47.00	   53.56	-1353.06	    6.87
     58.1182	   46.00	   52.76	-1353.26	    6.86
     58.1516	   28.00	   41.70	-1360.20	    6.85
     58.1851	   40.00	   33.64	-1340.14	    6.85
     58.2185	   43.00	   33.01	-1336.51	    6.84
     58.2519	   37.00	   34.17	-1343.67	    6.84
     58.2853	   26.00	   29.69	-1350.19	    6.83
     58.3187	   22.00	   21.96	-1346.46	    6.83
     58.3522	   13.00	   15.88	-1349.38	    6.82
     58.3856	   21.00	   12.68	-1338.18	    6.82
     58.4190	    8.00	   11.33	-1349.83	    6.81
     58.4524	    5.00	   10.74	-1352.24	    6.81
     58.4859	   15.00	   10.41	-1341.91	    6.80
     58.5193	   14.00	   10.18	-1342.68	    6.79
     58.5527	   10.00	   10.01	-1346.51	    6.79
     58.5861	   11.00	    9.86	-1345.36	    6.78
     58.6195	   13.00	    9.75	-1343.25	    6.78
     58.6530	   27.00	    9.65	-1329.15	    6.77
     58.6864	    8.00	    9.56	-1348.06	    6.77
     58.7198	    9.00	    9.49	-1346.99	    6.76
     58.7532	   11.00	    9.43	-1344.93	    6.76
     58.7867	   11.00	    9.40	-1344.90	    6.75
     58.8201	    5.00	    9.35	-1350.85	    6.75
     58.8535	   11.00	    9.31	-1344.81	    6.74
     58.8869	    8.00	    9.27	-1347.77	    6.74
     58.9203	   13.00	    9.25	-1342.75	    6.73
     58.9538	    8.00	    9.22	-1347.72	    6.73
     58.9872	   13.00	    9.19	-1342.69	    6.72
     59.0206	   11.00	    9.17	-1344.67	    6.72
     59.0540	    8.00	    9.15	-1347.65	    6.71
     59.0875	   15.00	    9.13	-1340.63	    6.70
     59.1209	   10.00	    9.11	-1345.61	    6.70
     59.1543	    9.00	    9.10	-1346.60	    6.69
     59.1877	   11.00	    9.06	-1344.56	    6.69
     59.2211	   13.00	    9.05	-1342.55	    6.68
     59.2546	   10.00	    9.05	-1345.55	    6.68
     59.2880	    9.00	    9.04	-1346.54	    6.67
     59.3214	    8.00	    9.04	-1347.54	    6.67
     59.3548	   21.00	    9.02	-1334.52	    6.66
     59.3883	   17.00	    9.02	-1338.52	    6.66
     59.4217	    8.00	    9.03	-1347.53	    6.65
     59.4551	   11.00	    9.03	-1344.53	    6.65
     59.4885	   10.00	    9.04	-1345.54	    6.64
     59.5219	   10.00	    9.05	-1345.55	    6.64
     59.5554	   13.00	    9.06	-1342.56	    6.63
     59.5888	    9.00	    9.08	-1346.58	    6.63
     59.6222	    9.00	    9.10	-1346.60	    6.62
     59.6556	    8.00	    9.12	-1347.62	    6.62
     59.6891	   10.00	    9.14	-1345.64	    6.61
     59.7225	   13.00	    9.17	-1342.67	    6.61
     59.7559	   10.00	    9.20	-1345.70	    6.60
     59.7893	   13.00	    9.24	-1342.74	    6.60
     59.8228	    9.00	    9.28	-1346.78	    6.59
     59.8562	   10.00	    9.33	-1345.83	    6.59
     59.8896	   16.00	    9.38	-1339.88	    6.58
     59.9230	    8.00	    9.44	-1347.94	    6.58
     59.9564	   11.00	    9.51	-1345.01	    6.57
     59.9899	    5.00	    9.60	-1351.10	    6.57
     60.0233	    8.00	    9.61	-1348.11	    6.56
     60.0567	   10.00	    9.72	-1346.22	    6.56
     60.0901	    5.00	    9.85	-1351.35	    6.55
     60.1236	   13.00	   10.00	-1343.50	    6.55
     60.1570	   15.00	   10.18	-1341.68	    6.54
     60.1904	    7.00	   10.35	-1349.85	    6.54
     60.2238	    9.00	   10.60	-1348.10	    6.53
     60.2572	    7.00	   10.91	-1350.41	    6.53
     60.2907	   11.00	   11.29	-1346.79	    6.53
     60.3241	   11.00	   11.76	-1347.26	    6.52
     60.3575	   22.00	   12.36	-1336.86	    6.52
     60.3909	   18.00	   13.13	-1341.63	    6.51
     60.4244	   19.00	   14.19	-1341.69	    6.51
     60.4578	   24.00	   15.64	-1338.14	    6.50
     60.4912	   22.00	   17.88	-1342.38	    6.50
     60.5246	   30.00	   22.25	-1338.75	    6.49
     60.5581	   48.00	   33.38	-1331.88	    6.49
     60.5915	   59.00	   61.85	-1349.35	    6.48
     60.6249	  113.00	  119.16	-1352.66	    6.48
     60.6583	  210.00	  197.14	-1333.64	    6.47
     60.6917	  254.00	  246.92	-1339.42	    6.47
     60.7252	  214.00	  218.77	-1351.27	    6.46
     60.7586	  125.00	  157.61	-1379.11	    6.46
     60.7920	  112.00	  125.49	-1359.99	    6.45
     60.8254	  106.00	  132.33	-1372.83	    6.45
     60.8588	  143.00	  143.35	-1346.85	    6.45
     60.8923	  148.00	  126.01	-1324.51	    6.44
     60.9257	  105.00	  102.22	-1343.72	    6.44
     60.9591	   82.00	  101.07	-1365.57	    6.43
     60.9925	  116.00	  119.85	-1350.35	    6.43
     61.0260	  101.00	  126.52	-1372.02	    6.42
     61.0594	   91.00	  103.01	-1358.51	    6.42
     61.0928	   61.00	   75.47	-1360.97	    6.41
     61.1262	   60.00	   65.55	-1352.05	    6.41
     61.1597	   62.00	   70.84	-1355.34	    6.40
     61.1931	   74.00	   72.38	-1344.88	    6.40
     61.2265	   73.00	   60.15	-1333.65	    6.39
     61.2599	   39.00	   48.11	-1355.61	    6.39
     61.2933	   60.00	   51.31	-1337.81	    6.39
     61.3268	   78.00	   75.99	-1344.49	    6.38
     61.3602	   96.00	  113.52	-1364.02	    6.38
     61.3936	  132.00	  134.65	-1349.15	    6.37
     61.4270	   96.00	  115.96	-1366.46	    6.37
     61.4605	   68.00	   83.63	-1362.13	    6.36
     61.4939	   50.00	   67.76	-1364.26	    6.36
     61.5273	   53.00	   71.39	-1364.89	    6.35
     61.5607	   79.00	   75.59	-1343.09	    6.35
     61.5941	   55.00	   62.73	-1354.23	    6.35
     61.6276	   40.00	   41.86	-1348.36	    6.34
     61.6610	   29.00	   25.79	-1343.29	    6.34
     61.6944	   14.00	   17.38	-1349.88	    6.33
     61.7278	    8.00	   13.86	-1352.36	    6.33
     61.7613	   14.00	   12.37	-1344.87	    6.32
     61.7947	   17.00	   11.55	-1341.05	    6.32
     61.8281	    8.00	   11.00	-1349.50	    6.32
     61.8615	   14.00	   10.58	-1343.08	    6.31
     61.8950	    7.00	   10.26	-1349.76	    6.31
     61.9284	    8.00	   10.01	-1348.51	    6.30
     61.9618	   17.00	    9.80	-1339.30	    6.30
     61.9952	   11.00	    9.63	-1345.13	    6.29
     62.0286	    7.00	    9.55	-1349.05	    6.29
     62.0621	   10.00	    9.44	-1345.94	    6.29
     62.0955	   16.00	    9.34	-1339.84	    6.28
     62.1289	    8.00	    9.26	-1347.76	    6.28
     62.1623	   13.00	    9.19	-1342.69	    6.27
     62.1958	    4.00	    9.16	-1351.66	    6.27
     62.2292	   13.00	    9.11	-1342.61	    6.26
     62.2626	    7.00	    9.07	-1348.57	    6.26
     62.2960	   15.00	    9.04	-1340.54	    6.26
     62.3294	   15.00	    9.01	-1340.51	    6.25
     62.3629	   13.00	    9.00	-1342.50	    6.25
     62.3963	   11.00	    8.99	-1344.49	    6.24
     62.4297	   13.00	    8.99	-1342.49	    6.24
     62.4631	    7.00	    9.00	-1348.50	    6.24
     62.4966	   11.00	    9.02	-1344.52	    6.23
     62.5300	   10.00	    9.05	-1345.55	    6.23
     62.5634	    9.00	    9.09	-1346.59	    6.22
     62.5968	   11.00	    9.15	-1344.65	    6.22
     62.6302	    6.00	    9.23	-1349.73	    6.21
     62.6637	    7.00	    9.33	-1348.83	    6.21
     62.6971	   13.00	    9.46	-1342.96	    6.21
     62.7305	    9.00	    9.64	-1347.14	    6.20
     62.7639	   14.00	    9.87	-1342.37	    6.20
     62.7974	   23.00	   10.19	-1333.69	    6.19
     62.8308	    5.00	   10.64	-1352.14	    6.19
     62.8642	    8.00	   11.33	-1349.83	    6.19
     62.8976	   19.00	   12.62	-1340.12	    6.18
     62.9311	   22.00	   15.80	-1340.30	    6.18
     62.9645	   30.00	   24.02	-1340.52	    6.17
     62.9979	   45.00	   41.71	-1343.21	    6.17
     63.0313	   58.00	   68.63	-1357.13	    6.17
     63.0647	  109.00	   91.50	-1329.00	    6.16
     63.0982	   97.00	   88.75	-1338.25	    6.16
     63.1316	   72.00	   66.53	-1341.03	    6.15
     63.1650	   35.00	   49.41	-1360.91	    6.15
     63.1984	   45.00	   47.36	-1348.86	    6.15
     63.2318	   53.00	   53.29	-1346.79	    6.14
     63.2653	   57.00	   51.61	-1341.11	    6.14
     63.2987	   41.00	   38.89	-1344.39	    6.13
     63.3321	   28.00	   25.31	-1343.81	    6.13
     63.3655	   17.00	   16.70	-1346.20	    6.13
     63.3990	    9.00	   12.72	-1350.22	    6.12
     63.4324	   10.00	   11.14	-1347.64	    6.12
     63.4658	    8.00	   10.43	-1348.93	    6.12
     63.4992	   15.00	   10.00	-1341.50	    6.11
     63.5327	   17.00	    9.72	-1339.22	    6.11
     63.5661	   14.00	    9.52	-1342.02	    6.10
     63.5995	    7.00	    9.38	-1348.88	    6.10
     63.6329	   11.00	    9.27	-1344.77	    6.10
     63.6663	   13.00	    9.18	-1342.68	    6.09
     63.6998	    7.00	    9.12	-1348.62	    6.09
     63.7332	   14.00	    9.09	-1341.59	    6.09
     63.7666	    9.00	    9.07	-1346.57	    6.08
     63.8000	    8.00	    9.07	-1347.57	    6.08
     63.8335	   15.00	    9.07	-1340.57	    6.07
     63.8669	    6.00	    9.09	-1349.59	    6.07
     63.9003	    9.00	    9.13	-1346.63	    6.07
     63.9337	   15.00	    9.18	-1340.68	    6.06
     63.9671	    9.00	    9.24	-1346.74	    6.06
     64.0006	   10.00	    9.32	-1345.82	    6.06
     64.0340	   13.00	    9.40	-1342.90	    6.05
     64.0674	   10.00	    9.51	-1346.01	    6.05
     64.1008	    7.00	    9.66	-1349.16	    6.04
     64.1343	   16.00	    9.83	-1340.33	    6.04
     64.1677	   14.00	   10.04	-1342.54	    6.04
     64.2011	    5.00	   10.30	-1351.80	    6.03
     64.2345	   17.00	   10.59	-1340.09	    6.03
     64.2680	   14.00	   10.98	-1343.48	    6.03
     64.3014	   11.00	   11.47	-1346.97	    6.02
     64.3348	   18.00	   12.09	-1340.59	    6.02
     64.3682	   20.00	   12.89	-1339.39	    6.01
     64.4016	    9.00	   13.97	-1351.47	    6.01
     64.4351	   19.00	   15.45	-1342.95	    6.01
     64.4685	   28.00	   17.66	-1336.16	    6.00
     64.5019	   20.00	   21.59	-1348.09	    6.00
     64.5353	   30.00	   30.83	-1347.33	    6.00
     64.5688	   55.00	   54.87	-1346.37	    5.99
     64.6022	   99.00	  108.04	-1355.54	    5.99
     64.6356	  173.00	  193.25	-1366.75	    5.99
     64.6690	  295.00	  274.79	-1326.29	    5.98
     64.7024	  253.00	  280.60	-1374.10	    5.98
     64.7359	  183.00	  211.14	-1374.64	    5.98
     64.7693	  150.00	  146.30	-1342.80	    5.97
     64.8027	  100.00	  129.34	-1375.84	    5.97
     64.8361	  145.00	  148.74	-1350.24	    5.97
     64.8696	  139.00	  157.09	-1364.59	    5.96
     64.9030	  139.00	  124.46	-1331.96	    5.96
     64.9364	   70.00	   77.87	-1354.37	    5.95
     64.9698	   36.00	   43.71	-1354.21	    5.95
     65.0033	   19.00	   26.28	-1353.78	    5.95
     65.0367	   17.00	   19.13	-1348.63	    5.94
     65.0701	   14.00	   16.16	-1348.66	    5.94
     65.1035	   11.00	   14.63	-1350.13	    5.94
     65.1369	   10.00	   13.67	-1350.17	    5.93
     65.1704	   15.00	   13.03	-1344.53	    5.93
     65.2038	   15.00	   12.63	-1344.13	    5.93
     65.2372	   16.00	   12.42	-1342.92	    5.92
     65.2706	   14.00	   12.38	-1344.88	    5.92
     65.3040	   14.00	   12.51	-1345.01	    5.92
     65.3375	   16.00	   12.84	-1343.34	    5.91
     65.3709	   17.00	   13.44	-1342.94	    5.91
     65.4043	   17.00	   14.46	-1343.96	    5.91
     65.4377	   15.00	   16.44	-1347.94	    5.90
     65.4712	   28.00	   21.28	-1339.78	    5.90
     65.5046	   39.00	   34.03	-1341.53	    5.90
     65.5380	   59.00	   62.48	-1349.98	    5.89
     65.5714	   94.00	  108.62	-1361.12	    5.89
     65.6049	  141.00	  154.01	-1359.51	    5.89
     65.6383	  158.00	  159.34	-1347.84	    5.88
     65.6717	  104.00	  121.85	-1364.35	    5.88
     65.7051	   70.00	   84.65	-1361.15	    5.88
     65.7385	   74.00	   73.05	-1345.55	    5.87
     65.7720	   81.00	   83.16	-1348.66	    5.87
     65.8054	   81.00	   90.62	-1356.12	    5.87
     65.8388	   82.00	   75.56	-1340.06	    5.86
     65.8722	   54.00	   49.90	-1342.40	    5.86
     65.9057	   22.00	   29.71	-1354.21	    5.86
     65.9391	   17.00	   18.84	-1348.34	    5.85
     65.9725	   13.00	   14.21	-1347.71	    5.85
     66.0059	   10.00	   12.28	-1348.78	    5.85
     66.0393	    8.00	   11.26	-1349.76	    5.85
     66.0728	    7.00	   10.60	-1350.10	    5.84
     66.1062	   10.00	   10.11	-1346.61	    5.84
     66.1396	   14.00	    9.74	-1342.24	    5.84
     66.1730	   10.00	    9.44	-1345.94	    5.83
     66.2065	   14.00	    9.21	-1341.71	    5.83
     66.2399	   10.00	    9.01	-1345.51	    5.83
     66.2733	   10.00	    8.85	-1345.35	    5.82
     66.3067	   17.00	    8.72	-1338.22	    5.82
     66.3401	   10.00	    8.60	-1345.10	    5.82
     66.3736	   20.00	    8.50	-1335.00	    5.81
     66.4070	   13.00	    8.42	-1341.92	    5.81
     66.4404	    7.00	    8.34	-1347.84	    5.81
     66.4738	    8.00	    8.29	-1346.79	    5.80
     66.5073	   11.00	    8.23	-1343.73	    5.80
     66.5407	   13.00	    8.17	-1341.67	    5.80
     66.5741	    5.00	    8.12	-1349.62	    5.80
     66.6075	    9.00	    8.08	-1345.58	    5.79
     66.6410	    5.00	    8.04	-1349.54	    5.79
     66.6744	   15.00	    8.01	-1339.51	    5.79
     66.7078	   18.00	    7.98	-1336.48	    5.78
     66.7412	   10.00	    7.95	-1344.45	    5.78
     66.7746	    6.00	    7.92	-1348.42	    5.78
     66.8081	    6.00	    7.90	-1348.40	    5.77
     66.8415	    3.00	    7.87	-1351.37	    5.77
     66.8749	   13.00	    7.85	-1341.35	    5.77
     66.9083	    2.00	    7.83	-1352.33	    5.76
     66.9418	    7.00	    7.81	-1347.31	    5.76
     66.9752	    7.00	    7.79	-1347.29	    5.76
     67.0086	   10.00	    7.77	-1344.27	    5.76
     67.0420	   11.00	    7.76	-1343.26	    5.75
     67.0754	   13.00	    7.74	-1341.24	    5.75
     67.1089	    7.00	    7.73	-1347.23	    5.75
     67.1423	   11.00	    7.72	-1343.22	    5.74
     67.1757	    9.00	    7.70	-1345.20	    5.74
     67.2091	   16.00	    7.69	-1338.19	    5.74
     67.2426	   10.00	    7.68	-1344.18	    5.74
     67.2760	   13.00	    7.67	-1341.17	    5.73
     67.3094	   14.00	    7.66	-1340.16	    5.73
     67.3428	    9.00	    7.65	-1345.15	    5.73
     67.3762	   10.00	    7.58	-1344.08	    5.72
     67.4097	   15.00	    7.57	-1339.07	    5.72
     67.4431	    7.00	    7.57	-1347.07	    5.72
     67.4765	    7.00	    7.56	-1347.06	    5.72
     67.5099	    6.00	    7.58	-1348.08	    5.71
     67.5434	    8.00	    7.57	-1346.07	    5.71
     67.5768	    6.00	    7.54	-1348.04	    5.71
     67.6102	    7.00	    7.53	-1347.03	    5.70
     67.6436	    4.00	    7.53	-1350.03	    5.70
     67.6770	   11.00	    7.53	-1343.03	    5.70
     67.7105	    9.00	    7.53	-1345.03	    5.70
     67.7439	   10.00	    7.53	-1344.03	    5.69
     67.7773	   11.00	    7.53	-1343.03	    5.69
     67.8107	    4.00	    7.53	-1350.03	    5.69
     67.8442	    5.00	    7.53	-1349.03	    5.68
     67.8776	    6.00	    7.53	-1348.03	    5.68
     67.9110	   10.00	    7.53	-1344.03	    5.68
     67.9444	    7.00	    7.53	-1347.03	    5.68
     67.9779	    4.00	    7.53	-1350.03	    5.67
     68.0113	    7.00	    7.53	-1347.03	    5.67
     68.0447	   13.00	    7.53	-1341.03	    5.67
     68.0781	    7.00	    7.53	-1347.03	    5.67
     68.1115	   15.00	    7.53	-1339.03	    5.66
     68.1450	   14.00	    7.54	-1340.04	    5.66
     68.1784	   11.00	    7.54	-1343.04	    5.66
     68.2118	    9.00	    7.55	-1345.05	    5.65
     68.2452	    5.00	    7.55	-1349.05	    5.65
     68.2787	   15.00	    7.56	-1339.06	    5.65
     68.3121	   11.00	    7.57	-1343.07	    5.65
     68.3455	    8.00	    7.54	-1346.04	    5.64
     68.3789	    7.00	    7.55	-1347.05	    5.64
     68.4123	   15.00	    7.57	-1339.07	    5.64
     68.4458	    4.00	    7.58	-1350.08	    5.64
     68.4792	   11.00	    7.60	-1343.10	    5.63
     68.5126	    8.00	    7.60	-1346.10	    5.63
     68.5460	   11.00	    7.63	-1343.13	    5.63
     68.5795	    7.00	    7.65	-1347.15	    5.63
     68.6129	   11.00	    7.69	-1343.19	    5.62
     68.6463	    8.00	    7.72	-1346.22	    5.62
     68.6797	    8.00	    7.77	-1346.27	    5.62
     68.7132	    7.00	    7.82	-1347.32	    5.61
     68.7466	    6.00	    7.89	-1348.39	    5.61
     68.7800	   17.00	    7.96	-1337.46	    5.61
     68.8134	    9.00	    8.06	-1345.56	    5.61
     68.8468	    7.00	    8.18	-1347.68	    5.60
     68.8803	   14.00	    8.34	-1340.84	    5.60
     68.9137	   10.00	    8.55	-1345.05	    5.60
     68.9471	   16.00	    8.84	-1339.34	    5.60
     68.9805	   11.00	    9.26	-1344.76	    5.59
     69.0140	    5.00	    9.97	-1351.47	    5.59
     69.0474	   13.00	   11.57	-1345.07	    5.59
     69.0808	   13.00	   15.62	-1349.12	    5.59
     69.1142	   35.00	   24.67	-1336.17	    5.58
     69.1476	   30.00	   39.88	-1356.38	    5.58
     69.1811	   44.00	   56.33	-1358.83	    5.58
     69.2145	   59.00	   61.19	-1348.69	    5.58
     69.2479	   45.00	   49.75	-1351.25	    5.57
     69.2813	   18.00	   35.28	-1363.78	    5.57
     69.3148	   39.00	   28.30	-1335.80	    5.57
     69.3482	   32.00	   30.16	-1344.66	    5.57
     69.3816	   39.00	   35.28	-1342.78	    5.56
     69.4150	   40.00	   34.88	-1341.38	    5.56
     69.4484	   24.00	   27.34	-1349.84	    5.56
     69.4819	   32.00	   18.95	-1333.45	    5.56
     69.5153	   14.00	   13.38	-1345.88	    5.55
     69.5487	   13.00	   10.68	-1344.18	    5.55
     69.5821	    9.00	    9.58	-1347.08	    5.55
     69.6156	   13.00	    9.11	-1342.61	    5.55
     69.6490	    6.00	    8.87	-1349.37	    5.55
     69.6824	    8.00	    8.72	-1347.22	    5.54
     69.7158	    6.00	    8.65	-1349.15	    5.54
     69.7492	    9.00	    8.62	-1346.12	    5.54
     69.7827	    7.00	    8.63	-1348.13	    5.54
     69.8161	    7.00	    8.68	-1348.18	    5.53
     69.8495	    8.00	    8.78	-1347.28	    5.53
     69.8829	    7.00	    8.92	-1348.42	    5.53
     69.9164	   17.00	    9.13	-1338.63	    5.53
     69.9498	   13.00	    9.43	-1342.93	    5.52
     69.9832	    5.00	    9.84	-1351.34	    5.52
     70.0166	   15.00	   10.45	-1341.95	    5.52
     70.0500	   11.00	   11.44	-1346.94	    5.52
     70.0835	   10.00	   13.47	-1349.97	    5.51
     70.1169	   21.00	   18.58	-1344.08	    5.51
     70.1503	   37.00	   30.73	-1340.23	    5.51
     70.1837	   43.00	   53.61	-1357.11	    5.51
     70.2172	   79.00	   83.52	-1351.02	    5.51
     70.2506	  101.00	  102.41	-1347.91	    5.50
     70.2840	   77.00	   91.37	-1360.87	    5.50
     70.3174	   65.00	   64.82	-1346.32	    5.50
     70.3509	   44.00	   45.99	-1348.49	    5.50
     70.3843	   39.00	   43.29	-1350.79	    5.49
     70.4177	   43.00	   51.76	-1355.26	    5.49
     70.4511	   48.00	   57.59	-1356.09	    5.49
     70.4845	   44.00	   49.54	-1352.04	    5.49
     70.5180	   27.00	   34.29	-1353.79	    5.49
     70.5514	   21.00	   21.71	-1347.21	    5.48
     70.5848	   15.00	   14.61	-1346.11	    5.48
     70.6182	   11.00	   11.45	-1346.95	    5.48
     70.6517	   15.00	   10.13	-1341.63	    5.48
     70.6851	   13.00	    9.46	-1342.96	    5.47
     70.7185	    7.00	    9.03	-1348.53	    5.47
     70.7519	   13.00	    8.73	-1342.23	    5.47
     70.7853	    9.00	    8.49	-1345.99	    5.47
     70.8188	    9.00	    8.31	-1345.81	    5.47
     70.8522	   11.00	    8.17	-1343.67	    5.46
     70.8856	    6.00	    8.06	-1348.56	    5.46
     70.9190	    8.00	    7.96	-1346.46	    5.46
     70.9525	    5.00	    7.88	-1349.38	    5.46
     70.9859	    7.00	    7.81	-1347.31	    5.45
     71.0193	    9.00	    7.76	-1345.26	    5.45
     71.0527	   10.00	    7.71	-1344.21	    5.45
     71.0862	    4.00	    7.67	-1350.17	    5.45
     71.1196	   11.00	    7.63	-1343.13	    5.45
     71.1530	    4.00	    7.60	-1350.10	    5.44
     71.1864	    6.00	    7.57	-1348.07	    5.44
     71.2198	    6.00	    7.55	-1348.05	    5.44
     71.2533	    6.00	    7.53	-1348.03	    5.44
     71.2867	    9.00	    7.51	-1345.01	    5.44
     71.3201	   14.00	    7.49	-1339.99	    5.43
     71.3535	    5.00	    7.48	-1348.98	    5.43
     71.3870	    7.00	    7.47	-1346.97	    5.43
     71.4204	    7.00	    7.46	-1346.96	    5.43
     71.4538	    8.00	    7.45	-1345.95	    5.43
     71.4872	    6.00	    7.44	-1347.94	    5.42
     71.5206	   11.00	    7.43	-1342.93	    5.42
     71.5541	    9.00	    7.43	-1344.93	    5.42
     71.5875	   11.00	    7.43	-1342.93	    5.42
     71.6209	    8.00	    7.42	-1345.92	    5.42
     71.6543	    5.00	    7.42	-1348.92	    5.41
     71.6878	    4.00	    7.42	-1349.92	    5.41
     71.7212	    6.00	    7.43	-1347.93	    5.41
     71.7546	   14.00	    7.43	-1339.93	    5.41
     71.7880	   14.00	    7.43	-1339.93	    5.41
     71.8214	   14.00	    7.44	-1339.94	    5.40
     71.8549	    4.00	    7.45	-1349.95	    5.40
     71.8883	   10.00	    7.46	-1343.96	    5.40
     71.9217	    7.00	    7.47	-1346.97	    5.40
     71.9551	    9.00	    7.47	-1344.97	    5.40
     71.9886	   15.00	    7.49	-1338.99	    5.39
     72.0220	    6.00	    7.50	-1348.00	    5.39
     72.0554	    9.00	    7.53	-1345.03	    5.39
     72.0888	   10.00	    7.55	-1344.05	    5.39
     72.1222	    4.00	    7.58	-1350.08	    5.39
     72.1557	    6.00	    7.61	-1348.11	    5.38
     72.1891	    6.00	    7.64	-1348.14	    5.38
     72.2225	   14.00	    7.69	-1340.19	    5.38
     72.2559	   13.00	    7.74	-1341.24	    5.38
     72.2894	    9.00	    7.80	-1345.30	    5.38
     72.3228	    4.00	    7.87	-1350.37	    5.37
     72.3562	   15.00	    7.96	-1339.46	    5.37
     72.3896	    9.00	    8.06	-1345.56	    5.37
     72.4230	   17.00	    8.18	-1337.68	    5.37
     72.4565	    8.00	    8.32	-1346.82	    5.37
     72.4899	    6.00	    8.51	-1349.01	    5.36
     72.5233	   14.00	    8.73	-1341.23	    5.36
     72.5567	    9.00	    9.02	-1346.52	    5.36
     72.5902	   11.00	    9.40	-1344.90	    5.36
     72.6236	   18.00	    9.90	-1338.40	    5.36
     72.6570	   14.00	   10.59	-1343.09	    5.36
     72.6904	   16.00	   11.65	-1342.15	    5.35
     72.7239	   16.00	   13.59	-1344.09	    5.35
     72.7573	   24.00	   18.15	-1340.65	    5.35
     72.7907	   34.00	   29.25	-1341.75	    5.35
     72.8241	   57.00	   52.03	-1341.53	    5.35
     72.8575	   86.00	   86.40	-1346.90	    5.34
     72.8910	  136.00	  117.83	-1328.33	    5.34
     72.9244	  112.00	  119.10	-1353.60	    5.34
     72.9578	   82.00	   90.32	-1354.82	    5.34
     72.9912	   67.00	   60.55	-1340.05	    5.34
     73.0247	   37.00	   47.38	-1356.88	    5.34
     73.0581	   56.00	   52.13	-1342.63	    5.33
     73.0915	   71.00	   64.47	-1339.97	    5.33
     73.1249	   57.00	   67.20	-1356.70	    5.33
     73.1583	   60.00	   53.46	-1339.96	    5.33
     73.1918	   42.00	   35.27	-1339.77	    5.33
     73.2252	   23.00	   21.96	-1345.46	    5.32
     73.2586	   17.00	   14.95	-1344.45	    5.32
     73.2920	   10.00	   11.93	-1348.43	    5.32
     73.3255	    8.00	   10.65	-1349.15	    5.32
     73.3589	   10.00	   10.01	-1346.51	    5.32
     73.3923	   10.00	    9.62	-1346.12	    5.32
     73.4257	    8.00	    9.40	-1347.90	    5.31
     73.4592	    8.00	    9.34	-1347.84	    5.31
     73.4926	   13.00	    9.46	-1342.96	    5.31
     73.5260	   15.00	   10.03	-1341.53	    5.31
     73.5594	    9.00	   11.72	-1349.22	    5.31
     73.5928	   13.00	   15.55	-1349.05	    5.31
     73.6263	   21.00	   21.93	-1347.43	    5.30
     73.6597	   32.00	   28.85	-1343.35	    5.30
     73.6931	   31.00	   31.01	-1346.51	    5.30
     73.7265	   35.00	   26.20	-1337.70	    5.30
     73.7599	   17.00	   19.65	-1349.15	    5.30
     73.7934	   19.00	   15.82	-1343.32	    5.30
     73.8268	   14.00	   15.78	-1348.28	    5.29
     73.8602	   20.00	   18.13	-1344.63	    5.29
     73.8936	   21.00	   19.73	-1345.23	    5.29
     73.9271	   23.00	   17.94	-1341.44	    5.29
     73.9605	   16.00	   14.25	-1344.75	    5.29
     73.9939	   16.00	   11.08	-1341.58	    5.29
     74.0273	   14.00	    9.21	-1341.71	    5.28
     74.0608	    9.00	    8.34	-1345.84	    5.28
     74.0942	   15.00	    7.97	-1339.47	    5.28
     74.1276	    3.00	    7.77	-1351.27	    5.28
     74.1610	    5.00	    7.65	-1349.15	    5.28
     74.1944	    8.00	    7.56	-1346.06	    5.28
     74.2279	    7.00	    7.48	-1346.98	    5.28
     74.2613	    8.00	    7.43	-1345.93	    5.27
     74.2947	    7.00	    7.38	-1346.88	    5.27
     74.3281	    4.00	    7.36	-1349.86	    5.27
     74.3616	    4.00	    7.33	-1349.83	    5.27
     74.3950	   10.00	    7.30	-1343.80	    5.27
     74.4284	   11.00	    7.28	-1342.78	    5.27
     74.4618	    3.00	    7.26	-1350.76	    5.26
     74.4952	    9.00	    7.24	-1344.74	    5.26
     74.5287	   14.00	    7.23	-1339.73	    5.26
     74.5621	    7.00	    7.22	-1346.72	    5.26
     74.5955	    6.00	    7.20	-1347.70	    5.26
     74.6289	    9.00	    7.19	-1344.69	    5.26
     74.6624	    3.00	    7.18	-1350.68	    5.25
     74.6958	    3.00	    7.17	-1350.67	    5.25
     74.7292	   13.00	    7.17	-1340.67	    5.25
     74.7626	   13.00	    7.16	-1340.66	    5.25
     74.7961	    8.00	    7.15	-1345.65	    5.25
     74.8295	   18.00	    7.15	-1335.65	    5.25
     74.8629	   11.00	    7.14	-1342.64	    5.25
     74.8963	    6.00	    7.14	-1347.64	    5.24
     74.9297	    5.00	    7.14	-1348.64	    5.24
     74.9632	    6.00	    7.13	-1347.63	    5.24
     74.9966	   10.00	    7.13	-1343.63	    5.24
     75.0300	   11.00	    7.13	-1342.63	    5.24
     75.0634	    8.00	    7.13	-1345.63	    5.24
     75.0969	    8.00	    7.13	-1345.63	    5.24
     75.1303	   10.00	    7.13	-1343.63	    5.23
     75.1637	    8.00	    7.13	-1345.63	    5.23
     75.1971	    9.00	    7.14	-1344.64	    5.23
     75.2305	    6.00	    7.14	-1347.64	    5.23
     75.2640	    5.00	    7.14	-1348.64	    5.23
     75.2974	    8.00	    7.15	-1345.65	    5.23
     75.3308	    6.00	    7.15	-1347.65	    5.23
     75.3642	    5.00	    7.16	-1348.66	    5.22
     75.3977	    6.00	    7.17	-1347.67	    5.22
     75.4311	   10.00	    7.18	-1343.68	    5.22
     75.4645	    7.00	    7.19	-1346.69	    5.22
     75.4979	   13.00	    7.20	-1340.70	    5.22
     75.5313	   13.00	    7.21	-1340.71	    5.22
     75.5648	    7.00	    7.23	-1346.73	    5.22
     75.5982	    6.00	    7.25	-1347.75	    5.21
     75.6316	    5.00	    7.27	-1348.77	    5.21
     75.6650	    6.00	    7.30	-1347.80	    5.21
     75.6985	    9.00	    7.33	-1344.83	    5.21
     75.7319	    6.00	    7.34	-1347.84	    5.21
     75.7653	   10.00	    7.38	-1343.88	    5.21
     75.7987	    8.00	    7.43	-1345.93	    5.21
     75.8321	    6.00	    7.50	-1348.00	    5.21
     75.8656	   10.00	    7.57	-1344.07	    5.20
     75.8990	    8.00	    7.66	-1346.16	    5.20
     75.9324	   11.00	    7.77	-1343.27	    5.20
     75.9658	    9.00	    7.92	-1345.42	    5.20
     75.9993	    7.00	    8.12	-1347.62	    5.20
     76.0327	   14.00	    8.39	-1340.89	    5.20
     76.0661	   15.00	    8.79	-1340.29	    5.20
     76.0995	   20.00	    9.48	-1335.98	    5.19
     76.1329	   16.00	   11.03	-1341.53	    5.19
     76.1664	   18.00	   14.74	-1343.24	    5.19
     76.1998	   22.00	   22.54	-1347.04	    5.19
     76.2332	   49.00	   35.03	-1332.53	    5.19
     76.2666	   54.00	   48.20	-1340.70	    5.19
     76.3001	   60.00	   52.17	-1338.67	    5.19
     76.3335	   39.00	   43.02	-1350.52	    5.19
     76.3669	   26.00	   30.45	-1350.95	    5.18
     76.4003	   19.00	   22.70	-1350.20	    5.18
     76.4338	   20.00	   21.98	-1348.48	    5.18
     76.4672	   23.00	   26.31	-1349.81	    5.18
     76.5006	   32.00	   30.73	-1345.23	    5.18
     76.5340	   28.00	   29.42	-1347.92	    5.18
     76.5674	   22.00	   23.03	-1347.53	    5.18
     76.6009	   21.00	   16.50	-1342.00	    5.18
     76.6343	   11.00	   12.25	-1347.75	    5.17
     76.6677	   15.00	   10.19	-1341.69	    5.17
     76.7011	    6.00	    9.36	-1349.86	    5.17
     76.7346	   14.00	    9.05	-1341.55	    5.17
     76.7680	    7.00	    8.96	-1348.46	    5.17
     76.8014	   16.00	    8.98	-1339.48	    5.17
     76.8348	    6.00	    9.11	-1349.61	    5.17
     76.8682	    8.00	    9.35	-1347.85	    5.17
     76.9017	    7.00	    9.73	-1349.23	    5.16
     76.9351	   14.00	   10.34	-1342.84	    5.16
     76.9685	   10.00	   11.45	-1347.95	    5.16
     77.0019	   20.00	   13.91	-1340.41	    5.16
     77.0354	   34.00	   19.90	-1332.40	    5.16
     77.0688	   47.00	   32.83	-1332.33	    5.16
     77.1022	   61.00	   54.36	-1339.86	    5.16
     77.1356	   86.00	   78.74	-1339.24	    5.16
     77.1691	  106.00	   89.22	-1329.72	    5.16
     77.2025	   80.00	   75.24	-1341.74	    5.15
     77.2359	   53.00	   52.15	-1345.65	    5.15
     77.2693	   31.00	   36.07	-1351.57	    5.15
     77.3027	   36.00	   32.45	-1342.95	    5.15
     77.3362	   32.00	   38.98	-1353.48	    5.15
     77.3696	   42.00	   48.03	-1352.53	    5.15
     77.4030	   59.00	   48.71	-1336.21	    5.15
     77.4364	   36.00	   38.52	-1349.02	    5.15
     77.4699	   28.00	   26.07	-1344.57	    5.15
     77.5033	   28.00	   17.12	-1335.62	    5.14
     77.5367	   10.00	   12.35	-1348.85	    5.14
     77.5701	   15.00	   10.23	-1341.73	    5.14
     77.6035	   18.00	    9.28	-1337.78	    5.14
     77.6370	   10.00	    8.76	-1345.26	    5.14
     77.6704	    7.00	    8.41	-1347.91	    5.14
     77.7038	   15.00	    8.16	-1339.66	    5.14
     77.7372	   15.00	    7.96	-1339.46	    5.14
     77.7707	   13.00	    7.81	-1341.31	    5.14
     77.8041	    5.00	    7.69	-1349.19	    5.13
     77.8375	   10.00	    7.58	-1344.08	    5.13
     77.8709	   13.00	    7.50	-1341.00	    5.13
     77.9043	    7.00	    7.43	-1346.93	    5.13
     77.9378	    4.00	    7.37	-1349.87	    5.13
     77.9712	    5.00	    7.32	-1348.82	    5.13
     78.0046	    4.00	    7.28	-1349.78	    5.13
     78.0380	    7.00	    7.25	-1346.75	    5.13
     78.0715	    7.00	    7.22	-1346.72	    5.13
     78.1049	   10.00	    7.19	-1343.69	    5.12
     78.1383	    6.00	    7.17	-1347.67	    5.12
     78.1717	    6.00	    7.15	-1347.65	    5.12
     78.2051	   13.00	    7.14	-1340.64	    5.12
     78.2386	   11.00	    7.14	-1342.64	    5.12
     78.2720	    9.00	    7.16	-1344.66	    5.12
     78.3054	   13.00	    7.23	-1340.73	    5.12
     78.3388	    6.00	    7.42	-1347.92	    5.12
     78.3723	   11.00	    7.76	-1343.26	    5.12
     78.4057	    8.00	    8.20	-1346.70	    5.12
     78.4391	    5.00	    8.48	-1349.98	    5.11
     78.4725	    6.00	    8.32	-1348.82	    5.11
     78.5060	    4.00	    7.90	-1350.40	    5.11
     78.5394	    3.00	    7.54	-1351.04	    5.11
     78.5728	   13.00	    7.39	-1340.89	    5.11
     78.6062	   16.00	    7.47	-1337.97	    5.11
     78.6396	    6.00	    7.64	-1348.14	    5.11
     78.6731	    7.00	    7.73	-1347.23	    5.11
     78.7065	   14.00	    7.61	-1340.11	    5.11
     78.7399	    7.00	    7.38	-1346.88	    5.11
     78.7733	    7.00	    7.18	-1346.68	    5.10
     78.8068	   11.00	    7.06	-1342.56	    5.10
     78.8402	    8.00	    7.01	-1345.51	    5.10
     78.8736	    6.00	    6.98	-1347.48	    5.10
     78.9070	    6.00	    6.96	-1347.46	    5.10
     78.9404	    7.00	    6.95	-1346.45	    5.10
     78.9739	    3.00	    6.94	-1350.44	    5.10
     79.0073	   10.00	    6.94	-1343.44	    5.10
     79.0407	    7.00	    6.93	-1346.43	    5.10
     79.0741	   13.00	    6.93	-1340.43	    5.10
     79.1076	    6.00	    6.92	-1347.42	    5.10
     79.1410	    6.00	    6.92	-1347.42	    5.09
     79.1744	   13.00	    6.91	-1340.41	    5.09
     79.2078	    5.00	    6.91	-1348.41	    5.09
     79.2412	    6.00	    6.91	-1347.41	    5.09
     79.2747	    8.00	    6.91	-1345.41	    5.09
     79.3081	   10.00	    6.91	-1343.41	    5.09
     79.3415	   13.00	    6.90	-1340.40	    5.09
     79.3749	    9.00	    6.90	-1344.40	    5.09
     79.4084	   13.00	    6.90	-1340.40	    5.09
     79.4418	    5.00	    6.90	-1348.40	    5.09
     79.4752	   10.00	    6.90	-1343.40	    5.09
     79.5086	    4.00	    6.90	-1349.40	    5.09
     79.5421	   10.00	    6.91	-1343.41	    5.08
     79.5755	   10.00	    6.91	-1343.41	    5.08
     79.6089	    4.00	    6.91	-1349.41	    5.08
     79.6423	    6.00	    6.91	-1347.41	    5.08
     79.6757	    7.00	    6.91	-1346.41	    5.08
     79.7092	    6.00	    6.92	-1347.42	    5.08
     79.7426	    9.00	    6.92	-1344.42	    5.08
     79.7760	   11.00	    6.93	-1342.43	    5.08
     79.8094	   10.00	    6.93	-1343.43	    5.08
     79.8428	    4.00	    6.94	-1349.44	    5.08
     79.8763	   10.00	    6.94	-1343.44	    5.08
     79.9097	   10.00	    6.95	-1343.45	    5.08
     79.9431	   11.00	    6.96	-1342.46	    5.07
     79.9765	    5.00	    6.97	-1348.47	    5.07
     80.0100	   10.00	    6.98	-1343.48	    5.07
     80.0434	    5.00	    6.97	-1348.47	    5.07
     80.0768	    7.00	    6.99	-1346.49	    5.07
     80.1102	    7.00	    7.02	-1346.52	    5.07
     80.1437	    7.00	    7.07	-1346.57	    5.07
     80.1771	    6.00	    7.16	-1347.66	    5.07
     80.2105	   11.00	    7.26	-1342.76	    5.07
     80.2439	    9.00	    7.33	-1344.83	    5.07
     80.2773	   13.00	    7.31	-1340.81	    5.07
     80.3108	   11.00	    7.25	-1342.75	    5.07
     80.3442	   20.00	    7.20	-1333.70	    5.06
     80.3776	    8.00	    7.20	-1345.70	    5.06
     80.4110	    7.00	    7.24	-1346.74	    5.06
     80.4445	    9.00	    7.32	-1344.82	    5.06
     80.4779	   10.00	    7.38	-1343.88	    5.06
     80.5113	   10.00	    7.42	-1343.92	    5.06
     80.5447	   14.00	    7.44	-1339.94	    5.06
     80.5781	   10.00	    7.47	-1343.97	    5.06
     80.6116	   15.00	    7.53	-1339.03	    5.06
     80.6450	    7.00	    7.63	-1347.13	    5.06
     80.6784	    7.00	    7.77	-1347.27	    5.06
     80.7118	    9.00	    7.96	-1345.46	    5.06
     80.7453	    7.00	    8.26	-1347.76	    5.06
     80.7787	    8.00	    8.82	-1347.32	    5.06
     80.8121	   17.00	   10.14	-1339.64	    5.05
     80.8455	   18.00	   12.93	-1341.43	    5.05
     80.8790	   13.00	   18.02	-1351.52	    5.05
     80.9124	   23.00	   24.90	-1348.40	    5.05
     80.9458	   34.00	   30.31	-1342.81	    5.05
     80.9792	   31.00	   29.54	-1345.04	    5.05
     81.0126	   26.00	   23.68	-1344.18	    5.05
     81.0461	   15.00	   17.86	-1349.36	    5.05
     81.0795	   14.00	   14.82	-1347.32	    5.05
     81.1129	   15.00	   15.04	-1346.54	    5.05
     81.1463	   24.00	   17.58	-1340.08	    5.05
     81.1798	   11.00	   20.41	-1355.91	    5.05
     81.2132	   24.00	   20.78	-1343.28	    5.05
     81.2466	   19.00	   18.38	-1345.88	    5.05
     81.2800	   18.00	   15.63	-1344.13	    5.05
     81.3134	   14.00	   14.21	-1346.71	    5.04
     81.3469	   20.00	   14.88	-1341.38	    5.04
     81.3803	   18.00	   18.85	-1347.35	    5.04
     81.4137	   28.00	   28.94	-1347.44	    5.04
     81.4471	   35.00	   48.46	-1359.96	    5.04
     81.4806	   72.00	   76.42	-1350.92	    5.04
     81.5140	  113.00	  101.21	-1334.71	    5.04
     81.5474	  116.00	  102.34	-1332.84	    5.04
     81.5808	   87.00	   79.23	-1338.73	    5.04
     81.6143	   58.00	   52.92	-1341.42	    5.04
     81.6477	   52.00	   37.05	-1331.55	    5.04
     81.6811	   31.00	   34.77	-1350.27	    5.04
     81.7145	   43.00	   43.10	-1346.60	    5.04
     81.7479	   65.00	   54.70	-1336.20	    5.04
     81.7814	   57.00	   58.07	-1347.57	    5.04
     81.8148	   56.00	   48.09	-1338.59	    5.04
     81.8482	   28.00	   33.47	-1351.97	    5.03
     81.8816	   19.00	   22.00	-1349.50	    5.03
     81.9151	   15.00	   15.56	-1347.06	    5.03
     81.9485	    8.00	   12.98	-1351.48	    5.03
     81.9819	   13.00	   12.87	-1346.37	    5.03
     82.0153	   14.00	   14.66	-1347.16	    5.03
     82.0487	   20.00	   17.96	-1344.46	    5.03
     82.0822	   24.00	   21.26	-1343.76	    5.03
     82.1156	   13.00	   21.72	-1355.22	    5.03
     82.1490	   26.00	   18.66	-1339.16	    5.03
     82.1824	   15.00	   14.79	-1346.29	    5.03
     82.2159	    9.00	   12.21	-1349.71	    5.03
     82.2493	   15.00	   11.51	-1343.01	    5.03
     82.2827	   11.00	   12.37	-1347.87	    5.03
     82.3161	   16.00	   13.92	-1344.42	    5.03
     82.3495	   22.00	   14.69	-1339.19	    5.03
     82.3830	   11.00	   13.59	-1349.09	    5.03
     82.4164	   17.00	   11.56	-1341.06	    5.03
     82.4498	   17.00	    9.80	-1339.30	    5.02
     82.4832	   10.00	    8.72	-1345.22	    5.02
     82.5167	    9.00	    8.18	-1345.68	    5.02
     82.5501	   11.00	    7.94	-1343.44	    5.02
     82.5835	    6.00	    7.82	-1348.32	    5.02
     82.6169	    8.00	    7.74	-1346.24	    5.02
     82.6503	    9.00	    7.70	-1345.20	    5.02
     82.6838	    7.00	    7.66	-1347.16	    5.02
     82.7172	    6.00	    7.64	-1348.14	    5.02
     82.7506	   17.00	    7.63	-1337.13	    5.02
     82.7840	    8.00	    7.63	-1346.13	    5.02
     82.8175	    4.00	    7.64	-1350.14	    5.02
     82.8509	   13.00	    7.65	-1341.15	    5.02
     82.8843	    7.00	    7.67	-1347.17	    5.02
     82.9177	   14.00	    7.70	-1340.20	    5.02
     82.9511	   13.00	    7.73	-1341.23	    5.02
     82.9846	    6.00	    7.77	-1348.27	    5.02
     83.0180	   10.00	    7.83	-1344.33	    5.02
     83.0514	    3.00	    7.89	-1351.39	    5.02
     83.0848	    8.00	    7.96	-1346.46	    5.02
     83.1183	    7.00	    8.05	-1347.55	    5.01
     83.1517	   15.00	    8.15	-1339.65	    5.01
     83.1851	    6.00	    8.27	-1348.77	    5.01
     83.2185	    9.00	    8.41	-1345.91	    5.01
     83.2520	    8.00	    8.58	-1347.08	    5.01
     83.2854	    6.00	    8.78	-1349.28	    5.01
     83.3188	    3.00	    9.03	-1352.53	    5.01
     83.3522	   13.00	    9.33	-1342.83	    5.01
     83.3856	   15.00	    9.70	-1341.20	    5.01
     83.4191	   15.00	   10.18	-1341.68	    5.01
     83.4525	   19.00	   10.79	-1338.29	    5.01
     83.4859	   13.00	   11.60	-1345.10	    5.01
     83.5193	    8.00	   12.70	-1351.20	    5.01
     83.5528	   22.00	   14.34	-1338.84	    5.01
     83.5862	   13.00	   17.24	-1350.74	    5.01
     83.6196	   30.00	   23.48	-1339.98	    5.01
     83.6530	   34.00	   37.73	-1350.23	    5.01
     83.6864	   72.00	   66.48	-1340.98	    5.01
     83.7199	  128.00	  111.92	-1330.42	    5.01
     83.7533	  155.00	  161.76	-1353.26	    5.01
     83.7867	  192.00	  183.15	-1337.65	    5.01
     83.8201	  147.00	  155.27	-1354.77	    5.01
     83.8536	   86.00	  106.65	-1367.15	    5.01
     83.8870	   61.00	   68.66	-1354.16	    5.01
     83.9204	   62.00	   52.98	-1337.48	    5.00
     83.9538	   47.00	   58.79	-1358.29	    5.00
     83.9873	   83.00	   78.29	-1341.79	    5.00
     84.0207	   81.00	   96.62	-1362.12	    5.00
     84.0541	   92.00	   94.58	-1349.08	    5.00
     84.0875	   78.00	   72.28	-1340.78	    5.00
     84.1209	   35.00	   47.12	-1358.62	    5.00
     84.1544	   20.00	   29.15	-1355.65	    5.00
     84.1878	   15.00	   19.38	-1350.88	    5.00
     84.2212	   24.00	   14.90	-1337.40	    5.00
     84.2546	   17.00	   12.88	-1342.38	    5.00
     84.2880	   18.00	   11.82	-1340.32	    5.00
     84.3215	   13.00	   11.17	-1344.67	    5.00
     84.3549	   13.00	   10.74	-1344.24	    5.00
     84.3883	    8.00	   10.47	-1348.97	    5.00
     84.4217	    9.00	   10.33	-1347.83	    5.00
     84.4552	    9.00	   10.31	-1347.81	    5.00
     84.4886	   10.00	   10.39	-1346.89	    5.00
     84.5220	   15.00	   10.64	-1342.14	    5.00
     84.5554	   17.00	   11.08	-1340.58	    5.00
     84.5889	    7.00	   11.84	-1351.34	    5.00
     84.6223	   16.00	   13.35	-1343.85	    5.00
     84.6557	   10.00	   16.78	-1353.28	    5.00
     84.6891	   26.00	   24.66	-1345.16	    5.00
     84.7225	   37.00	   40.18	-1349.68	    5.00
     84.7560	   53.00	   63.90	-1357.40	    5.00
     84.7894	   83.00	   88.62	-1352.12	    5.00
     84.8228	   85.00	   97.16	-1358.66	    5.00
     84.8562	   69.00	   81.16	-1358.66	    5.00
     84.8897	   48.00	   56.32	-1354.82	    5.00
     84.9231	   35.00	   37.55	-1349.05	    4.99
     84.9565	   27.00	   30.03	-1349.53	    4.99
     84.9899	   44.00	   33.11	-1335.61	    4.99
     85.0233	   37.00	   43.02	-1352.52	    4.99
     85.0568	   52.00	   52.60	-1347.10	    4.99
     85.0902	   60.00	   52.16	-1338.66	    4.99
     85.1236	   40.00	   41.12	-1347.62	    4.99
     85.1570	   22.00	   28.18	-1352.68	    4.99
     85.1905	   10.00	   18.72	-1355.22	    4.99
     85.2239	   14.00	   13.45	-1345.95	    4.99
     85.2573	    9.00	   10.97	-1348.47	    4.99
     85.2907	   11.00	    9.82	-1345.32	    4.99
     85.3242	   10.00	    9.20	-1345.70	    4.99
     85.3576	    6.00	    8.78	-1349.28	    4.99
     85.3910	    7.00	    8.48	-1347.98	    4.99
     85.4244	    8.00	    8.25	-1346.75	    4.99
     85.4578	    3.00	    8.07	-1351.57	    4.99
     85.4913	    9.00	    7.92	-1345.42	    4.99
     85.5247	   10.00	    7.80	-1344.30	    4.99
     85.5581	   16.00	    7.70	-1338.20	    4.99
     85.5915	   11.00	    7.62	-1343.12	    4.99
     85.6250	    5.00	    7.55	-1349.05	    4.99
     85.6584	    5.00	    7.49	-1348.99	    4.99
     85.6918	    9.00	    7.44	-1344.94	    4.99
     85.7252	    7.00	    7.41	-1346.91	    4.99
     85.7586	    8.00	    7.39	-1345.89	    4.99
     85.7921	   10.00	    7.40	-1343.90	    4.99
     85.8255	   10.00	    7.43	-1343.93	    4.99
     85.8589	    3.00	    7.47	-1350.97	    4.99
     85.8923	   11.00	    7.49	-1342.99	    4.99
     85.9258	    6.00	    7.45	-1347.95	    4.99
     85.9592	    7.00	    7.39	-1346.89	    4.99
     85.9926	    8.00	    7.35	-1345.85	    4.99
     86.0260	    9.00	    7.34	-1344.84	    4.99
     86.0594	   13.00	    7.36	-1340.86	    4.99
     86.0929	    6.00	    7.42	-1347.92	    4.99
     86.1263	    9.00	    7.50	-1345.00	    4.99
     86.1597	    5.00	    7.58	-1349.08	    4.99
     86.1931	   10.00	    7.67	-1344.17	    4.99
     86.2266	   16.00	    7.80	-1338.30	    4.99
     86.2600	   10.00	    8.08	-1344.58	    4.99
     86.2934	   10.00	    8.72	-1345.22	    4.99
     86.3268	   10.00	   10.19	-1346.69	    4.99
     86.3602	   11.00	   13.16	-1348.66	    4.99
     86.3937	   21.00	   17.88	-1343.38	    4.99
     86.4271	   30.00	   23.21	-1339.71	    4.99
     86.4605	   27.00	   25.89	-1345.39	    4.99
     86.4939	   32.00	   23.38	-1337.88	    4.99
     86.5274	   24.00	   18.23	-1340.73	    4.98
     86.5608	    7.00	   13.86	-1353.36	    4.98
     86.5942	    9.00	   11.66	-1349.16	    4.98
     86.6276	   13.00	   11.70	-1345.20	    4.98
     86.6610	    9.00	   13.43	-1350.93	    4.98
     86.6945	   10.00	   15.72	-1352.22	    4.98
     86.7279	   19.00	   16.69	-1344.19	    4.98
     86.7613	   23.00	   15.13	-1338.63	    4.98
     86.7947	   14.00	   12.35	-1344.85	    4.98
     86.8282	    8.00	    9.99	-1348.49	    4.98
     86.8616	    9.00	    8.52	-1346.02	    4.98
     86.8950	   14.00	    7.78	-1340.28	    4.98
     86.9284	   10.00	    7.44	-1343.94	    4.98
     86.9619	    6.00	    7.27	-1347.77	    4.98
     86.9953	    4.00	    7.16	-1349.66	    4.98
     87.0287	    7.00	    7.09	-1346.59	    4.98
     87.0621	    9.00	    7.01	-1344.51	    4.98
     87.0955	   15.00	    6.96	-1338.46	    4.98
     87.1290	    9.00	    6.93	-1344.43	    4.98
     87.1624	    8.00	    6.90	-1345.40	    4.98
     87.1958	    9.00	    6.88	-1344.38	    4.98
     87.2292	    6.00	    6.86	-1347.36	    4.98
     87.2627	   11.00	    6.84	-1342.34	    4.98
     87.2961	    5.00	    6.82	-1348.32	    4.98
     87.3295	   10.00	    6.81	-1343.31	    4.98
     87.3629	    8.00	    6.80	-1345.30	    4.98
     87.3963	    8.00	    6.79	-1345.29	    4.98
     87.4298	    7.00	    6.78	-1346.28	    4.98
     87.4632	    1.00	    6.77	-1352.27	    4.98
     87.4966	   14.00	    6.76	-1339.26	    4.98
     87.5300	    8.00	    6.76	-1345.26	    4.98
     87.5635	   11.00	    6.75	-1342.25	    4.98
     87.5969	    6.00	    6.75	-1347.25	    4.98
     87.6303	    7.00	    6.74	-1346.24	    4.98
     87.6637	   14.00	    6.74	-1339.24	    4.98
     87.6972	    6.00	    6.73	-1347.23	    4.98
     87.7306	    9.00	    6.73	-1344.23	    4.98
     87.7640	   13.00	    6.72	-1340.22	    4.98
     87.7974	    3.00	    6.72	-1350.22	    4.98
     87.8308	    5.00	    6.70	-1348.20	    4.98
     87.8643	    8.00	    6.69	-1345.19	    4.98
     87.8977	    3.00	    6.69	-1350.19	    4.98
     87.9311	    9.00	    6.69	-1344.19	    4.98
     87.9645	    7.00	    6.69	-1346.19	    4.98
     87.9979	    5.00	    6.69	-1348.19	    4.98
     88.0314	    4.00	    6.68	-1349.18	    4.98
     88.0648	    6.00	    6.68	-1347.18	    4.98
     88.0982	    7.00	    6.67	-1346.17	    4.98
     88.1316	   15.00	    6.67	-1338.17	    4.98
     88.1651	   10.00	    6.67	-1343.17	    4.98
     88.1985	   18.00	    6.67	-1335.17	    4.98
     88.2319	    1.00	    6.67	-1352.17	    4.98
     88.2653	    7.00	    6.67	-1346.17	    4.98
     88.2988	    8.00	    6.66	-1345.16	    4.98
     88.3322	   13.00	    6.66	-1340.16	    4.98
     88.3656	    4.00	    6.66	-1349.16	    4.98
     88.3990	    7.00	    6.66	-1346.16	    4.98
     88.4324	    6.00	    6.66	-1347.16	    4.98
     88.4659	    5.00	    6.66	-1348.16	    4.98
     88.4993	    6.00	    6.66	-1347.16	    4.98
     88.5327	    6.00	    6.66	-1347.16	    4.98
     88.5661	    7.00	    6.66	-1346.16	    4.98
     88.5996	   16.00	    6.66	-1337.16	    4.98
     88.6330	    2.00	    6.66	-1351.16	    4.98
     88.6664	    6.00	    6.66	-1347.16	    4.98
     88.6998	    5.00	    6.66	-1348.16	    4.98
     88.7332	    3.00	    6.66	-1350.16	    4.98
     88.7667	    7.00	    6.66	-1346.16	    4.98
     88.8001	    8.00	    6.66	-1345.16	    4.98
     88.8335	    5.00	    6.66	-1348.16	    4.98
     88.8669	    7.00	    6.66	-1346.16	    4.98
     88.9004	    5.00	    6.66	-1348.16	    4.98
     88.9338	    2.00	    6.66	-1351.16	    4.98
     88.9672	    8.00	    6.66	-1345.16	    4.98
     89.0006	    5.00	    6.66	-1348.16	    4.98
     89.0340	    9.00	    6.65	-1344.16	    4.98
     89.0675	    9.00	    6.65	-1344.15	    4.98
     89.1009	    7.00	    6.65	-1346.15	    4.98
     89.1343	    4.00	    6.65	-1349.15	    4.98
     89.1677	   10.00	    6.65	-1343.15	    4.98
     89.2012	   14.00	    6.65	-1339.15	    4.98
     89.2346	    8.00	    6.65	-1345.15	    4.98
     89.2680	    1.00	    6.65	-1352.15	    4.98
     89.3014	   14.00	    6.65	-1339.15	    4.98
     89.3349	    9.00	    6.65	-1344.15	    4.98
     89.3683	    7.00	    6.65	-1346.15	    4.98
     89.4017	   10.00	    6.65	-1343.15	    4.98
     89.4351	    9.00	    6.65	-1344.15	    4.98
     89.4685	   10.00	    6.65	-1343.15	    4.98
     89.5020	    7.00	    6.65	-1346.15	    4.98
     89.5354	    8.00	    6.65	-1345.15	    4.99
     89.5688	    4.00	    6.65	-1349.15	    4.99
     89.6022	    9.00	    6.65	-1344.15	    4.99
     89.6357	   13.00	    6.65	-1340.15	    4.99
     89.6691	    7.00	    6.65	-1346.15	    4.99
     89.7025	    6.00	    6.65	-1347.15	    4.99
     89.7359	    8.00	    6.65	-1345.15	    4.99
     89.7693	   11.00	    6.65	-1342.15	    4.99
     89.8028	    5.00	    6.65	-1348.15	    4.99
     89.8362	    8.00	    6.65	-1345.15	    4.99
     89.8696	    6.00	    6.66	-1347.16	    4.99
     89.9030	    6.00	    6.66	-1347.16	    4.99
     89.9365	    7.00	    6.66	-1346.16	    4.99
     89.9699	   11.00	    6.66	-1342.16	    4.99
     90.0033	    9.00	    6.66	-1344.16	    4.99
     90.0367	    5.00	    6.66	-1348.16	    4.99
     90.0701	    6.00	    6.66	-1347.16	    4.99
     90.1036	   10.00	    6.66	-1343.16	    4.99
     90.1370	    8.00	    6.66	-1345.16	    4.99
     90.1704	    7.00	    6.66	-1346.16	    4.99
     90.2038	    6.00	    6.66	-1347.16	    4.99
     90.2373	    5.00	    6.67	-1348.17	    4.99
     90.2707	    8.00	    6.67	-1345.17	    4.99
     90.3041	    6.00	    6.67	-1347.17	    4.99
     90.3375	    9.00	    6.67	-1344.17	    4.99
     90.3709	    5.00	    6.67	-1348.17	    4.99
     90.4044	    2.00	    6.67	-1351.17	    4.99
     90.4378	    6.00	    6.67	-1347.17	    4.99
     90.4712	    5.00	    6.67	-1348.17	    4.99
     90.5046	    4.00	    6.67	-1349.17	    4.99
     90.5381	    9.00	    6.67	-1344.17	    4.99
     90.5715	    8.00	    6.67	-1345.17	    4.99
     90.6049	   10.00	    6.67	-1343.17	    4.99
     90.6383	   13.00	    6.67	-1340.17	    4.99
     90.6718	    7.00	    6.67	-1346.17	    4.99
     90.7052	    7.00	    6.68	-1346.18	    4.99
     90.7386	    7.00	    6.68	-1346.18	    4.99
     90.7720	    5.00	    6.68	-1348.18	    4.99
     90.8054	   11.00	    6.68	-1342.18	    4.99
     90.8389	   11.00	    6.68	-1342.18	    4.99
     90.8723	    5.00	    6.68	-1348.18	    4.99
     90.9057	    8.00	    6.68	-1345.18	    4.99
     90.9391	    9.00	    6.68	-1344.18	    4.99
     90.9726	    5.00	    6.68	-1348.18	    4.99
     91.0060	    8.00	    6.69	-1345.19	    4.99
     91.0394	   10.00	    6.69	-1343.19	    4.99
     91.0728	    9.00	    6.69	-1344.19	    4.99
     91.1062	    1.00	    6.69	-1352.19	    4.99
     91.1397	    8.00	    6.69	-1345.19	    4.99
     91.1731	   11.00	    6.70	-1342.20	    4.99
     91.2065	   10.00	    6.70	-1343.20	    5.00
     91.2399	    8.00	    6.70	-1345.20	    5.00
     91.2734	    4.00	    6.71	-1349.21	    5.00
     91.3068	    7.00	    6.71	-1346.21	    5.00
     91.3402	   11.00	    6.72	-1342.22	    5.00
     91.3736	    8.00	    6.74	-1345.24	    5.00
     91.4071	   11.00	    6.78	-1342.28	    5.00
     91.4405	    7.00	    6.83	-1346.33	    5.00
     91.4739	   10.00	    6.90	-1343.40	    5.00
     91.5073	    5.00	    6.91	-1348.41	    5.00
     91.5407	   10.00	    6.88	-1343.38	    5.00
     91.5742	   11.00	    6.84	-1342.34	    5.00
     91.6076	    7.00	    6.81	-1346.31	    5.00
     91.6410	    9.00	    6.80	-1344.30	    5.00
     91.6744	    9.00	    6.81	-1344.31	    5.00
     91.7079	   10.00	    6.84	-1343.34	    5.00
     91.7413	   10.00	    6.88	-1343.38	    5.00
     91.7747	    9.00	    6.98	-1344.48	    5.00
     91.8081	    3.00	    7.06	-1350.56	    5.00
     91.8415	   15.00	    7.16	-1338.66	    5.00
     91.8750	   13.00	    7.28	-1340.78	    5.00
     91.9084	    9.00	    7.35	-1344.85	    5.00
     91.9418	    6.00	    7.30	-1347.80	    5.00
     91.9752	   10.00	    7.18	-1343.68	    5.00
     92.0087	    7.00	    7.06	-1346.56	    5.00
     92.0421	    8.00	    7.00	-1345.50	    5.00
     92.0755	    7.00	    7.00	-1346.50	    5.00
     92.1089	    6.00	    7.03	-1347.53	    5.00
     92.1423	    9.00	    7.09	-1344.59	    5.00
     92.1758	   15.00	    7.16	-1338.66	    5.00
     92.2092	   10.00	    7.20	-1343.70	    5.00
     92.2426	    7.00	    7.17	-1346.67	    5.01
     92.2760	   14.00	    7.12	-1339.62	    5.01
     92.3095	    9.00	    7.08	-1344.58	    5.01
     92.3429	    9.00	    7.06	-1344.56	    5.01
     92.3763	   10.00	    7.06	-1343.56	    5.01
     92.4097	   14.00	    7.08	-1339.58	    5.01
     92.4431	    7.00	    7.10	-1346.60	    5.01
     92.4766	   14.00	    7.14	-1339.64	    5.01
     92.5100	    9.00	    7.18	-1344.68	    5.01
     92.5434	    6.00	    7.22	-1347.72	    5.01
     92.5768	   11.00	    7.28	-1342.78	    5.01
     92.6103	    7.00	    7.35	-1346.85	    5.01
     92.6437	   14.00	    7.43	-1339.93	    5.01
     92.6771	    6.00	    7.53	-1348.03	    5.01
     92.7105	   11.00	    7.66	-1343.16	    5.01
     92.7439	   14.00	    7.83	-1340.33	    5.01
     92.7774	   13.00	    8.06	-1341.56	    5.01
     92.8108	    6.00	    8.41	-1348.91	    5.01
     92.8442	    9.00	    9.02	-1346.52	    5.01
     92.8776	   11.00	   10.29	-1345.79	    5.01
     92.9111	   16.00	   12.95	-1343.45	    5.01
     92.9445	   19.00	   17.98	-1345.48	    5.01
     92.9779	   30.00	   25.68	-1342.18	    5.01
     93.0113	   43.00	   34.36	-1337.86	    5.01
     93.0448	   42.00	   39.21	-1343.71	    5.01
     93.0782	   40.00	   35.97	-1342.47	    5.02
     93.1116	   26.00	   27.82	-1348.32	    5.02
     93.1450	   30.00	   20.09	-1336.59	    5.02
     93.1784	   16.00	   15.26	-1345.76	    5.02
     93.2119	    9.00	   13.68	-1351.18	    5.02
     93.2453	   15.00	   14.89	-1346.39	    5.02
     93.2787	   16.00	   18.16	-1348.66	    5.02
     93.3121	   26.00	   22.03	-1342.53	    5.02
     93.3456	   24.00	   23.83	-1346.33	    5.02
     93.3790	   28.00	   21.64	-1340.14	    5.02
     93.4124	   29.00	   17.32	-1334.82	    5.02
     93.4458	   14.00	   13.34	-1345.84	    5.02
     93.4792	   17.00	   10.67	-1340.17	    5.02
     93.5127	   10.00	    9.23	-1345.73	    5.02
     93.5461	    6.00	    8.55	-1349.05	    5.02
     93.5795	   10.00	    8.22	-1344.72	    5.02
     93.6129	   15.00	    8.05	-1339.55	    5.02
     93.6464	   13.00	    7.94	-1341.44	    5.02
     93.6798	    8.00	    7.87	-1346.37	    5.02
     93.7132	    8.00	    7.82	-1346.32	    5.02
     93.7466	   11.00	    7.80	-1343.30	    5.02
     93.7801	    8.00	    7.79	-1346.29	    5.02
     93.8135	    9.00	    7.79	-1345.29	    5.03
     93.8469	   11.00	    7.81	-1343.31	    5.03
     93.8803	   10.00	    7.83	-1344.33	    5.03
     93.9137	   13.00	    7.87	-1341.37	    5.03
     93.9472	    8.00	    7.91	-1346.41	    5.03
     93.9806	    9.00	    7.97	-1345.47	    5.03
     94.0140	    8.00	    8.04	-1346.54	    5.03
     94.0474	   10.00	    8.12	-1344.62	    5.03
     94.0808	   13.00	    8.21	-1341.71	    5.03
     94.1143	   10.00	    8.33	-1344.83	    5.03
     94.1477	   14.00	    8.46	-1340.96	    5.03
     94.1811	   14.00	    8.61	-1341.11	    5.03
     94.2145	   11.00	    8.80	-1344.30	    5.03
     94.2480	   13.00	    9.02	-1342.52	    5.03
     94.2814	   10.00	    9.29	-1345.79	    5.03
     94.3148	   10.00	    9.61	-1346.11	    5.03
     94.3482	   13.00	   10.01	-1343.51	    5.03
     94.3817	   11.00	   10.52	-1346.02	    5.03
     94.4151	    5.00	   11.17	-1352.67	    5.03
     94.4485	   21.00	   12.05	-1337.55	    5.04
     94.4819	    8.00	   13.34	-1351.84	    5.04
     94.5153	   18.00	   15.57	-1344.07	    5.04
     94.5488	   23.00	   20.02	-1343.52	    5.04
     94.5822	   34.00	   29.16	-1341.66	    5.04
     94.6156	   37.00	   45.90	-1355.40	    5.04
     94.6490	   77.00	   70.94	-1340.44	    5.04
     94.6825	  117.00	   98.64	-1328.14	    5.04
     94.7159	  112.00	  113.95	-1348.45	    5.04
     94.7493	  108.00	  104.25	-1342.75	    5.04
     94.7827	   74.00	   80.14	-1352.64	    5.04
     94.8161	   55.00	   58.88	-1350.38	    5.04
     94.8496	   48.00	   50.07	-1348.57	    5.04
     94.8830	   65.00	   57.98	-1339.48	    5.04
     94.9164	  103.00	   83.75	-1327.25	    5.04
     94.9498	  142.00	  123.31	-1327.81	    5.04
     94.9833	  157.00	  161.64	-1351.14	    5.04
     95.0167	  190.00	  172.43	-1328.93	    5.05
     95.0501	  164.00	  145.78	-1328.28	    5.05
     95.0835	  131.00	  103.31	-1318.81	    5.05
     95.1170	   67.00	   66.98	-1346.48	    5.05
     95.1504	   47.00	   45.24	-1344.74	    5.05
     95.1838	   37.00	   37.97	-1347.47	    5.05
     95.2172	   31.00	   42.06	-1357.56	    5.05
     95.2506	   45.00	   53.51	-1355.01	    5.05
     95.2841	   70.00	   65.85	-1342.35	    5.05
     95.3175	   77.00	   69.04	-1338.54	    5.05
     95.3509	   62.00	   58.75	-1343.25	    5.05
     95.3843	   46.00	   42.91	-1343.41	    5.05
     95.4178	   35.00	   29.23	-1340.73	    5.05
     95.4512	   24.00	   20.30	-1342.80	    5.05
     95.4846	   13.00	   15.48	-1348.98	    5.05
     95.5180	   20.00	   13.13	-1339.63	    5.05
     95.5514	   14.00	   11.97	-1344.47	    5.06
     95.5849	   13.00	   11.34	-1344.84	    5.06
     95.6183	   11.00	   10.95	-1346.45	    5.06
     95.6517	    8.00	   10.64	-1349.14	    5.06
     95.6851	   13.00	   10.37	-1343.87	    5.06
     95.7186	   11.00	   10.15	-1345.65	    5.06
     95.7520	    7.00	   10.04	-1349.54	    5.06
     95.7854	    8.00	   10.06	-1348.56	    5.06
     95.8188	   16.00	   10.17	-1340.67	    5.06
     95.8522	   18.00	   10.41	-1338.91	    5.06
     95.8857	   19.00	   10.83	-1338.33	    5.06
     95.9191	   15.00	   11.59	-1343.09	    5.06
     95.9525	   11.00	   13.12	-1348.62	    5.06
     95.9859	   17.00	   16.39	-1345.89	    5.06
     96.0194	   22.00	   22.99	-1347.49	    5.06
     96.0528	   45.00	   34.43	-1335.93	    5.07
     96.0862	   55.00	   50.34	-1341.84	    5.07
     96.1196	   58.00	   66.03	-1354.53	    5.07
     96.1531	   66.00	   72.17	-1352.67	    5.07
     96.1865	   57.00	   64.55	-1354.05	    5.07
     96.2199	   43.00	   49.37	-1352.87	    5.07
     96.2533	   28.00	   34.70	-1353.20	    5.07
     96.2867	   17.00	   25.03	-1354.53	    5.07
     96.3202	   28.00	   21.25	-1339.75	    5.07
     96.3536	   26.00	   22.73	-1343.23	    5.07
     96.3870	   32.00	   28.30	-1342.80	    5.07
     96.4204	   41.00	   35.72	-1341.22	    5.07
     96.4538	   43.00	   40.62	-1344.12	    5.07
     96.4873	   32.00	   38.96	-1353.46	    5.07
     96.5207	   36.00	   32.00	-1342.50	    5.08
     96.5541	   21.00	   23.79	-1349.29	    5.08
     96.5875	   15.00	   17.23	-1348.73	    5.08
     96.6210	   11.00	   13.10	-1348.60	    5.08
     96.6544	   14.00	   10.86	-1343.36	    5.08
     96.6878	   14.00	    9.73	-1342.23	    5.08
     96.7212	   13.00	    9.12	-1342.62	    5.08
     96.7547	    7.00	    8.75	-1348.25	    5.08
     96.7881	    9.00	    8.49	-1345.99	    5.08
     96.8215	    8.00	    8.29	-1346.79	    5.08
     96.8549	   11.00	    8.13	-1343.63	    5.08
     96.8883	    6.00	    8.01	-1348.51	    5.08
     96.9218	    9.00	    7.91	-1345.41	    5.08
     96.9552	    8.00	    7.83	-1346.33	    5.09
     96.9886	    9.00	    7.76	-1345.26	    5.09
     97.0220	    9.00	    7.71	-1345.21	    5.09
     97.0555	    7.00	    7.66	-1347.16	    5.09
     97.0889	    8.00	    7.63	-1346.13	    5.09
     97.1223	    7.00	    7.60	-1347.10	    5.09
     97.1557	   10.00	    7.58	-1344.08	    5.09
     97.1891	   15.00	    7.57	-1339.07	    5.09
     97.2226	    5.00	    7.56	-1349.06	    5.09
     97.2560	    5.00	    7.57	-1349.07	    5.09
     97.2894	    7.00	    7.58	-1347.08	    5.09
     97.3228	    9.00	    7.60	-1345.10	    5.09
     97.3563	    4.00	    7.64	-1350.14	    5.09
     97.3897	   15.00	    7.70	-1339.20	    5.10
     97.4231	    6.00	    7.78	-1348.28	    5.10
     97.4565	   14.00	    7.93	-1340.43	    5.10
     97.4900	    9.00	    8.22	-1345.72	    5.10
     97.5234	    9.00	    8.82	-1346.32	    5.10
     97.5568	   11.00	   10.03	-1345.53	    5.10
     97.5902	   17.00	   12.12	-1341.62	    5.10
     97.6236	   18.00	   15.04	-1343.54	    5.10
     97.6571	   31.00	   17.92	-1333.42	    5.10
     97.6905	   29.00	   18.99	-1336.49	    5.10
     97.7239	   16.00	   17.31	-1347.81	    5.10
     97.7573	   20.00	   14.35	-1340.85	    5.10
     97.7908	   11.00	   11.72	-1347.22	    5.11
     97.8242	   15.00	   10.08	-1341.58	    5.11
     97.8576	    5.00	    9.46	-1350.96	    5.11
     97.8910	    5.00	    9.72	-1351.22	    5.11
     97.9244	   10.00	   10.68	-1347.18	    5.11
     97.9579	    9.00	   12.07	-1349.57	    5.11
     97.9913	   10.00	   13.19	-1349.69	    5.11
     98.0247	   13.00	   13.18	-1346.68	    5.11
     98.0581	   20.00	   11.96	-1338.46	    5.11
     98.0916	   13.00	   10.43	-1343.93	    5.11
     98.1250	    8.00	    9.21	-1347.71	    5.11
     98.1584	   11.00	    8.44	-1343.94	    5.11
     98.1918	   11.00	    8.05	-1343.55	    5.12
     98.2253	    8.00	    7.87	-1346.37	    5.12
     98.2587	    8.00	    7.77	-1346.27	    5.12
     98.2921	    6.00	    7.72	-1348.22	    5.12
     98.3255	   10.00	    7.72	-1344.22	    5.12
     98.3589	   16.00	    7.73	-1338.23	    5.12
     98.3924	   11.00	    7.76	-1343.26	    5.12
     98.4258	    9.00	    7.80	-1345.30	    5.12
     98.4592	    7.00	    7.85	-1347.35	    5.12
     98.4926	    5.00	    7.91	-1349.41	    5.12
     98.5260	   14.00	    7.99	-1340.49	    5.12
     98.5595	    8.00	    8.09	-1346.59	    5.13
     98.5929	   14.00	    8.20	-1340.70	    5.13
     98.6263	    9.00	    8.34	-1345.84	    5.13
     98.6597	   15.00	    8.52	-1340.02	    5.13
     98.6932	   10.00	    8.73	-1345.23	    5.13
     98.7266	   15.00	    9.00	-1340.50	    5.13
     98.7600	    9.00	    9.34	-1346.84	    5.13
     98.7934	    6.00	    9.76	-1350.26	    5.13
     98.8269	   11.00	   10.32	-1345.82	    5.13
     98.8603	   13.00	   11.07	-1344.57	    5.13
     98.8937	   19.00	   12.16	-1339.66	    5.14
     98.9271	    7.00	   14.01	-1353.51	    5.14
     98.9605	   23.00	   17.61	-1341.11	    5.14
     98.9940	   26.00	   25.01	-1345.51	    5.14
     99.0274	   44.00	   39.00	-1341.50	    5.14
     99.0608	   54.00	   61.37	-1353.87	    5.14
     99.0942	  104.00	   89.53	-1332.03	    5.14
     99.1277	  101.00	  112.71	-1358.21	    5.14
     99.1611	  108.00	  114.36	-1352.86	    5.14
     99.1945	   98.00	   93.24	-1341.74	    5.14
     99.2279	   83.00	   65.64	-1329.14	    5.15
     99.2613	   46.00	   43.52	-1344.02	    5.15
     99.2948	   28.00	   30.72	-1349.22	    5.15
     99.3282	   20.00	   26.77	-1353.27	    5.15
     99.3616	   34.00	   30.26	-1342.76	    5.15
     99.3950	   33.00	   39.80	-1353.30	    5.15
     99.4285	   54.00	   52.67	-1345.17	    5.15
     99.4619	   66.00	   62.70	-1343.20	    5.15
     99.4953	   81.00	   61.64	-1327.14	    5.15
     99.5287	   53.00	   49.91	-1343.41	    5.15
     99.5621	   32.00	   35.66	-1350.16	    5.16
     99.5956	   26.00	   24.27	-1344.77	    5.16
     99.6290	   20.00	   17.07	-1343.57	    5.16
     99.6624	   13.00	   13.20	-1346.70	    5.16
     99.6958	   11.00	   11.27	-1346.77	    5.16
     99.7293	   11.00	   10.24	-1345.74	    5.16
     99.7627	   13.00	    9.61	-1343.11	    5.16
     99.7961	    4.00	    9.17	-1351.67	    5.16
     99.8295	   11.00	    8.84	-1344.34	    5.16
     99.8630	    7.00	    8.57	-1348.07	    5.16
     99.8964	    8.00	    8.36	-1346.86	    5.17
     99.9298	    8.00	    8.19	-1346.69	    5.17
     99.9632	   13.00	    8.05	-1341.55	    5.17
     99.9966	    9.00	    7.93	-1345.43	    5.17
    100.0301	   10.00	    7.83	-1344.33	    5.17
    100.0635	    4.00	    7.75	-1350.25	    5.17
    100.0969	    5.00	    7.68	-1349.18	    5.17
    100.1303	   11.00	    7.61	-1343.11	    5.17
    100.1638	    9.00	    7.56	-1345.06	    5.17
    100.1972	   10.00	    7.51	-1344.01	    5.18
    100.2306	   13.00	    7.46	-1340.96	    5.18
    100.2640	    9.00	    7.43	-1344.93	    5.18
    100.2974	    9.00	    7.39	-1344.89	    5.18
    100.3309	    7.00	    7.36	-1346.86	    5.18
    100.3643	    8.00	    7.34	-1345.84	    5.18
    100.3977	   11.00	    7.31	-1342.81	    5.18
    100.4311	    8.00	    7.29	-1345.79	    5.18
    100.4646	    9.00	    7.27	-1344.77	    5.18
    100.4980	   14.00	    7.25	-1339.76	    5.19
    100.5314	   14.00	    7.24	-1339.74	    5.19
    100.5648	   11.00	    7.23	-1342.73	    5.19
    100.5982	    3.00	    7.23	-1350.73	    5.19
    100.6317	    4.00	    7.21	-1349.71	    5.19
    100.6651	    7.00	    7.20	-1346.70	    5.19
    100.6985	   10.00	    7.20	-1343.70	    5.19
    100.7319	   10.00	    7.19	-1343.69	    5.19
    100.7654	   13.00	    7.18	-1340.68	    5.19
    100.7988	    6.00	    7.18	-1347.68	    5.20
    100.8322	    9.00	    7.17	-1344.67	    5.20
    100.8656	    8.00	    7.17	-1345.67	    5.20
    100.8990	    5.00	    7.16	-1348.66	    5.20
    100.9325	    7.00	    7.17	-1346.67	    5.20
    100.9659	   10.00	    7.16	-1343.66	    5.20
    100.9993	   10.00	    7.16	-1343.66	    5.20
    101.0327	    6.00	    7.16	-1347.66	    5.20
    101.0662	   13.00	    7.16	-1340.66	    5.20
    101.0996	   13.00	    7.16	-1340.66	    5.21
    101.1330	   13.00	    7.16	-1340.66	    5.21
    101.1664	    8.00	    7.16	-1345.66	    5.21
    101.1999	    6.00	    7.16	-1347.66	    5.21
    101.2333	   10.00	    7.17	-1343.67	    5.21
    101.2667	    5.00	    7.17	-1348.67	    5.21
    101.3001	   10.00	    7.18	-1343.68	    5.21
    101.3335	   13.00	    7.18	-1340.68	    5.21
    101.3670	   11.00	    7.19	-1342.69	    5.22
    101.4004	   11.00	    7.20	-1342.70	    5.22
    101.4338	    9.00	    7.20	-1344.70	    5.22
    101.4672	    4.00	    7.21	-1349.71	    5.22
    101.5007	   10.00	    7.23	-1343.73	    5.22
    101.5341	    8.00	    7.24	-1345.74	    5.22
    101.5675	    9.00	    7.25	-1344.75	    5.22
    101.6009	   11.00	    7.27	-1342.77	    5.22
    101.6343	   15.00	    7.29	-1338.79	    5.23
    101.6678	    8.00	    7.31	-1345.81	    5.23
    101.7012	    8.00	    7.34	-1345.84	    5.23
    101.7346	   14.00	    7.37	-1339.87	    5.23
    101.7680	    8.00	    7.40	-1345.90	    5.23
    101.8015	    5.00	    7.44	-1348.94	    5.23
    101.8349	    7.00	    7.49	-1346.99	    5.23
    101.8683	   10.00	    7.55	-1344.05	    5.23
    101.9017	   11.00	    7.63	-1343.13	    5.24
    101.9352	   10.00	    7.74	-1344.24	    5.24
    101.9686	   14.00	    7.88	-1340.38	    5.24
    102.0020	   10.00	    8.12	-1344.62	    5.24
    102.0354	   10.00	    8.57	-1345.07	    5.24
    102.0688	   16.00	    9.46	-1339.96	    5.24
    102.1023	    8.00	   11.06	-1349.56	    5.24
    102.1357	   14.00	   13.53	-1346.03	    5.24
    102.1691	   24.00	   16.59	-1339.09	    5.25
    102.2025	   28.00	   19.09	-1337.59	    5.25
    102.2360	   21.00	   19.36	-1344.86	    5.25
    102.2694	   11.00	   17.20	-1352.70	    5.25
    102.3028	   15.00	   14.28	-1345.78	    5.25
    102.3362	   18.00	   11.87	-1340.37	    5.25
    102.3696	   14.00	   10.41	-1342.91	    5.25
    102.4031	    7.00	    9.86	-1349.36	    5.25
    102.4365	   11.00	   10.08	-1345.58	    5.26
    102.4699	    7.00	   10.97	-1350.47	    5.26
    102.5033	   20.00	   12.37	-1338.87	    5.26
    102.5368	   11.00	   13.88	-1349.38	    5.26
    102.5702	   14.00	   14.73	-1347.23	    5.26
    102.6036	   16.00	   14.32	-1344.82	    5.26
    102.6370	   17.00	   13.20	-1342.70	    5.26
    102.6704	   16.00	   12.22	-1342.72	    5.27
    102.7039	   13.00	   11.89	-1345.39	    5.27
    102.7373	   22.00	   12.62	-1337.12	    5.27
    102.7707	   21.00	   15.00	-1340.50	    5.27
    102.8041	   19.00	   20.01	-1347.51	    5.27
    102.8376	   21.00	   28.59	-1354.09	    5.27
    102.8710	   49.00	   40.46	-1337.96	    5.27
    102.9044	   61.00	   52.66	-1338.16	    5.28
    102.9378	   55.00	   58.57	-1350.07	    5.28
    102.9712	   45.00	   53.40	-1354.90	    5.28
    103.0047	   39.00	   41.59	-1349.09	    5.28
    103.0381	   32.00	   29.89	-1344.39	    5.28
    103.0715	   24.00	   21.57	-1344.07	    5.28
    103.1049	   20.00	   17.19	-1343.69	    5.28
    103.1384	   18.00	   16.23	-1344.73	    5.29
    103.1718	   18.00	   18.13	-1346.63	    5.29
    103.2052	   26.00	   22.49	-1342.99	    5.29
    103.2386	   26.00	   28.38	-1348.88	    5.29
    103.2720	   34.00	   33.47	-1345.97	    5.29
    103.3055	   39.00	   34.26	-1341.76	    5.29
    103.3389	   22.00	   30.21	-1354.71	    5.29
    103.3723	   29.00	   24.81	-1342.31	    5.30
    103.4057	   19.00	   21.05	-1348.55	    5.30
    103.4392	   20.00	   19.94	-1346.44	    5.30
    103.4726	   16.00	   20.91	-1351.41	    5.30
    103.5060	   27.00	   22.14	-1341.64	    5.30
    103.5394	   28.00	   21.47	-1339.97	    5.30
    103.5729	   29.00	   18.77	-1336.27	    5.30
    103.6063	   18.00	   15.60	-1344.10	    5.31
    103.6397	   23.00	   13.09	-1336.59	    5.31
    103.6731	   15.00	   11.59	-1343.09	    5.31
    103.7065	   18.00	   11.02	-1339.52	    5.31
    103.7400	   16.00	   11.24	-1341.74	    5.31
    103.7734	   14.00	   12.16	-1344.66	    5.31
    103.8068	   15.00	   13.67	-1345.17	    5.31
    103.8402	    8.00	   15.48	-1353.98	    5.32
    103.8737	   21.00	   16.95	-1342.45	    5.32
    103.9071	   14.00	   17.75	-1350.25	    5.32
    103.9405	   24.00	   18.96	-1341.46	    5.32
    103.9739	   29.00	   22.39	-1339.89	    5.32
    104.0073	   28.00	   29.26	-1347.76	    5.32
    104.0408	   34.00	   39.17	-1351.67	    5.32
    104.0742	   32.00	   49.05	-1363.55	    5.33
    104.1076	   44.00	   52.86	-1355.36	    5.33
    104.1410	   45.00	   47.23	-1348.73	    5.33
    104.1745	   33.00	   36.63	-1350.13	    5.33
    104.2079	   30.00	   26.56	-1343.06	    5.33
    104.2413	   21.00	   19.51	-1345.01	    5.33
    104.2747	   10.00	   15.81	-1352.31	    5.34
    104.3082	   18.00	   14.96	-1343.46	    5.34
    104.3416	   22.00	   16.49	-1340.99	    5.34
    104.3750	   20.00	   20.11	-1346.61	    5.34
    104.4084	   22.00	   25.10	-1349.60	    5.34
    104.4418	   22.00	   29.58	-1354.08	    5.34
    104.4753	   29.00	   30.52	-1348.02	    5.34
    104.5087	   23.00	   26.91	-1350.41	    5.35
    104.5421	   18.00	   21.36	-1349.86	    5.35
    104.5755	   20.00	   16.35	-1342.85	    5.35
    104.6089	   16.00	   12.84	-1343.34	    5.35
    104.6424	    9.00	   10.78	-1348.28	    5.35
    104.6758	   19.00	    9.69	-1337.19	    5.35
    104.7092	   10.00	    9.12	-1345.62	    5.36
    104.7426	   11.00	    8.80	-1344.30	    5.36
    104.7761	    9.00	    8.59	-1346.09	    5.36
    104.8095	   13.00	    8.45	-1341.95	    5.36
    104.8429	    9.00	    8.34	-1345.84	    5.36
    104.8763	    8.00	    8.25	-1346.75	    5.36
    104.9098	   15.00	    8.19	-1339.69	    5.37
    104.9432	   15.00	    8.15	-1339.65	    5.37
    104.9766	    9.00	    8.12	-1345.62	    5.37
    105.0100	   15.00	    8.10	-1339.60	    5.37
    105.0434	   11.00	    8.09	-1343.59	    5.37
    105.0769	    6.00	    8.09	-1348.59	    5.37
    105.1103	    7.00	    8.10	-1347.60	    5.38
    105.1437	   15.00	    8.12	-1339.62	    5.38
    105.1771	    7.00	    8.15	-1347.65	    5.38
    105.2106	    4.00	    8.18	-1350.68	    5.38
    105.2440	    4.00	    8.23	-1350.73	    5.38
    105.2774	    9.00	    8.30	-1345.80	    5.38
    105.3108	   10.00	    8.37	-1344.87	    5.39
    105.3442	   10.00	    8.46	-1344.96	    5.39
    105.3777	    6.00	    8.58	-1349.08	    5.39
    105.4111	   15.00	    8.71	-1340.21	    5.39
    105.4445	   13.00	    8.89	-1342.39	    5.39
    105.4779	   10.00	    9.10	-1345.60	    5.39
    105.5114	   10.00	    9.37	-1345.87	    5.40
    105.5448	   10.00	    9.73	-1346.23	    5.40
    105.5782	   13.00	   10.25	-1343.75	    5.40
    105.6116	   19.00	   11.10	-1338.60	    5.40
    105.6451	    9.00	   12.65	-1350.15	    5.40
    105.6785	   26.00	   15.53	-1336.03	    5.40
    105.7119	   34.00	   20.44	-1332.94	    5.41
    105.7453	   23.00	   27.66	-1351.16	    5.41
    105.7787	   37.00	   36.20	-1345.70	    5.41
    105.8122	   49.00	   42.99	-1340.49	    5.41
    105.8456	   47.00	   43.80	-1343.30	    5.41
    105.8790	   41.00	   38.76	-1344.26	    5.41
    105.9124	   33.00	   32.57	-1346.07	    5.42
    105.9459	   24.00	   29.36	-1351.86	    5.42
    105.9793	   20.00	   31.69	-1358.19	    5.42
    106.0127	   45.00	   40.95	-1342.45	    5.42
    106.0461	   45.00	   56.90	-1358.40	    5.42
    106.0795	   79.00	   76.33	-1343.83	    5.43
    106.1130	   96.00	   91.24	-1341.74	    5.43
    106.1464	  114.00	   92.40	-1324.90	    5.43
    106.1798	   72.00	   80.71	-1355.21	    5.43
    106.2132	   75.00	   63.64	-1335.14	    5.43
    106.2467	   61.00	   46.76	-1332.26	    5.43
    106.2801	   40.00	   33.87	-1340.37	    5.44
    106.3135	   27.00	   26.30	-1345.80	    5.44
    106.3469	   31.00	   23.82	-1339.32	    5.44
    106.3803	   24.00	   25.88	-1348.38	    5.44
    106.4138	   27.00	   31.73	-1351.23	    5.44
    106.4472	   36.00	   39.67	-1350.17	    5.45
    106.4806	   59.00	   46.08	-1333.58	    5.45
    106.5140	   44.00	   46.11	-1348.61	    5.45
    106.5475	   43.00	   39.26	-1342.76	    5.45
    106.5809	   40.00	   30.04	-1336.54	    5.45
    106.6143	   28.00	   22.04	-1340.54	    5.45
    106.6477	   26.00	   16.50	-1337.00	    5.46
    106.6812	   16.00	   13.24	-1343.74	    5.46
    106.7146	   15.00	   11.48	-1342.98	    5.46
    106.7480	   16.00	   10.55	-1341.05	    5.46
    106.7814	   11.00	   10.01	-1345.51	    5.46
    106.8148	   10.00	    9.65	-1346.15	    5.47
    106.8483	   13.00	    9.41	-1342.91	    5.47
    106.8817	   13.00	    9.23	-1342.73	    5.47
    106.9151	    9.00	    9.11	-1346.61	    5.47
    106.9485	    8.00	    9.04	-1347.54	    5.47
    106.9819	    7.00	    9.02	-1348.52	    5.48
    107.0154	    9.00	    9.06	-1346.56	    5.48
    107.0488	    7.00	    9.18	-1348.68	    5.48
    107.0822	    9.00	    9.46	-1346.96	    5.48
    107.1156	   13.00	   10.05	-1343.55	    5.48
    107.1491	   15.00	   11.25	-1342.75	    5.48
    107.1825	   21.00	   13.41	-1338.91	    5.49
    107.2159	   20.00	   16.72	-1343.22	    5.49
    107.2493	   33.00	   20.82	-1334.32	    5.49
    107.2828	   41.00	   24.39	-1329.89	    5.49
    107.3162	   34.00	   25.26	-1337.76	    5.49
    107.3496	   32.00	   22.72	-1337.22	    5.50
    107.3830	   28.00	   18.67	-1337.17	    5.50
    107.4164	   28.00	   14.95	-1333.45	    5.50
    107.4499	   18.00	   12.35	-1340.85	    5.50
    107.4833	   11.00	   10.94	-1346.44	    5.50
    107.5167	    9.00	   10.52	-1348.02	    5.51
    107.5501	    9.00	   10.93	-1348.43	    5.51
    107.5836	   16.00	   12.09	-1342.59	    5.51
    107.6170	   21.00	   13.86	-1339.36	    5.51
    107.6504	   22.00	   15.80	-1340.30	    5.51
    107.6838	   29.00	   16.96	-1334.46	    5.52
    107.7172	   29.00	   16.45	-1333.95	    5.52
    107.7507	   19.00	   14.68	-1342.18	    5.52
    107.7841	   17.00	   12.76	-1342.26	    5.52
    107.8175	   17.00	   11.39	-1340.89	    5.52
    107.8509	   11.00	   10.86	-1346.36	    5.53
    107.8844	   18.00	   11.26	-1339.76	    5.53
    107.9178	   17.00	   12.60	-1342.10	    5.53
    107.9512	   18.00	   14.70	-1343.20	    5.53
    107.9846	   22.00	   16.97	-1341.47	    5.53
    108.0181	   23.00	   18.25	-1341.75	    5.54
    108.0515	   17.00	   17.55	-1347.05	    5.54
    108.0849	   18.00	   15.38	-1343.88	    5.54
    108.1183	   14.00	   12.99	-1345.49	    5.54
    108.1517	   17.00	   11.12	-1340.62	    5.55
    108.1852	    7.00	    9.96	-1349.46	    5.55
    108.2186	   13.00	    9.42	-1342.92	    5.55
    108.2520	    7.00	    9.40	-1348.90	    5.55
    108.2854	   10.00	    9.83	-1346.33	    5.55
    108.3189	   10.00	   10.67	-1347.17	    5.56
    108.3523	    9.00	   11.78	-1349.28	    5.56
    108.3857	   19.00	   12.80	-1340.30	    5.56
    108.4191	   14.00	   13.09	-1345.59	    5.56
    108.4525	   10.00	   12.40	-1348.90	    5.56
    108.4860	    7.00	   11.22	-1350.72	    5.57
    108.5194	   18.00	   10.11	-1338.61	    5.57
    108.5528	   18.00	    9.31	-1337.81	    5.57
    108.5862	   19.00	    8.85	-1336.35	    5.57
    108.6197	    6.00	    8.62	-1349.12	    5.57
    108.6531	   11.00	    8.51	-1344.01	    5.58
    108.6865	   11.00	    8.44	-1343.94	    5.58
    108.7199	   11.00	    8.38	-1343.88	    5.58
    108.7533	   15.00	    8.32	-1339.82	    5.58
    108.7868	   15.00	    8.29	-1339.79	    5.59
    108.8202	   13.00	    8.29	-1341.79	    5.59
    108.8536	    4.00	    8.31	-1350.81	    5.59
    108.8870	    9.00	    8.35	-1345.85	    5.59
    108.9205	   13.00	    8.42	-1341.92	    5.59
    108.9539	    8.00	    8.51	-1347.01	    5.60
    108.9873	   14.00	    8.62	-1341.12	    5.60
    109.0207	   11.00	    8.75	-1344.25	    5.60
    109.0541	   13.00	    8.89	-1342.39	    5.60
    109.0876	   13.00	    9.05	-1342.55	    5.61
    109.1210	   14.00	    9.23	-1341.73	    5.61
    109.1544	    9.00	    9.45	-1346.95	    5.61
    109.1878	    8.00	    9.75	-1348.25	    5.61
    109.2213	   13.00	   10.15	-1343.65	    5.61
    109.2547	    9.00	   10.70	-1348.20	    5.62
    109.2881	    9.00	   11.54	-1349.04	    5.62
    109.3215	   21.00	   12.96	-1338.46	    5.62
    109.3549	   18.00	   15.61	-1344.11	    5.62
    109.3884	   19.00	   20.57	-1348.07	    5.63
    109.4218	   29.00	   29.14	-1346.64	    5.63
    109.4552	   39.00	   42.00	-1349.50	    5.63
    109.4886	   46.00	   57.93	-1358.43	    5.63
    109.5221	   74.00	   72.21	-1344.71	    5.63
    109.5555	   77.00	   76.77	-1346.27	    5.64
    109.5889	   68.00	   68.15	-1346.65	    5.64
    109.6223	   52.00	   52.79	-1347.29	    5.64
    109.6558	   36.00	   37.99	-1348.49	    5.64
    109.6892	   29.00	   27.14	-1344.64	    5.65
    109.7226	   15.00	   20.78	-1352.28	    5.65
    109.7560	   30.00	   18.19	-1334.69	    5.65
    109.7894	   21.00	   18.68	-1344.18	    5.65
    109.8229	   13.00	   21.92	-1355.42	    5.66
    109.8563	   30.00	   27.73	-1344.23	    5.66
    109.8897	   31.00	   35.21	-1350.71	    5.66
    109.9231	   46.00	   41.85	-1342.35	    5.66
    109.9566	   56.00	   43.61	-1334.11	    5.67
    109.9900	   44.00	   38.93	-1341.43	    5.67
    110.0234	   31.00	   31.07	-1346.57	    5.67
    110.0568	   28.00	   23.58	-1342.08	    5.67
    110.0902	   15.00	   18.04	-1349.54	    5.67
    110.1237	   17.00	   14.63	-1344.13	    5.68
    110.1571	   16.00	   12.87	-1343.37	    5.68
    110.1905	    8.00	   12.17	-1350.67	    5.68
    110.2239	   11.00	   12.22	-1347.72	    5.68
    110.2574	   19.00	   13.07	-1340.57	    5.69
    110.2908	   11.00	   15.11	-1350.61	    5.69
    110.3242	   21.00	   18.89	-1344.39	    5.69
    110.3576	   34.00	   24.71	-1337.21	    5.69
    110.3911	   27.00	   32.05	-1351.55	    5.70
    110.4245	   58.00	   38.79	-1327.29	    5.70
    110.4579	   45.00	   41.22	-1342.72	    5.70
    110.4913	   37.00	   37.44	-1346.94	    5.70
    110.5247	   31.00	   30.23	-1345.73	    5.71
    110.5582	   34.00	   23.07	-1335.57	    5.71
    110.5916	   28.00	   17.68	-1336.18	    5.71
    110.6250	    9.00	   14.39	-1351.89	    5.71
    110.6584	   16.00	   12.91	-1343.41	    5.72
    110.6919	   15.00	   12.86	-1344.36	    5.72
    110.7253	    9.00	   14.08	-1351.58	    5.72
    110.7587	   15.00	   16.53	-1348.03	    5.72
    110.7921	   21.00	   19.90	-1345.40	    5.73
    110.8255	   28.00	   23.25	-1341.75	    5.73
    110.8590	   19.00	   24.81	-1352.31	    5.73
    110.8924	   17.00	   23.29	-1352.79	    5.73
    110.9258	   16.00	   19.75	-1350.25	    5.74
    110.9592	   23.00	   15.98	-1339.48	    5.74
    110.9927	   23.00	   12.98	-1336.48	    5.74
    111.0261	   20.00	   10.98	-1337.48	    5.74
    111.0595	    9.00	    9.81	-1347.31	    5.75
    111.0929	   18.00	    9.17	-1337.67	    5.75
    111.1263	    4.00	    8.80	-1351.30	    5.75
    111.1598	   13.00	    8.58	-1342.08	    5.75
    111.1932	   10.00	    8.42	-1344.92	    5.76
    111.2266	    7.00	    8.31	-1347.81	    5.76
    111.2600	   15.00	    8.21	-1339.71	    5.76
    111.2935	    4.00	    8.14	-1350.64	    5.76
    111.3269	    6.00	    8.07	-1348.57	    5.77
    111.3603	    7.00	    8.02	-1347.52	    5.77
    111.3937	    7.00	    7.98	-1347.48	    5.77
    111.4271	   21.00	    7.94	-1333.44	    5.77
    111.4606	    6.00	    7.91	-1348.41	    5.78
    111.4940	    8.00	    7.88	-1346.38	    5.78
    111.5274	   15.00	    7.86	-1339.36	    5.78
    111.5608	    7.00	    7.84	-1347.34	    5.79
    111.5943	   11.00	    7.83	-1343.33	    5.79
    111.6277	    8.00	    7.83	-1346.33	    5.79
    111.6611	    6.00	    7.85	-1348.35	    5.79
    111.6945	    7.00	    7.88	-1347.38	    5.80
    111.7280	    8.00	    7.93	-1346.43	    5.80
    111.7614	    8.00	    7.97	-1346.47	    5.80
    111.7948	    5.00	    7.99	-1349.49	    5.80
    111.8282	    7.00	    7.95	-1347.45	    5.81
    111.8616	   13.00	    7.89	-1341.39	    5.81
    111.8951	   10.00	    7.83	-1344.33	    5.81
    111.9285	   11.00	    7.78	-1343.28	    5.81
    111.9619	    8.00	    7.74	-1346.24	    5.82
    111.9953	    8.00	    7.72	-1346.22	    5.82
    112.0288	    9.00	    7.72	-1345.22	    5.82
    112.0622	    6.00	    7.72	-1348.22	    5.83
    112.0956	    6.00	    7.73	-1348.23	    5.83
    112.1290	    7.00	    7.75	-1347.25	    5.83
    112.1624	    8.00	    7.78	-1346.28	    5.83
    112.1959	    8.00	    7.80	-1346.30	    5.84
    112.2293	   10.00	    7.79	-1344.29	    5.84
    112.2627	    7.00	    7.77	-1347.27	    5.84
    112.2961	   13.00	    7.74	-1341.24	    5.85
    112.3296	    7.00	    7.71	-1347.21	    5.85
    112.3630	    9.00	    7.69	-1345.19	    5.85
    112.3964	    8.00	    7.68	-1346.18	    5.85
    112.4298	   11.00	    7.67	-1343.17	    5.86
    112.4632	   11.00	    7.66	-1343.16	    5.86
    112.4967	    9.00	    7.66	-1345.16	    5.86
    112.5301	    6.00	    7.66	-1348.16	    5.86
    112.5635	    9.00	    7.66	-1345.16	    5.87
    112.5969	    6.00	    7.66	-1348.16	    5.87
    112.6304	    8.00	    7.66	-1346.16	    5.87
    112.6638	    9.00	    7.66	-1345.16	    5.88
    112.6972	    4.00	    7.66	-1350.16	    5.88
    112.7306	    5.00	    7.67	-1349.17	    5.88
    112.7641	    8.00	    7.67	-1346.17	    5.88
    112.7975	   10.00	    7.67	-1344.17	    5.89
    112.8309	   11.00	    7.67	-1343.17	    5.89
    112.8643	   16.00	    7.67	-1338.17	    5.89
    112.8977	    5.00	    7.68	-1349.18	    5.90
    112.9312	    4.00	    7.68	-1350.18	    5.90
    112.9646	   16.00	    7.68	-1338.18	    5.90
    112.9980	   16.00	    7.69	-1338.19	    5.91
    113.0314	    3.00	    7.69	-1351.19	    5.91
    113.0648	    9.00	    7.70	-1345.20	    5.91
    113.0983	    9.00	    7.70	-1345.20	    5.91
    113.1317	    9.00	    7.71	-1345.21	    5.92
    113.1651	   10.00	    7.71	-1344.21	    5.92
    113.1985	    4.00	    7.72	-1350.22	    5.92
    113.2320	    9.00	    7.73	-1345.23	    5.93
    113.2654	    5.00	    7.73	-1349.23	    5.93
    113.2988	    9.00	    7.72	-1345.22	    5.93
    113.3322	    8.00	    7.73	-1346.23	    5.93
    113.3657	   11.00	    7.74	-1343.24	    5.94
    113.3991	   15.00	    7.76	-1339.26	    5.94
    113.4325	    7.00	    7.77	-1347.27	    5.94
    113.4659	    8.00	    7.79	-1346.29	    5.95
    113.4993	   13.00	    7.81	-1341.31	    5.95
    113.5328	   11.00	    7.83	-1343.33	    5.95
    113.5662	   15.00	    7.86	-1339.36	    5.96
    113.5996	    9.00	    7.89	-1345.39	    5.96
    113.6330	    8.00	    7.93	-1346.43	    5.96
    113.6665	   11.00	    7.98	-1343.48	    5.96
    113.6999	   13.00	    8.04	-1341.54	    5.97
    113.7333	    8.00	    8.12	-1346.62	    5.97
    113.7667	    9.00	    8.26	-1345.76	    5.97
    113.8001	   16.00	    8.51	-1339.01	    5.98
    113.8336	   15.00	    8.93	-1340.43	    5.98
    113.8670	    9.00	    9.69	-1347.19	    5.98
    113.9004	   13.00	   10.90	-1344.40	    5.99
    113.9338	   10.00	   12.62	-1349.12	    5.99
    113.9673	   17.00	   14.61	-1344.11	    5.99
    114.0007	   15.00	   16.27	-1347.77	    6.00
    114.0341	   19.00	   16.66	-1344.16	    6.00
    114.0675	   27.00	   15.51	-1335.01	    6.00
    114.1010	   13.00	   13.61	-1347.11	    6.01
    114.1344	   16.00	   11.76	-1342.26	    6.01
    114.1678	   13.00	   10.37	-1343.87	    6.01
    114.2012	   14.00	    9.49	-1341.99	    6.01
    114.2346	    7.00	    9.05	-1348.55	    6.02
    114.2681	    6.00	    8.97	-1349.47	    6.02
    114.3015	   14.00	    9.18	-1341.68	    6.02
    114.3349	    7.00	    9.68	-1349.18	    6.03
    114.3683	    8.00	   10.46	-1348.96	    6.03
    114.4018	   14.00	   11.40	-1343.90	    6.03
    114.4352	    9.00	   12.18	-1349.68	    6.04
    114.4686	   20.00	   12.36	-1338.86	    6.04
    114.5020	   15.00	   11.77	-1343.27	    6.04
    114.5354	    7.00	   10.80	-1350.30	    6.05
    114.5689	   10.00	    9.85	-1346.35	    6.05
    114.6023	    9.00	    9.12	-1346.62	    6.05
    114.6357	   10.00	    8.63	-1345.13	    6.06
    114.6691	   13.00	    8.34	-1341.84	    6.06
    114.7026	    7.00	    8.18	-1347.68	    6.06
    114.7360	    6.00	    8.10	-1348.60	    6.07
    114.7694	    6.00	    8.04	-1348.54	    6.07
    114.8028	    9.00	    8.01	-1345.51	    6.07
    114.8363	   10.00	    7.99	-1344.49	    6.08
    114.8697	   13.00	    7.98	-1341.48	    6.08
    114.9031	   11.00	    7.98	-1343.48	    6.08
    114.9365	   13.00	    8.00	-1341.50	    6.09
    114.9699	    8.00	    8.05	-1346.55	    6.09
    115.0034	    9.00	    8.13	-1345.63	    6.09
    115.0368	    7.00	    8.23	-1347.73	    6.10
    115.0702	    7.00	    8.31	-1347.81	    6.10
    115.1036	    8.00	    8.36	-1346.86	    6.10
    115.1371	   10.00	    8.32	-1344.82	    6.11
    115.1705	    9.00	    8.23	-1345.73	    6.11
    115.2039	   10.00	    8.13	-1344.63	    6.11
    115.2373	   10.00	    8.05	-1344.55	    6.12
    115.2707	    9.00	    8.00	-1345.50	    6.12
    115.3042	   13.00	    7.97	-1341.47	    6.12
    115.3376	   16.00	    7.96	-1338.46	    6.13
    115.3710	   15.00	    7.96	-1339.46	    6.13
    115.4044	   14.00	    7.98	-1340.48	    6.13
    115.4379	    7.00	    8.02	-1347.52	    6.14
    115.4713	    6.00	    8.07	-1348.57	    6.14
    115.5047	    6.00	    8.12	-1348.62	    6.14
    115.5381	    9.00	    8.15	-1345.65	    6.15
    115.5715	    5.00	    8.15	-1349.65	    6.15
    115.6050	   10.00	    8.11	-1344.61	    6.15
    115.6384	   13.00	    8.06	-1341.56	    6.16
    115.6718	    8.00	    8.02	-1346.52	    6.16
    115.7052	    5.00	    7.99	-1349.49	    6.16
    115.7387	    8.00	    7.98	-1346.48	    6.17
    115.7721	    6.00	    7.97	-1348.47	    6.17
    115.8055	    5.00	    7.96	-1349.46	    6.17
    115.8389	    8.00	    7.97	-1346.47	    6.18
    115.8723	    7.00	    7.97	-1347.47	    6.18
    115.9058	    6.00	    7.97	-1348.47	    6.19
    115.9392	    6.00	    7.97	-1348.47	    6.19
    115.9726	   18.00	    7.98	-1336.48	    6.19
    116.0060	    9.00	    7.98	-1345.48	    6.20
    116.0395	    5.00	    7.99	-1349.49	    6.20
    116.0729	    9.00	    7.99	-1345.49	    6.20
    116.1063	   10.00	    8.00	-1344.50	    6.21
    116.1397	    9.00	    8.00	-1345.50	    6.21
    116.1731	    9.00	    8.01	-1345.51	    6.21
    116.2066	   13.00	    8.02	-1341.52	    6.22
    116.2400	    1.00	    8.02	-1353.52	    6.22
    116.2734	    6.00	    8.03	-1348.53	    6.22
    116.3068	    8.00	    8.04	-1346.54	    6.23
    116.3403	    6.00	    8.05	-1348.55	    6.23
    116.3737	    7.00	    8.05	-1347.55	    6.24
    116.4071	    5.00	    8.06	-1349.56	    6.24
    116.4405	    5.00	    8.08	-1349.58	    6.24
    116.4740	    3.00	    8.09	-1351.59	    6.25
    116.5074	    8.00	    8.10	-1346.60	    6.25
    116.5408	    6.00	    8.11	-1348.61	    6.25
    116.5742	   10.00	    8.12	-1344.62	    6.26
    116.6076	    5.00	    8.13	-1349.63	    6.26
    116.6411	    9.00	    8.14	-1345.64	    6.26
    116.6745	   13.00	    8.15	-1341.65	    6.27
    116.7079	    9.00	    8.16	-1345.66	    6.27
    116.7413	    8.00	    8.18	-1346.68	    6.28
    116.7748	   13.00	    8.19	-1341.69	    6.28
    116.8082	   13.00	    8.20	-1341.70	    6.28
    116.8416	    9.00	    8.22	-1345.72	    6.29
    116.8750	    8.00	    8.23	-1346.73	    6.29
    116.9084	    7.00	    8.26	-1347.76	    6.29
    116.9419	    6.00	    8.27	-1348.77	    6.30
    116.9753	   17.00	    8.29	-1337.79	    6.30
    117.0087	    6.00	    8.31	-1348.81	    6.31
    117.0421	    9.00	    8.34	-1345.84	    6.31
    117.0756	   11.00	    8.36	-1343.86	    6.31
    117.1090	    8.00	    8.39	-1346.89	    6.32
    117.1424	    6.00	    8.42	-1348.92	    6.32
    117.1758	   15.00	    8.45	-1339.95	    6.33
    117.2093	    5.00	    8.49	-1349.99	    6.33
    117.2427	   13.00	    8.53	-1342.03	    6.33
    117.2761	   15.00	    8.57	-1340.07	    6.34
    117.3095	   10.00	    8.62	-1345.12	    6.34
    117.3429	    9.00	    8.68	-1346.18	    6.34
    117.3764	    6.00	    8.75	-1349.25	    6.35
    117.4098	   13.00	    8.83	-1342.33	    6.35
    117.4432	    5.00	    8.92	-1350.42	    6.36
    117.4766	   11.00	    9.03	-1344.53	    6.36
    117.5100	   17.00	    9.16	-1338.66	    6.36
    117.5435	   13.00	    9.32	-1342.82	    6.37
    117.5769	   10.00	    9.53	-1346.03	    6.37
    117.6103	   15.00	    9.81	-1341.31	    6.38
    117.6437	   14.00	   10.23	-1342.73	    6.38
    117.6772	    7.00	   10.92	-1350.42	    6.38
    117.7106	   10.00	   12.11	-1348.61	    6.39
    117.7440	   17.00	   14.18	-1343.68	    6.39
    117.7774	   11.00	   17.51	-1353.01	    6.40
    117.8109	   22.00	   22.31	-1346.81	    6.40
    117.8443	   26.00	   28.26	-1348.76	    6.40
    117.8777	   35.00	   34.07	-1345.57	    6.41
    117.9111	   43.00	   37.32	-1340.82	    6.41
    117.9445	   37.00	   35.99	-1345.49	    6.42
    117.9780	   48.00	   31.04	-1329.54	    6.42
    118.0114	   26.00	   25.08	-1345.58	    6.42
    118.0448	   15.00	   19.91	-1351.41	    6.43
    118.0782	   17.00	   16.19	-1345.69	    6.43
    118.1117	   11.00	   13.92	-1349.42	    6.44
    118.1451	   17.00	   12.83	-1342.33	    6.44
    118.1785	   11.00	   12.64	-1348.14	    6.44
    118.2119	    8.00	   13.23	-1351.73	    6.45
    118.2453	   10.00	   14.64	-1351.14	    6.45
    118.2788	   11.00	   16.87	-1352.37	    6.46
    118.3122	   20.00	   19.74	-1346.24	    6.46
    118.3456	   28.00	   22.64	-1341.14	    6.46
    118.3790	   23.00	   24.38	-1347.88	    6.47
    118.4125	   34.00	   23.94	-1336.44	    6.47
    118.4459	   16.00	   21.71	-1352.21	    6.48
    118.4793	   10.00	   19.04	-1355.54	    6.48
    118.5127	   18.00	   16.94	-1345.44	    6.49
    118.5462	   20.00	   15.97	-1342.47	    6.49
    118.5796	   24.00	   16.46	-1338.96	    6.49
    118.6130	   22.00	   18.64	-1343.14	    6.50
    118.6464	   20.00	   22.57	-1349.07	    6.50
    118.6798	   31.00	   27.97	-1343.47	    6.51
    118.7133	   41.00	   33.80	-1339.30	    6.51
    118.7467	   57.00	   37.96	-1327.46	    6.51
    118.7801	   29.00	   38.06	-1355.56	    6.52
    118.8135	   46.00	   34.08	-1334.58	    6.52
    118.8470	   36.00	   28.38	-1338.88	    6.53
    118.8804	   24.00	   23.09	-1345.59	    6.53
    118.9138	   23.00	   19.19	-1342.69	    6.54
    118.9472	   21.00	   16.97	-1342.47	    6.54
    118.9806	   13.00	   16.39	-1349.89	    6.54
    119.0141	   21.00	   17.48	-1342.98	    6.55
    119.0475	   20.00	   20.46	-1346.96	    6.55
    119.0809	   18.00	   25.69	-1354.19	    6.56
    119.1143	   27.00	   33.20	-1352.70	    6.56
    119.1478	   40.00	   42.21	-1348.71	    6.57
    119.1812	   57.00	   50.50	-1340.00	    6.57
    119.2146	   56.00	   54.46	-1344.96	    6.57
    119.2480	   58.00	   51.78	-1340.28	    6.58
    119.2814	   44.00	   44.08	-1346.58	    6.58
    119.3149	   33.00	   34.90	-1348.40	    6.59
    119.3483	   33.00	   26.81	-1340.31	    6.59
    119.3817	   13.00	   20.85	-1354.35	    6.60
    119.4151	   16.00	   17.05	-1347.55	    6.60
    119.4486	   18.00	   15.01	-1343.51	    6.61
    119.4820	   23.00	   14.28	-1337.78	    6.61
    119.5154	   15.00	   14.61	-1346.11	    6.61
    119.5488	    9.00	   15.93	-1353.43	    6.62
    119.5822	   22.00	   18.16	-1342.66	    6.62
    119.6157	   24.00	   21.07	-1343.57	    6.63
    119.6491	   32.00	   23.95	-1338.45	    6.63
    119.6825	   33.00	   25.52	-1339.02	    6.64
    119.7159	   33.00	   24.71	-1338.21	    6.64
    119.7494	   26.00	   21.97	-1342.47	    6.65
    119.7828	   29.00	   18.64	-1336.14	    6.65
    119.8162	   13.00	   15.66	-1349.16	    6.65
    119.8496	   19.00	   13.43	-1340.93	    6.66
    119.8830	   19.00	   11.94	-1339.44	    6.66
    119.9165	   19.00	   11.05	-1338.55	    6.67
    119.9499	   15.00	   10.54	-1342.04	    6.67
    119.9833	    7.00	   10.24	-1349.74	    6.68
     23.0961	        	        	        	        	       0	(  0  1  2)	  0  1 :  1
     23.1536	        	        	        	        	       0	(  0  1  2)	  0  2 :  1
     29.4383	        	        	        	        	       0	(  1  0  4)	  0  1 :  1
     29.5122	        	        	        	        	       0	(  1  0  4)	  0  2 :  1
     31.4695	        	        	        	        	       0	(  0  0  6)	  0  1 :  1
     31.5488	        	        	        	        	       0	(  0  0  6)	  0  2 :  1
     36.0083	        	        	        	        	       0	(  1  1  0)	  0  1 :  1
     36.0998	        	        	        	        	       0	(  1  1  0)	  0  2 :  1
     39.4450	        	        	        	        	       0	(  1  1  3)	  0  1 :  1
     39.5459	        	        	        	        	       0	(  1  1  3)	  0  2 :  1
     43.1940	        	        	        	        	       0	(  2  0  2)	  0  1 :  1
     43.3055	        	        	        	        	       0	(  2  0  2)	  0  2 :  1
     47.1466	        	        	        	        	       0	(  0  2  4)	  0  1 :  1
     47.2695	        	        	        	        	       0	(  0  2  4)	  0  2 :  1
     47.5323	        	        	        	        	       0	(  0  1  8)	  0  1 :  1
     47.6564	        	        	        	        	       0	(  0  1  8)	  0  2 :  1
     48.5344	        	        	        	        	       0	(  1  1  6)	  0  1 :  1
     48.6614	        	        	        	        	       0	(  1  1  6)	  0  2 :  1
     56.5930	        	        	        	        	       0	(  2  1  1)	  0  1 :  1
     56.7446	        	        	        	        	       0	(  2  1  1)	  0  2 :  1
     57.4280	        	        	        	        	       0	(  1  2  2)	  0  1 :  1
     57.5824	        	        	        	        	       0	(  1  2  2)	  0  2 :  1
     58.0985	        	        	        	        	       0	(  1  0 10)	  0  1 :  1
     58.2550	        	        	        	        	       0	(  1  0 10)	  0  2 :  1
     60.6948	        	        	        	        	       0	(  2  1  4)	  0  1 :  1
     60.8598	        	        	        	        	       0	(  2  1  4)	  0  2 :  1
     61.0194	        	        	        	        	       0	(  2  0  8)	  0  1 :  1
     61.1855	        	        	        	        	       0	(  2  0  8)	  0  2 :  1
     61.3937	        	        	        	        	       0	(  1  1  9)	  0  1 :  1
     61.5609	        	        	        	        	       0	(  1  1  9)	  0  2 :  1
     63.0771	        	        	        	        	       0	(  1  2  5)	  0  1 :  1
     63.2500	        	        	        	        	       0	(  1  2  5)	  0  2 :  1
     64.6866	        	        	        	        	       0	(  3  0  0)	  0  1 :  1
     64.8650	        	        	        	        	       0	(  3  0  0)	  0  2 :  1
     65.6239	        	        	        	        	       0	(  0  0 12)	  0  1 :  1
     65.8055	        	        	        	        	       0	(  0  0 12)	  0  2 :  1
     69.2058	        	        	        	        	       0	(  2  1  7)	  0  1 :  1
     69.4003	        	        	        	        	       0	(  2  1  7)	  0  2 :  1
     70.2545	        	        	        	        	       0	(  0  2 10)	  0  1 :  1
     70.4528	        	        	        	        	       0	(  0  2 10)	  0  2 :  1
     72.9081	        	        	        	        	       0	(  1  2  8)	  0  1 :  1
     73.1163	        	        	        	        	       0	(  1  2  8)	  0  2 :  1
     73.6855	        	        	        	        	       0	(  0  3  6)	  0  1 :  1
     73.6855	        	        	        	        	       0	(  3  0  6)	  0  1 :  1
     73.8967	        	        	        	        	       0	(  0  3  6)	  0  2 :  1
     73.8967	        	        	        	        	       0	(  3  0  6)	  0  2 :  1
     76.2919	        	        	        	        	       0	(  2  2  0)	  0  1 :  1
     76.5133	        	        	        	        	       0	(  2  2  0)	  0  2 :  1
     77.1656	        	        	        	        	       0	(  1  1 12)	  0  1 :  1
     77.3905	        	        	        	        	       0	(  1  1 12)	  0  2 :  1
     78.4446	        	        	        	        	       0	(  2  2  3)	  0  1 :  1
     78.6747	        	        	        	        	       0	(  2  2  3)	  0  2 :  1
     80.2483	        	        	        	        	       0	(  1  3  1)	  0  1 :  1
     80.4859	        	        	        	        	       0	(  1  3  1)	  0  2 :  1
     80.9580	        	        	        	        	       0	(  3  1  2)	  0  1 :  1
     81.1986	        	        	        	        	       0	(  3  1  2)	  0  2 :  1
     81.5315	        	        	        	        	       0	(  2  1 10)	  0  1 :  1
     81.7746	        	        	        	        	       0	(  2  1 10)	  0  2 :  1
     82.1042	        	        	        	        	       0	(  0  1 14)	  0  1 :  1
     82.3497	        	        	        	        	       0	(  0  1 14)	  0  2 :  1
     83.7837	        	        	        	        	       0	(  1  3  4)	  0  1 :  1
     84.0365	        	        	        	        	       0	(  1  3  4)	  0  2 :  1
     84.8167	        	        	        	        	       0	(  2  2  6)	  0  1 :  1
     85.0742	        	        	        	        	       0	(  2  2  6)	  0  2 :  1
     85.8926	        	        	        	        	       0	(  3  1  5)	  0  1 :  1
     86.1550	        	        	        	        	       0	(  3  1  5)	  0  2 :  1
     86.4606	        	        	        	        	       0	(  1  2 11)	  0  1 :  1
     86.7257	        	        	        	        	       0	(  1  2 11)	  0  2 :  1
     91.4965	        	        	        	        	       0	(  1  3  7)	  0  1 :  1
     91.7860	        	        	        	        	       0	(  1  3  7)	  0  2 :  1
     91.9133	        	        	        	        	       0	(  0  4  2)	  0  1 :  1
     92.2049	        	        	        	        	       0	(  0  4  2)	  0  2 :  1
     93.0480	        	        	        	        	       0	(  2  0 14)	  0  1 :  1
     93.3454	        	        	        	        	       0	(  2  0 14)	  0  2 :  1
     94.7183	        	        	        	        	       0	(  4  0  4)	  0  1 :  1
     95.0027	        	        	        	        	       0	(  3  1  8)	  0  1 :  1
     95.0246	        	        	        	        	       0	(  4  0  4)	  0  2 :  1
     95.3105	        	        	        	        	       0	(  3  1  8)	  0  2 :  1
     95.3318	        	        	        	        	       0	(  2  2  9)	  0  1 :  1
     95.6414	        	        	        	        	       0	(  2  2  9)	  0  2 :  1
     96.1416	        	        	        	        	       0	(  1  0 16)	  0  1 :  1
     96.1863	        	        	        	        	       0	(  1  1 15)	  0  1 :  1
     96.4557	        	        	        	        	       0	(  1  0 16)	  0  2 :  1
     96.5006	        	        	        	        	       0	(  1  1 15)	  0  2 :  1
     97.6860	        	        	        	        	       0	(  2  1 13)	  0  1 :  1
     98.0088	        	        	        	        	       0	(  2  1 13)	  0  2 :  1
     99.1461	        	        	        	        	       0	(  0  3 12)	  0  1 :  1
     99.1461	        	        	        	        	       0	(  3  0 12)	  0  1 :  1
     99.4773	        	        	        	        	       0	(  0  3 12)	  0  2 :  1
     99.4773	        	        	        	        	       0	(  3  0 12)	  0  2 :  1
    102.2215	        	        	        	        	       0	(  3  2  1)	  0  1 :  1
    102.5714	        	        	        	        	       0	(  3  2  1)	  0  2 :  1
    102.9387	        	        	        	        	       0	(  2  3  2)	  0  1 :  1
    103.2931	        	        	        	        	       0	(  2  3  2)	  0  2 :  1
    103.5208	        	        	        	        	       0	(  1  3 10)	  0  1 :  1
    103.8790	        	        	        	        	       0	(  1  3 10)	  0  2 :  1
    104.1044	        	        	        	        	       0	(  1  2 14)	  0  1 :  1
    104.4663	        	        	        	        	       0	(  1  2 14)	  0  2 :  1
    105.8292	        	        	        	        	       0	(  3  2  4)	  0  1 :  1
    106.1239	        	        	        	        	       0	(  0  4  8)	  0  1 :  1
    106.2026	        	        	        	        	       0	(  3  2  4)	  0  2 :  1
    106.4994	        	        	        	        	       0	(  0  4  8)	  0  2 :  1
    107.3073	        	        	        	        	       0	(  0  2 16)	  0  1 :  1
    107.6910	        	        	        	        	       0	(  0  2 16)	  0  2 :  1
    108.0241	        	        	        	        	       0	(  2  3  5)	  0  1 :  1
    108.4129	        	        	        	        	       0	(  2  3  5)	  0  2 :  1
    108.6210	        	        	        	        	       0	(  3  1 11)	  0  1 :  1
    108.6857	        	        	        	        	       0	(  0  0 18)	  0  1 :  1
    109.0141	        	        	        	        	       0	(  3  1 11)	  0  2 :  1
    109.0793	        	        	        	        	       0	(  0  0 18)	  0  2 :  1
    109.5496	        	        	        	        	       0	(  4  1  0)	  0  1 :  1
    109.9495	        	        	        	        	       0	(  4  1  0)	  0  2 :  1
    110.4541	        	        	        	        	       0	(  2  2 12)	  0  1 :  1
    110.8608	        	        	        	        	       0	(  2  2 12)	  0  2 :  1
    111.7938	        	        	        	        	       0	(  1  4  3)	  0  1 :  1
    111.7938	        	        	        	        	       0	(  4  1  3)	  0  1 :  1
    112.2109	        	        	        	        	       0	(  1  4  3)	  0  2 :  1
    112.2109	        	        	        	        	       0	(  4  1  3)	  0  2 :  1
    114.0250	        	        	        	        	       0	(  3  2  7)	  0  1 :  1
    114.4603	        	        	        	        	       0	(  3  2  7)	  0  2 :  1
    115.1061	        	        	        	        	       0	(  4  0 10)	  0  1 :  1
    115.5504	        	        	        	        	       0	(  4  0 10)	  0  2 :  1
    117.9180	        	        	        	        	       0	(  2  3  8)	  0  1 :  1
    118.3876	        	        	        	        	       0	(  2  3  8)	  0  2 :  1
    118.7636	        	        	        	        	       0	(  1  4  6)	  0  1 :  1
    118.7636	        	        	        	        	       0	(  4  1  6)	  0  1 :  1
    119.2083	        	        	        	        	       0	(  2  1 16)	  0  1 :  1
    119.2412	        	        	        	        	       0	(  1  4  6)	  0  2 :  1
    119.2412	        	        	        	        	       0	(  4  1  6)	  0  2 :  1
    119.6902	        	        	        	        	       0	(  2  1 16)	  0  2 :  1
    120.7214	        	        	        	        	       0	(  1  1 18)	  0  1 :  1
    120.9800	        	        	        	        	       0	(  1  3 13)	  0  1 :  1
    121.2183	        	        	        	        	       0	(  1  1 18)	  0  2 :  1
    121.4796	        	        	        	        	       0	(  1  3 13)	  0  2 :  1
    127.2204	        	        	        	        	       0	(  5  0  2)	  0  1 :  1
