 Nd hydroxide   Chi2:  3.0588  CELL:    6.42609   6.42609   3.74095   90.0000   90.0000  120.0000   SPGR: P 63/m                 TEMP:      0.00
  1   2693     1.54060     1.54439     0.00000    -0.03209     0.00000    0
   198     0     1
       0.00000      13.00000
 2Theta	Yobs	Ycal	Yobs-Ycal	Backg	Posr	(hkl)	K
     10.0098	 276.000	 124.445	-248.750	 123.240
     10.0432	 242.000	 124.275	-248.750	 123.070
     10.0767	 270.000	 124.105	-248.750	 122.900
     10.1101	 278.000	 123.935	-248.750	 122.731
     10.1435	 251.000	 123.765	-248.750	 122.561
     10.1769	 235.000	 123.596	-248.750	 122.392
     10.2103	 232.000	 123.427	-248.750	 122.223
     10.2438	 251.000	 123.258	-248.750	 122.054
     10.2772	 237.000	 123.089	-248.750	 121.885
     10.3106	 249.000	 122.921	-248.750	 121.716
     10.3440	 251.000	 122.752	-248.750	 121.548
     10.3775	 240.000	 122.584	-248.750	 121.379
     10.4109	 236.000	 122.416	-248.750	 121.211
     10.4443	 242.000	 122.248	-248.750	 121.043
     10.4777	 230.000	 122.080	-248.750	 120.875
     10.5111	 256.000	 121.912	-248.750	 120.708
     10.5446	 225.000	 121.745	-248.750	 120.541
     10.5780	 234.000	 121.578	-248.750	 120.373
     10.6114	 222.000	 121.411	-248.750	 120.206
     10.6448	 226.000	 121.244	-248.750	 120.039
     10.6783	 233.000	 121.077	-248.750	 119.873
     10.7117	 224.000	 120.911	-248.750	 119.706
     10.7451	 224.000	 120.744	-248.750	 119.540
     10.7785	 222.000	 120.578	-248.750	 119.374
     10.8120	 234.000	 120.412	-248.750	 119.208
     10.8454	 225.000	 120.246	-248.750	 119.042
     10.8788	 259.000	 120.081	-248.750	 118.876
     10.9122	 252.000	 119.915	-248.750	 118.711
     10.9456	 244.000	 119.750	-248.750	 118.545
     10.9791	 213.000	 119.585	-248.750	 118.380
     11.0125	 211.000	 119.420	-248.750	 118.215
     11.0459	 246.000	 119.255	-248.750	 118.051
     11.0793	 226.000	 119.090	-248.750	 117.886
     11.1128	 248.000	 118.926	-248.750	 117.722
     11.1462	 210.000	 118.762	-248.750	 117.557
     11.1796	 229.000	 118.598	-248.750	 117.393
     11.2130	 226.000	 118.434	-248.750	 117.229
     11.2464	 203.000	 118.270	-248.750	 117.066
     11.2799	 246.000	 118.106	-248.750	 116.902
     11.3133	 215.000	 117.943	-248.750	 116.739
     11.3467	 233.000	 117.780	-248.750	 116.575
     11.3801	 226.000	 117.617	-248.750	 116.412
     11.4136	 221.000	 117.454	-248.750	 116.250
     11.4470	 223.000	 117.291	-248.750	 116.087
     11.4804	 205.000	 117.129	-248.750	 115.924
     11.5138	 194.000	 116.967	-248.750	 115.762
     11.5472	 205.000	 116.804	-248.750	 115.600
     11.5807	 212.000	 116.642	-248.750	 115.438
     11.6141	 223.000	 116.481	-248.750	 115.276
     11.6475	 225.000	 116.319	-248.750	 115.115
     11.6809	 238.000	 116.158	-248.750	 114.953
     11.7144	 211.000	 115.996	-248.750	 114.792
     11.7478	 217.000	 115.835	-248.750	 114.631
     11.7812	 248.000	 115.674	-248.750	 114.470
     11.8146	 177.000	 115.513	-248.750	 114.309
     11.8481	 210.000	 115.353	-248.750	 114.148
     11.8815	 202.000	 115.192	-248.750	 113.988
     11.9149	 211.000	 115.032	-248.750	 113.828
     11.9483	 197.000	 114.872	-248.750	 113.668
     11.9817	 217.000	 114.712	-248.750	 113.508
     12.0152	 204.000	 114.552	-248.750	 113.348
     12.0486	 216.000	 114.393	-248.750	 113.188
     12.0820	 209.000	 114.234	-248.750	 113.029
     12.1154	 215.000	 114.074	-248.750	 112.870
     12.1489	 207.000	 113.915	-248.750	 112.711
     12.1823	 194.000	 113.756	-248.750	 112.552
     12.2157	 161.000	 113.598	-248.750	 112.393
     12.2491	 231.000	 113.439	-248.750	 112.235
     12.2825	 202.000	 113.281	-248.750	 112.076
     12.3160	 217.000	 113.123	-248.750	 111.918
     12.3494	 188.000	 112.965	-248.750	 111.760
     12.3828	 195.000	 112.807	-248.750	 111.602
     12.4162	 196.000	 112.649	-248.750	 111.445
     12.4497	 183.000	 112.492	-248.750	 111.287
     12.4831	 173.000	 112.334	-248.750	 111.130
     12.5165	 182.000	 112.177	-248.750	 110.973
     12.5499	 216.000	 112.020	-248.750	 110.816
     12.5833	 176.000	 111.863	-248.750	 110.659
     12.6168	 232.000	 111.707	-248.750	 110.502
     12.6502	 197.000	 111.550	-248.750	 110.346
     12.6836	 183.000	 111.394	-248.750	 110.189
     12.7170	 195.000	 111.238	-248.750	 110.033
     12.7505	 163.000	 111.082	-248.750	 109.877
     12.7839	 208.000	 110.926	-248.750	 109.722
     12.8173	 168.000	 110.770	-248.750	 109.566
     12.8507	 167.000	 110.615	-248.750	 109.411
     12.8841	 158.000	 110.460	-248.750	 109.255
     12.9176	 185.000	 110.305	-248.750	 109.100
     12.9510	 204.000	 110.150	-248.750	 108.945
     12.9844	 190.000	 109.995	-248.750	 108.790
     13.0178	 206.000	 113.294	-156.044	 108.636
     13.0513	 199.000	 113.221	-162.971	 108.481
     13.0847	 162.000	 113.151	-199.901	 108.327
     13.1181	 203.000	 113.084	-158.834	 108.173
     13.1515	 172.000	 113.021	-189.771	 108.019
     13.1850	 181.000	 112.961	-180.711	 107.865
     13.2184	 170.000	 112.904	-191.654	 107.712
     13.2518	 184.000	 112.852	-177.602	 107.558
     13.2852	 186.000	 112.803	-175.553	 107.405
     13.3186	 185.000	 112.759	-176.509	 107.252
     13.3521	 180.000	 112.719	-181.469	 107.099
     13.3855	 185.000	 112.684	-176.434	 106.946
     13.4189	 172.000	 112.654	-189.404	 106.794
     13.4523	 178.000	 112.629	-183.379	 106.641
     13.4858	 175.000	 112.609	-186.359	 106.489
     13.5192	 184.000	 112.596	-177.346	 106.337
     13.5526	 161.000	 112.588	-200.338	 106.185
     13.5860	 172.000	 112.587	-189.337	 106.033
     13.6194	 175.000	 112.592	-186.342	 105.882
     13.6529	 167.000	 112.605	-194.355	 105.730
     13.6863	 193.000	 112.625	-168.375	 105.579
     13.7197	 171.000	 112.653	-190.403	 105.428
     13.7531	 146.000	 112.690	-215.440	 105.277
     13.7866	 178.000	 112.736	-183.486	 105.127
     13.8200	 161.000	 112.791	-200.541	 104.976
     13.8534	 175.000	 112.857	-186.607	 104.826
     13.8868	 179.000	 112.933	-182.683	 104.675
     13.9202	 175.000	 113.021	-186.771	 104.525
     13.9537	 138.000	 113.122	-223.872	 104.375
     13.9871	 176.000	 113.236	-185.986	 104.226
     14.0205	 164.000	 113.364	-198.114	 104.076
     14.0539	 169.000	 113.507	-193.257	 103.927
     14.0874	 144.000	 113.666	-218.416	 103.778
     14.1208	 167.000	 113.843	-195.593	 103.629
     14.1542	 146.000	 114.039	-216.789	 103.480
     14.1876	 159.000	 114.255	-204.005	 103.331
     14.2211	 182.000	 114.492	-181.242	 103.182
     14.2545	 153.000	 114.753	-210.503	 103.034
     14.2879	 151.000	 115.040	-212.790	 102.886
     14.3213	 133.000	 115.354	-231.104	 102.738
     14.3547	 152.000	 115.698	-212.448	 102.590
     14.3882	 180.000	 116.074	-184.824	 102.442
     14.4216	 176.000	 116.486	-189.236	 102.294
     14.4550	 193.000	 116.936	-172.686	 102.147
     14.4884	 151.000	 117.429	-215.179	 102.000
     14.5219	 169.000	 117.967	-197.717	 101.853
     14.5553	 162.000	 118.556	-205.306	 101.706
     14.5887	 161.000	 119.200	-206.950	 101.559
     14.6221	 154.000	 119.905	-214.655	 101.413
     14.6555	 167.000	 120.678	-202.428	 101.266
     14.6890	 188.000	 121.526	-182.276	 101.120
     14.7224	 171.000	 122.456	-200.206	 100.974
     14.7558	 157.000	 123.479	-215.229	 100.828
     14.7892	 158.000	 124.604	-215.354	 100.682
     14.8227	 162.000	 125.845	-212.595	 100.537
     14.8561	 164.000	 127.215	-211.965	 100.391
     14.8895	 159.000	 128.730	-218.480	 100.246
     14.9229	 186.000	 130.410	-193.160	 100.101
     14.9563	 171.000	 132.275	-210.025	  99.956
     14.9898	 173.000	 134.353	-210.103	  99.811
     15.0232	 185.000	 136.673	-200.423	  99.667
     15.0566	 164.000	 139.270	-224.020	  99.522
     15.0900	 155.000	 142.187	-235.937	  99.378
     15.1235	 165.000	 145.475	-229.225	  99.234
     15.1569	 176.000	 149.194	-221.944	  99.090
     15.1903	 165.000	 153.418	-237.168	  98.946
     15.2237	 196.000	 158.237	-210.987	  98.802
     15.2571	 170.000	 163.760	-242.510	  98.659
     15.2906	 191.000	 170.123	-227.873	  98.516
     15.3240	 193.000	 177.497	-233.247	  98.373
     15.3574	 196.000	 186.091	-238.841	  98.230
     15.3908	 212.000	 196.173	-232.923	  98.087
     15.4243	 203.000	 208.070	-253.820	  97.944
     15.4577	 220.000	 222.199	-250.949	  97.802
     15.4911	 230.000	 239.068	-257.818	  97.659
     15.5245	 240.000	 259.307	-268.057	  97.517
     15.5580	 264.000	 283.664	-268.414	  97.375
     15.5914	 243.000	 313.020	-318.770	  97.233
     15.6248	 275.000	 348.328	-322.078	  97.092
     15.6582	 316.000	 390.529	-323.279	  96.950
     15.6916	 333.000	 440.259	-356.009	  96.809
     15.7251	 329.000	 497.392	-417.142	  96.668
     15.7585	 396.000	 560.167	-412.917	  96.527
     15.7919	 413.000	 624.215	-459.965	  96.386
     15.8253	 486.000	 681.853	-444.603	  96.245
     15.8588	 607.000	 723.060	-364.810	  96.105
     15.8922	 639.000	 738.694	-348.444	  95.964
     15.9256	 606.000	 724.879	-367.629	  95.824
     15.9590	 528.000	 685.101	-405.851	  95.684
     15.9924	 460.000	 628.217	-416.967	  95.544
     16.0259	 390.000	 564.242	-422.992	  95.404
     16.0593	 336.000	 500.997	-413.747	  95.265
     16.0927	 331.000	 443.108	-360.858	  95.125
     16.1261	 311.000	 392.494	-330.244	  94.986
     16.1596	 249.000	 349.421	-349.171	  94.847
     16.1930	 244.000	 313.286	-318.036	  94.708
     16.2264	 242.000	 283.186	-289.936	  94.569
     16.2598	 209.000	 258.154	-297.904	  94.431
     16.2932	 224.000	 237.314	-262.064	  94.292
     16.3267	 218.000	 219.899	-250.649	  94.154
     16.3601	 182.000	 205.275	-272.025	  94.016
     16.3935	 180.000	 192.922	-261.672	  93.878
     16.4269	 171.000	 182.417	-260.167	  93.740
     16.4604	 171.000	 173.425	-251.175	  93.603
     16.4938	 171.000	 165.675	-243.425	  93.465
     16.5272	 165.000	 158.951	-242.701	  93.328
     16.5606	 154.000	 153.080	-247.830	  93.191
     16.5941	 169.000	 147.926	-227.676	  93.054
     16.6275	 144.000	 143.373	-248.123	  92.917
     16.6609	 149.000	 139.334	-239.084	  92.780
     16.6943	 151.000	 135.731	-233.481	  92.644
     16.7277	 138.000	 132.503	-243.253	  92.507
     16.7612	 143.000	 129.599	-235.349	  92.371
     16.7946	 143.000	 126.977	-232.727	  92.235
     16.8280	 136.000	 124.599	-237.349	  92.099
     16.8614	 151.000	 122.436	-220.186	  91.963
     16.8949	 132.000	 120.461	-237.211	  91.828
     16.9283	 127.000	 118.652	-240.402	  91.692
     16.9617	 114.000	 116.989	-251.739	  91.557
     16.9951	 109.000	 115.458	-255.208	  91.422
     17.0285	 131.000	 114.042	-231.792	  91.287
     17.0620	 119.000	 112.731	-242.481	  91.152
     17.0954	 127.000	 111.512	-233.262	  91.018
     17.1288	 148.000	 110.377	-211.127	  90.883
     17.1622	 119.000	 109.317	-239.067	  90.749
     17.1957	 133.000	 108.326	-224.076	  90.615
     17.2291	 129.000	 107.396	-227.146	  90.481
     17.2625	 129.000	 106.522	-226.272	  90.347
     17.2959	 115.000	 105.699	-239.449	  90.213
     17.3293	 115.000	 104.922	-238.672	  90.080
     17.3628	 111.000	 104.187	-241.937	  89.947
     17.3962	 124.000	 103.492	-228.242	  89.813
     17.4296	  97.000	 102.832	-254.582	  89.680
     17.4630	 124.000	 102.204	-226.954	  89.547
     17.4965	 130.000	 101.607	-220.357	  89.415
     17.5299	  99.000	 101.037	-250.787	  89.282
     17.5633	 110.000	 100.493	-239.243	  89.150
     17.5967	 121.000	  99.973	-227.723	  89.017
     17.6301	 114.000	  99.475	-234.225	  88.885
     17.6636	 108.000	  98.997	-239.747	  88.753
     17.6970	  99.000	  98.537	-248.287	  88.622
     17.7304	  99.000	  98.096	-247.846	  88.490
     17.7638	  91.000	  97.670	-255.420	  88.358
     17.7973	 111.000	  97.260	-235.010	  88.227
     17.8307	 102.000	  96.864	-243.614	  88.096
     17.8641	 114.000	  96.482	-231.232	  87.965
     17.8975	 101.000	  96.112	-243.862	  87.834
     17.9310	 100.000	  95.753	-244.503	  87.703
     17.9644	  98.000	  95.406	-246.156	  87.573
     17.9978	 103.000	  95.069	-240.819	  87.443
     18.0312	 114.000	  94.741	-229.491	  87.312
     18.0646	  94.000	  94.423	-249.173	  87.182
     18.0981	  92.000	  94.113	-250.863	  87.052
     18.1315	 100.000	  93.811	-242.561	  86.923
     18.1649	  90.000	  93.517	-252.267	  86.793
     18.1983	 110.000	  93.230	-231.980	  86.664
     18.2318	 104.000	  92.949	-237.699	  86.534
     18.2652	  86.000	  92.676	-255.426	  86.405
     18.2986	  86.000	  92.408	-255.158	  86.276
     18.3320	 112.000	  92.146	-228.896	  86.147
     18.3654	  81.000	  91.889	-259.639	  86.019
     18.3989	 104.000	  91.638	-236.388	  85.890
     18.4323	 101.000	  91.392	-239.142	  85.762
     18.4657	  96.000	  91.150	-243.900	  85.633
     18.4991	  96.000	  90.913	-243.663	  85.505
     18.5326	 112.000	  90.680	-227.430	  85.377
     18.5660	  79.000	  90.451	-260.201	  85.250
     18.5994	 102.000	  90.225	-236.975	  85.122
     18.6328	  83.000	  90.004	-255.754	  84.995
     18.6662	  79.000	  89.786	-259.536	  84.867
     18.6997	  95.000	  89.572	-243.322	  84.740
     18.7331	  96.000	  89.360	-242.110	  84.613
     18.7665	  82.000	  89.152	-255.902	  84.486
     18.7999	 112.000	  88.946	-225.696	  84.360
     18.8334	 101.000	  88.744	-236.494	  84.233
     18.8668	 102.000	  88.544	-235.294	  84.107
     18.9002	  86.000	  88.347	-251.097	  83.981
     18.9336	  97.000	  88.152	-239.902	  83.855
     18.9671	 105.000	  87.959	-231.709	  83.729
     19.0005	  82.000	  87.769	-254.519	  83.603
     19.0339	  85.000	  87.581	-251.331	  83.477
     19.0673	  81.000	  87.395	-255.145	  83.352
     19.1007	  94.000	  87.211	-241.961	  83.227
     19.1342	  89.000	  87.029	-246.779	  83.101
     19.1676	  97.000	  86.849	-238.599	  82.976
     19.2010	  91.000	  86.671	-244.421	  82.852
     19.2344	  90.000	  86.494	-245.244	  82.727
     19.2679	  77.000	  86.319	-258.069	  82.602
     19.3013	  96.000	  86.146	-238.896	  82.478
     19.3347	  89.000	  85.974	-245.724	  82.354
     19.3681	  71.000	  85.804	-263.554	  82.230
     19.4015	  77.000	  85.635	-257.385	  82.106
     19.4350	  76.000	  85.468	-258.218	  81.982
     19.4684	  77.000	  85.302	-257.052	  81.858
     19.5018	  90.000	  85.138	-243.888	  81.735
     19.5352	 102.000	  84.974	-231.724	  81.611
     19.5687	  75.000	  84.812	-258.562	  81.488
     19.6021	  88.000	  84.918	-245.668	  81.365
     19.6355	  86.000	  84.760	-247.510	  81.242
     19.6689	  98.000	  84.736	-235.486	  81.120
     19.7023	  97.000	  84.582	-236.332	  80.997
     19.7358	  86.000	  84.429	-247.179	  80.875
     19.7692	  87.000	  84.277	-246.027	  80.752
     19.8026	  78.000	  84.126	-254.876	  80.630
     19.8360	  82.000	  83.976	-250.726	  80.508
     19.8695	  77.000	  83.827	-255.577	  80.386
     19.9029	  85.000	  83.679	-247.429	  80.265
     19.9363	  82.000	  83.532	-250.282	  80.143
     19.9697	  88.000	  83.386	-244.136	  80.022
     20.0032	  86.000	  83.240	-245.990	  79.901
     20.0366	  96.000	  83.096	-235.846	  79.780
     20.0700	  79.000	  82.952	-252.702	  79.659
     20.1034	  64.000	  82.809	-267.559	  79.538
     20.1368	  84.000	  82.667	-247.417	  79.417
     20.1703	  89.000	  82.526	-242.276	  79.297
     20.2037	  77.000	  82.386	-254.136	  79.176
     20.2371	  81.000	  82.246	-249.996	  79.056
     20.2705	  75.000	  82.107	-255.857	  78.936
     20.3040	  69.000	  81.969	-261.719	  78.816
     20.3374	  91.000	  81.832	-239.582	  78.697
     20.3708	 102.000	  81.695	-228.445	  78.577
     20.4042	  89.000	  81.559	-241.309	  78.458
     20.4376	  66.000	  81.424	-264.174	  78.338
     20.4711	  82.000	  81.289	-248.039	  78.219
     20.5045	  69.000	  81.155	-260.905	  78.100
     20.5379	  82.000	  81.021	-247.771	  77.981
     20.5713	  79.000	  81.325	-251.075	  77.863
     20.6048	  75.000	  81.197	-254.947	  77.744
     20.6382	  57.000	  81.286	-273.036	  77.626
     20.6716	  68.000	  81.160	-261.910	  77.508
     20.7050	  89.000	  81.035	-240.785	  77.389
     20.7384	  85.000	  80.911	-244.661	  77.271
     20.7719	  70.000	  80.788	-259.538	  77.154
     20.8053	  72.000	  80.665	-257.415	  77.036
     20.8387	  75.000	  80.542	-254.292	  76.919
     20.8721	  71.000	  80.421	-258.171	  76.801
     20.9056	  74.000	  80.300	-255.050	  76.684
     20.9390	  89.000	  80.179	-239.929	  76.567
     20.9724	  59.000	  80.059	-269.809	  76.450
     21.0058	  55.000	  79.940	-273.690	  76.333
     21.0392	  76.000	  79.821	-252.571	  76.217
     21.0727	  81.000	  79.703	-247.453	  76.100
     21.1061	  73.000	  79.586	-255.336	  75.984
     21.1395	  86.000	  79.469	-242.219	  75.868
     21.1729	  71.000	  79.352	-257.102	  75.752
     21.2064	  64.000	  79.237	-263.987	  75.636
     21.2398	  61.000	  79.121	-266.871	  75.520
     21.2732	  79.000	  79.007	-248.757	  75.404
     21.3066	  59.000	  78.893	-268.643	  75.289
     21.3401	  70.000	  78.779	-257.529	  75.174
     21.3735	  81.000	  78.666	-246.416	  75.058
     21.4069	  76.000	  78.554	-251.304	  74.943
     21.4403	  78.000	  78.442	-249.192	  74.829
     21.4737	  72.000	  78.331	-255.081	  74.714
     21.5072	  63.000	  78.220	-263.970	  74.599
     21.5406	  66.000	  78.110	-260.860	  74.485
     21.5740	  73.000	  78.001	-253.751	  74.371
     21.6074	  71.000	  77.892	-255.642	  74.256
     21.6409	  77.000	  77.783	-249.533	  74.142
     21.6743	  71.000	  77.675	-255.425	  74.029
     21.7077	  81.000	  77.568	-245.318	  73.915
     21.7411	  68.000	  77.461	-258.211	  73.801
     21.7745	  79.000	  77.355	-247.105	  73.688
     21.8080	  65.000	  77.249	-260.999	  73.575
     21.8414	  71.000	  77.144	-254.894	  73.461
     21.8748	  59.000	  77.040	-266.790	  73.349
     21.9082	  60.000	  76.936	-265.686	  73.236
     21.9417	  66.000	  76.833	-259.583	  73.123
     21.9751	  72.000	  76.730	-253.480	  73.010
     22.0085	  60.000	  76.628	-265.378	  72.898
     22.0419	  66.000	  76.526	-259.276	  72.786
     22.0753	  57.000	  76.425	-268.175	  72.674
     22.1088	  63.000	  76.325	-262.075	  72.562
     22.1422	  75.000	  76.225	-249.975	  72.450
     22.1756	  74.000	  76.126	-250.876	  72.338
     22.2090	  72.000	  76.027	-252.777	  72.227
     22.2425	  78.000	  75.930	-246.680	  72.115
     22.2759	  87.000	  75.832	-237.582	  72.004
     22.3093	  66.000	  75.735	-258.485	  71.893
     22.3427	  56.000	  75.639	-268.389	  71.782
     22.3762	  64.000	  75.544	-260.294	  71.671
     22.4096	  75.000	  75.449	-249.199	  71.560
     22.4430	  84.000	  75.355	-240.105	  71.450
     22.4764	  65.000	  75.261	-259.011	  71.340
     22.5098	  65.000	  75.169	-258.919	  71.229
     22.5433	  76.000	  75.076	-247.826	  71.119
     22.5767	  64.000	  74.985	-259.735	  71.009
     22.6101	  66.000	  74.894	-257.644	  70.899
     22.6435	  73.000	  74.804	-250.554	  70.790
     22.6770	  77.000	  74.715	-246.465	  70.680
     22.7104	  63.000	  74.626	-260.376	  70.571
     22.7438	  57.000	  74.538	-266.288	  70.462
     22.7772	  71.000	  74.451	-252.201	  70.352
     22.8106	  76.000	  74.364	-247.114	  70.243
     22.8441	  65.000	  74.279	-258.029	  70.135
     22.8775	  55.000	  74.194	-267.944	  70.026
     22.9109	  52.000	  74.110	-270.860	  69.917
     22.9443	  86.000	  74.026	-236.776	  69.809
     22.9778	  64.000	  73.944	-258.694	  69.701
     23.0112	  73.000	  73.862	-249.612	  69.593
     23.0446	  72.000	  73.781	-250.531	  69.485
     23.0780	  57.000	  73.701	-265.451	  69.377
     23.1114	  63.000	  73.622	-259.372	  69.269
     23.1449	  62.000	  73.544	-260.294	  69.162
     23.1783	  68.000	  73.466	-254.216	  69.054
     23.2117	  84.000	  73.390	-238.140	  68.947
     23.2451	  74.000	  73.314	-248.064	  68.840
     23.2786	  61.000	  73.240	-260.990	  68.733
     23.3120	  75.000	  73.166	-246.916	  68.626
     23.3454	  71.000	  73.093	-250.843	  68.519
     23.3788	  60.000	  73.022	-261.772	  68.413
     23.4122	  52.000	  72.951	-269.701	  68.306
     23.4457	  70.000	  72.882	-251.632	  68.200
     23.4791	  70.000	  72.813	-251.563	  68.094
     23.5125	  89.000	  72.746	-232.496	  67.988
     23.5459	  74.000	  72.680	-247.430	  67.882
     23.5794	  64.000	  72.615	-257.365	  67.776
     23.6128	  77.000	  72.551	-244.301	  67.671
     23.6462	  69.000	  72.489	-252.239	  67.565
     23.6796	  69.000	  72.427	-252.177	  67.460
     23.7131	  56.000	  72.367	-265.117	  67.355
     23.7465	  73.000	  72.309	-248.059	  67.250
     23.7799	  79.000	  72.251	-242.001	  67.145
     23.8133	  65.000	  72.195	-255.945	  67.040
     23.8467	  63.000	  72.141	-257.891	  66.935
     23.8802	  58.000	  72.087	-262.837	  66.831
     23.9136	  60.000	  71.680	-260.430	  66.727
     23.9470	  81.000	  71.634	-239.384	  66.622
     23.9804	  68.000	  71.635	-252.385	  66.518
     24.0139	  72.000	  71.593	-248.343	  66.414
     24.0473	  82.000	  71.552	-238.302	  66.311
     24.0807	  62.000	  71.513	-258.263	  66.207
     24.1141	  61.000	  71.476	-259.226	  66.103
     24.1475	  60.000	  71.441	-260.191	  66.000
     24.1810	  75.000	  71.407	-245.158	  65.897
     24.2144	  74.000	  71.376	-246.126	  65.794
     24.2478	  75.000	  71.347	-245.097	  65.691
     24.2812	  63.000	  71.319	-257.069	  65.588
     24.3147	  77.000	  71.294	-243.044	  65.485
     24.3481	  69.000	  71.271	-251.021	  65.383
     24.3815	  66.000	  71.250	-254.000	  65.280
     24.4149	  58.000	  71.231	-261.981	  65.178
     24.4483	  59.000	  71.215	-260.965	  65.076
     24.4818	  61.000	  71.201	-258.951	  64.974
     24.5152	  72.000	  71.190	-247.940	  64.872
     24.5486	  63.000	  71.182	-256.932	  64.770
     24.5820	  69.000	  71.176	-250.926	  64.669
     24.6155	  61.000	  71.174	-258.924	  64.567
     24.6489	  58.000	  71.174	-261.924	  64.466
     24.6823	  52.000	  71.177	-267.927	  64.365
     24.7157	  57.000	  71.184	-262.934	  64.264
     24.7491	  55.000	  71.194	-264.944	  64.163
     24.7826	  59.000	  71.207	-260.957	  64.062
     24.8160	  57.000	  71.224	-262.974	  63.962
     24.8494	  60.000	  71.245	-259.995	  63.861
     24.8828	  63.000	  71.270	-257.020	  63.761
     24.9163	  68.000	  71.299	-252.049	  63.661
     24.9497	  65.000	  71.332	-255.082	  63.561
     24.9831	  69.000	  71.369	-251.119	  63.461
     25.0165	  69.000	  71.411	-251.161	  63.361
     25.0500	  64.000	  71.458	-256.208	  63.261
     25.0834	  61.000	  71.510	-259.260	  63.162
     25.1168	  66.000	  71.568	-254.318	  63.062
     25.1502	  61.000	  71.630	-259.380	  62.963
     25.1836	  71.000	  71.699	-249.449	  62.864
     25.2171	  70.000	  71.774	-250.524	  62.765
     25.2505	  70.000	  71.855	-250.605	  62.666
     25.2839	  71.000	  71.942	-249.692	  62.567
     25.3173	  58.000	  72.037	-262.787	  62.469
     25.3508	  51.000	  72.138	-269.888	  62.370
     25.3842	  66.000	  72.248	-254.998	  62.272
     25.4176	  42.000	  72.365	-279.115	  62.174
     25.4510	  61.000	  72.491	-260.241	  62.076
     25.4844	  65.000	  72.626	-256.376	  61.978
     25.5179	  63.000	  72.770	-258.521	  61.880
     25.5513	  59.000	  72.925	-262.675	  61.782
     25.5847	  73.000	  73.089	-248.839	  61.685
     25.6181	  60.000	  73.265	-262.015	  61.587
     25.6516	  74.000	  73.453	-248.203	  61.490
     25.6850	  72.000	  73.652	-250.402	  61.393
     25.7184	  75.000	  73.865	-247.615	  61.296
     25.7518	  59.000	  74.092	-263.842	  61.199
     25.7852	  49.000	  74.333	-274.083	  61.103
     25.8187	  68.000	  74.591	-255.341	  61.006
     25.8521	  63.000	  74.864	-260.614	  60.910
     25.8855	  83.000	  75.156	-240.906	  60.813
     25.9189	  60.000	  75.466	-264.216	  60.717
     25.9524	  56.000	  75.797	-268.547	  60.621
     25.9858	  77.000	  76.149	-247.899	  60.525
     26.0192	  57.000	  76.524	-268.274	  60.429
     26.0526	  63.000	  76.924	-262.674	  60.334
     26.0861	  75.000	  77.350	-251.100	  60.238
     26.1195	  68.000	  77.805	-258.555	  60.143
     26.1529	  82.000	  78.290	-245.040	  60.048
     26.1863	  60.000	  78.809	-267.559	  59.952
     26.2197	  75.000	  79.362	-253.112	  59.857
     26.2532	  74.000	  79.955	-254.705	  59.763
     26.2866	  84.000	  80.589	-245.339	  59.668
     26.3200	  75.000	  81.268	-255.018	  59.573
     26.3534	  73.000	  81.996	-257.746	  59.479
     26.3869	  79.000	  82.778	-252.528	  59.385
     26.4203	  73.000	  83.618	-259.367	  59.290
     26.4537	  73.000	  84.521	-260.271	  59.196
     26.4871	  78.000	  85.495	-256.245	  59.102
     26.5205	  79.000	  86.545	-256.295	  59.009
     26.5540	  74.000	  87.680	-262.430	  58.915
     26.5874	  92.000	  88.907	-245.657	  58.821
     26.6208	  82.000	  90.239	-256.989	  58.728
     26.6542	  68.000	  91.684	-272.434	  58.635
     26.6877	  87.000	  93.258	-255.008	  58.542
     26.7211	  70.000	  94.973	-273.723	  58.449
     26.7545	  98.000	  96.848	-247.598	  58.356
     26.7879	  98.000	  98.902	-249.652	  58.263
     26.8213	 101.000	 101.159	-248.909	  58.170
     26.8548	 101.000	 103.644	-251.394	  58.078
     26.8882	  97.000	 106.390	-258.140	  57.985
     26.9216	  98.000	 109.434	-260.184	  57.893
     26.9550	 112.000	 112.819	-249.569	  57.801
     26.9885	 103.000	 116.598	-262.348	  57.709
     27.0219	 121.000	 120.834	-248.584	  57.617
     27.0553	 111.000	 125.603	-263.353	  57.526
     27.0887	 104.000	 130.997	-275.747	  57.434
     27.1222	 137.000	 137.129	-248.879	  57.343
     27.1556	 135.000	 144.135	-257.885	  57.251
     27.1890	 133.000	 152.186	-267.936	  57.160
     27.2224	 163.000	 161.487	-247.237	  57.069
     27.2558	 164.000	 172.289	-257.039	  56.978
     27.2893	 183.000	 184.900	-250.650	  56.887
     27.3227	 170.000	 199.689	-278.439	  56.797
     27.3561	 219.000	 217.092	-246.842	  56.706
     27.3895	 240.000	 237.611	-246.361	  56.616
     27.4230	 253.000	 261.807	-257.557	  56.526
     27.4564	 263.000	 290.251	-276.001	  56.435
     27.4898	 304.000	 323.423	-268.173	  56.345
     27.5232	 328.000	 361.525	-282.275	  56.255
     27.5566	 368.000	 404.174	-284.924	  56.166
     27.5901	 472.000	 449.944	-226.694	  56.076
     27.6235	 515.000	 495.888	-229.638	  55.987
     27.6569	 566.000	 537.414	-220.164	  55.897
     27.6903	 664.000	 568.926	-153.676	  55.808
     27.7238	 673.000	 585.425	-161.175	  55.719
     27.7572	 664.000	 584.376	-169.126	  55.630
     27.7906	 652.000	 566.697	-163.447	  55.541
     27.8240	 554.000	 536.278	-231.028	  55.452
     27.8574	 452.000	 498.453	-295.203	  55.364
     27.8909	 450.000	 458.370	-257.120	  55.275
     27.9243	 383.000	 419.951	-285.701	  55.187
     27.9577	 386.000	 385.597	-248.347	  55.099
     27.9911	 342.000	 356.426	-263.176	  55.010
     28.0246	 331.000	 332.724	-250.474	  54.922
     28.0580	 312.000	 314.335	-251.085	  54.835
     28.0914	 270.000	 300.920	-279.670	  54.747
     28.1248	 311.000	 292.117	-229.867	  54.659
     28.1582	 275.000	 287.635	-261.385	  54.572
     28.1917	 272.000	 287.297	-264.047	  54.485
     28.2251	 291.000	 291.054	-248.804	  54.397
     28.2585	 294.000	 298.999	-253.749	  54.310
     28.2919	 291.000	 311.376	-269.126	  54.223
     28.3254	 297.000	 328.587	-280.337	  54.136
     28.3588	 355.000	 351.178	-244.928	  54.050
     28.3922	 357.000	 379.827	-271.577	  53.963
     28.4256	 358.000	 415.303	-306.053	  53.877
     28.4591	 392.000	 458.356	-315.106	  53.790
     28.4925	 426.000	 509.515	-332.265	  53.704
     28.5259	 486.000	 568.609	-331.359	  53.618
     28.5593	 551.000	 634.330	-332.080	  53.532
     28.5927	 640.000	 703.351	-312.101	  53.446
     28.6262	 771.000	 769.767	-247.517	  53.361
     28.6596	 833.000	 825.364	-241.114	  53.275
     28.6930	 908.000	 861.286	-202.036	  53.190
     28.7264	 995.000	 870.897	-124.647	  53.104
     28.7599	 958.000	 852.283	-143.033	  53.019
     28.7933	 922.000	 808.856	-135.606	  52.934
     28.8267	 746.000	 747.826	-250.576	  52.849
     28.8601	 715.000	 677.635	-211.385	  52.764
     28.8935	 623.000	 605.714	-231.464	  52.680
     28.9270	 497.000	 537.299	-289.049	  52.595
     28.9604	 425.000	 475.296	-299.046	  52.511
     28.9938	 363.000	 420.814	-306.564	  52.426
     29.0272	 302.000	 373.835	-320.585	  52.342
     29.0607	 298.000	 333.765	-284.515	  52.258
     29.0941	 271.000	 299.762	-277.512	  52.174
     29.1275	 253.000	 270.948	-266.698	  52.090
     29.1609	 210.000	 246.505	-285.255	  52.006
     29.1943	 196.000	 225.714	-278.464	  51.923
     29.2278	 180.000	 207.960	-276.710	  51.839
     29.2612	 178.000	 192.727	-263.477	  51.756
     29.2946	 159.000	 179.587	-269.337	  51.673
     29.3280	 167.000	 168.193	-249.943	  51.590
     29.3615	 118.000	 158.260	-289.010	  51.507
     29.3949	 119.000	 149.551	-279.301	  51.424
     29.4283	 127.000	 141.877	-263.627	  51.341
     29.4617	 116.000	 135.081	-267.831	  51.259
     29.4951	 124.000	 129.036	-253.786	  51.176
     29.5286	 102.000	 123.634	-270.384	  51.094
     29.5620	 106.000	 118.788	-261.538	  51.012
     29.5954	 106.000	 114.424	-257.174	  50.930
     29.6288	  89.000	 110.480	-270.230	  50.848
     29.6623	  87.000	 106.905	-268.655	  50.766
     29.6957	  98.000	 103.654	-254.404	  50.684
     29.7291	  95.000	 100.688	-254.438	  50.602
     29.7625	  86.000	  97.976	-260.726	  50.521
     29.7960	  94.000	  95.490	-250.240	  50.440
     29.8294	  62.000	  93.205	-279.955	  50.358
     29.8628	  94.000	  91.101	-245.851	  50.277
     29.8962	  64.000	  89.158	-273.908	  50.196
     29.9296	  79.000	  87.362	-257.112	  50.115
     29.9631	  65.000	  85.699	-269.449	  50.035
     29.9965	  64.000	  84.155	-268.905	  49.954
     30.0299	  81.000	  82.720	-250.470	  49.873
     30.0633	  72.000	  81.385	-258.135	  49.793
     30.0968	  60.000	  80.142	-268.892	  49.713
     30.1302	  61.000	  78.981	-266.732	  49.633
     30.1636	  70.000	  77.898	-256.648	  49.553
     30.1970	  63.000	  76.887	-262.637	  49.473
     30.2304	  70.000	  75.941	-254.691	  49.393
     30.2639	  69.000	  75.056	-254.806	  49.313
     30.2973	  83.000	  74.228	-239.978	  49.234
     30.3307	  46.000	  73.454	-276.204	  49.154
     30.3641	  86.000	  72.730	-235.480	  49.075
     30.3976	  69.000	  72.053	-251.803	  48.996
     30.4310	  64.000	  71.420	-256.170	  48.917
     30.4644	  63.000	  70.830	-256.580	  48.838
     30.4978	  73.000	  70.281	-246.031	  48.759
     30.5312	  51.000	  69.770	-267.520	  48.680
     30.5647	  69.000	  69.296	-249.046	  48.602
     30.5981	  56.000	  68.859	-261.609	  48.523
     30.6315	  55.000	  68.456	-262.206	  48.445
     30.6649	  59.000	  68.089	-257.839	  48.367
     30.6984	  47.000	  67.755	-269.505	  48.289
     30.7318	  60.000	  67.454	-256.204	  48.211
     30.7652	  54.000	  67.187	-261.937	  48.133
     30.7986	  65.000	  66.955	-250.705	  48.055
     30.8321	  47.000	  66.756	-268.506	  47.977
     30.8655	  70.000	  66.592	-245.342	  47.900
     30.8989	  42.000	  66.465	-273.215	  47.823
     30.9323	  78.000	  66.374	-237.124	  47.745
     30.9657	  42.000	  66.323	-273.073	  47.668
     30.9992	  54.000	  66.313	-261.063	  47.591
     31.0326	  59.000	  66.347	-256.097	  47.514
     31.0660	  50.000	  66.427	-265.177	  47.437
     31.0994	  65.000	  66.558	-250.308	  47.361
     31.1329	  56.000	  66.743	-259.493	  47.284
     31.1663	  79.000	  66.988	-236.738	  47.208
     31.1997	  57.000	  67.300	-259.050	  47.132
     31.2331	  78.000	  67.684	-238.434	  47.055
     31.2665	  79.000	  68.150	-237.900	  46.979
     31.3000	  46.000	  68.709	-271.459	  46.903
     31.3334	  65.000	  69.371	-253.121	  46.827
     31.3668	  58.000	  70.152	-260.902	  46.752
     31.4002	  62.000	  71.069	-257.819	  46.676
     31.4337	  54.000	  72.143	-266.893	  46.601
     31.4671	  71.000	  73.401	-251.151	  46.525
     31.5005	  59.000	  74.873	-264.623	  46.450
     31.5339	  68.000	  76.598	-257.348	  46.375
     31.5673	  66.000	  78.621	-261.371	  46.300
     31.6008	  65.000	  81.002	-264.752	  46.225
     31.6342	  85.000	  83.808	-247.558	  46.150
     31.6676	  72.000	  87.123	-263.873	  46.076
     31.7010	  81.000	  91.049	-258.799	  46.001
     31.7345	  89.000	  95.704	-255.454	  45.927
     31.7679	  98.000	 101.228	-251.978	  45.852
     31.8013	  88.000	 107.776	-268.526	  45.778
     31.8347	 112.000	 115.512	-252.262	  45.704
     31.8682	 113.000	 124.586	-260.336	  45.630
     31.9016	 111.000	 135.098	-272.848	  45.556
     31.9350	 115.000	 147.332	-281.082	  45.482
     31.9684	 133.000	 160.419	-276.169	  45.409
     32.0018	 143.000	 174.048	-279.798	  45.335
     32.0353	 154.000	 187.305	-282.055	  45.262
     32.0687	 196.000	 198.409	-251.159	  45.189
     32.1021	 204.000	 205.912	-250.662	  45.116
     32.1355	 206.000	 208.594	-251.344	  45.042
     32.1690	 170.000	 206.022	-284.772	  44.970
     32.2024	 188.000	 198.676	-259.426	  44.897
     32.2358	 150.000	 187.737	-286.487	  44.824
     32.2692	 141.000	 174.690	-282.440	  44.751
     32.3026	 146.000	 160.936	-263.686	  44.679
     32.3361	 123.000	 147.544	-273.294	  44.607
     32.3695	 123.000	 135.182	-260.932	  44.534
     32.4029	  85.000	 124.161	-287.911	  44.462
     32.4363	 102.000	 114.551	-261.301	  44.390
     32.4698	  94.000	 106.280	-261.030	  44.318
     32.5032	  74.000	  99.210	-273.960	  44.247
     32.5366	  55.000	  93.186	-286.936	  44.175
     32.5700	  65.000	  88.051	-271.801	  44.103
     32.6034	  78.000	  83.664	-254.414	  44.032
     32.6369	  49.000	  79.905	-279.655	  43.961
     32.6703	  58.000	  76.668	-267.418	  43.890
     32.7037	  62.000	  73.867	-260.617	  43.818
     32.7371	  41.000	  71.430	-279.180	  43.747
     32.7706	  61.000	  69.298	-257.048	  43.677
     32.8040	  51.000	  67.422	-265.172	  43.606
     32.8374	  46.000	  65.763	-268.513	  43.535
     32.8708	  39.000	  64.286	-274.036	  43.465
     32.9043	  52.000	  62.967	-259.717	  43.394
     32.9377	  43.000	  61.782	-267.532	  43.324
     32.9711	  49.000	  60.713	-260.463	  43.254
     33.0045	  57.000	  59.744	-251.494	  43.184
     33.0379	  42.000	  58.862	-265.612	  43.114
     33.0714	  43.000	  58.057	-263.807	  43.044
     33.1048	  49.000	  57.319	-257.069	  42.974
     33.1382	  41.000	  56.640	-264.390	  42.905
     33.1716	  43.000	  56.014	-261.764	  42.835
     33.2051	  42.000	  55.434	-262.184	  42.766
     33.2385	  44.000	  54.895	-259.645	  42.697
     33.2719	  43.000	  54.394	-260.144	  42.627
     33.3053	  31.000	  53.926	-271.676	  42.558
     33.3387	  51.000	  53.488	-251.238	  42.489
     33.3722	  42.000	  53.077	-259.827	  42.421
     33.4056	  47.000	  52.690	-254.440	  42.352
     33.4390	  28.000	  52.326	-273.076	  42.283
     33.4724	  37.000	  51.982	-263.732	  42.215
     33.5059	  44.000	  51.657	-256.407	  42.146
     33.5393	  38.000	  51.348	-262.098	  42.078
     33.5727	  50.000	  51.055	-249.805	  42.010
     33.6061	  34.000	  50.776	-265.526	  41.942
     33.6395	  35.000	  50.510	-264.260	  41.874
     33.6730	  48.000	  50.257	-251.007	  41.806
     33.7064	  58.000	  50.014	-240.764	  41.739
     33.7398	  44.000	  49.782	-254.532	  41.671
     33.7732	  35.000	  49.559	-263.309	  41.603
     33.8067	  36.000	  49.346	-262.096	  41.536
     33.8401	  45.000	  49.141	-252.891	  41.469
     33.8735	  60.000	  48.943	-237.693	  41.402
     33.9069	  42.000	  48.753	-255.503	  41.335
     33.9403	  32.000	  48.570	-265.320	  41.268
     33.9738	  36.000	  48.393	-261.143	  41.201
     34.0072	  31.000	  48.222	-265.972	  41.134
     34.0406	  30.000	  48.057	-266.807	  41.068
     34.0740	  37.000	  47.897	-259.647	  41.001
     34.1075	  45.000	  47.743	-251.493	  40.935
     34.1409	  47.000	  47.593	-249.343	  40.868
     34.1743	  50.000	  47.448	-246.198	  40.802
     34.2077	  34.000	  47.307	-262.057	  40.736
     34.2411	  27.000	  47.171	-268.921	  40.670
     34.2746	  39.000	  47.038	-256.788	  40.604
     34.3080	  44.000	  46.910	-251.660	  40.539
     34.3414	  28.000	  46.785	-267.535	  40.473
     34.3748	  31.000	  46.663	-264.413	  40.408
     34.4083	  18.000	  46.545	-277.295	  40.342
     34.4417	  41.000	  46.431	-254.181	  40.277
     34.4751	  31.000	  46.380	-264.130	  40.212
     34.5085	  46.000	  46.272	-249.022	  40.147
     34.5420	  35.000	  46.167	-259.917	  40.082
     34.5754	  29.000	  46.095	-265.845	  40.017
     34.6088	  52.000	  45.996	-242.746	  39.952
     34.6422	  34.000	  45.900	-260.650	  39.888
     34.6756	  46.000	  45.807	-248.557	  39.823
     34.7091	  45.000	  45.717	-249.467	  39.759
     34.7425	  39.000	  45.630	-255.380	  39.694
     34.7759	  36.000	  45.545	-258.295	  39.630
     34.8093	  31.000	  45.463	-263.213	  39.566
     34.8428	  35.000	  45.384	-259.134	  39.502
     34.8762	  36.000	  45.307	-258.057	  39.438
     34.9096	  44.000	  45.233	-249.983	  39.374
     34.9430	  38.000	  45.162	-255.912	  39.311
     34.9764	  34.000	  45.093	-259.843	  39.247
     35.0099	  28.000	  45.028	-265.778	  39.184
     35.0433	  32.000	  44.965	-261.715	  39.120
     35.0767	  32.000	  44.906	-261.656	  39.057
     35.1101	  33.000	  44.849	-260.599	  38.994
     35.1436	  37.000	  44.795	-256.545	  38.931
     35.1770	  38.000	  44.745	-255.495	  38.868
     35.2104	  39.000	  44.698	-254.448	  38.805
     35.2438	  43.000	  44.654	-250.404	  38.743
     35.2773	  23.000	  44.614	-270.364	  38.680
     35.3107	  27.000	  44.578	-266.328	  38.618
     35.3441	  29.000	  44.546	-264.296	  38.555
     35.3775	  36.000	  44.518	-257.268	  38.493
     35.4109	  41.000	  44.495	-252.245	  38.431
     35.4444	  33.000	  44.476	-260.226	  38.369
     35.4778	  39.000	  44.462	-254.212	  38.307
     35.5112	  34.000	  44.454	-259.204	  38.245
     35.5446	  31.000	  44.452	-262.202	  38.183
     35.5781	  30.000	  44.455	-263.205	  38.122
     35.6115	  41.000	  44.466	-252.216	  38.060
     35.6449	  37.000	  44.484	-256.234	  37.999
     35.6783	  35.000	  44.511	-258.261	  37.937
     35.7117	  38.000	  44.546	-255.296	  37.876
     35.7452	  28.000	  44.591	-265.341	  37.815
     35.7786	  46.000	  44.646	-247.396	  37.754
     35.8120	  34.000	  44.714	-259.464	  37.693
     35.8454	  36.000	  44.530	-257.280	  37.632
     35.8789	  43.000	  44.627	-250.377	  37.572
     35.9123	  38.000	  44.741	-255.491	  37.511
     35.9457	  35.000	  44.744	-258.494	  37.451
     35.9791	  37.000	  44.899	-256.649	  37.390
     36.0125	  41.000	  45.078	-252.828	  37.330
     36.0460	  44.000	  45.284	-250.034	  37.270
     36.0794	  51.000	  45.522	-243.272	  37.210
     36.1128	  41.000	  45.797	-253.547	  37.150
     36.1462	  43.000	  46.113	-251.863	  37.090
     36.1797	  50.000	  46.479	-245.229	  37.030
     36.2131	  51.000	  46.903	-244.653	  36.971
     36.2465	  32.000	  47.395	-264.145	  36.911
     36.2799	  51.000	  47.967	-245.717	  36.852
     36.3133	  51.000	  48.635	-246.385	  36.792
     36.3468	  51.000	  49.416	-247.166	  36.733
     36.3802	  44.000	  50.333	-255.083	  36.674
     36.4136	  57.000	  51.411	-243.161	  36.615
     36.4470	  47.000	  52.680	-254.430	  36.556
     36.4805	  54.000	  54.173	-248.923	  36.497
     36.5139	  55.000	  55.928	-249.678	  36.439
     36.5473	  50.000	  57.979	-256.729	  36.380
     36.5807	  44.000	  60.356	-265.106	  36.322
     36.6142	  68.000	  63.070	-243.820	  36.263
     36.6476	  72.000	  66.096	-242.846	  36.205
     36.6810	  83.000	  69.344	-235.094	  36.147
     36.7144	  69.000	  72.641	-252.391	  36.089
     36.7478	  79.000	  75.713	-245.463	  36.031
     36.7813	  77.000	  78.216	-249.966	  35.973
     36.8147	  86.000	  79.811	-242.561	  35.915
     36.8481	  90.000	  80.270	-239.020	  35.857
     36.8815	 103.000	  79.108	-224.858	  35.800
     36.9150	  92.000	  77.318	-234.068	  35.742
     36.9484	  99.000	  74.511	-224.260	  35.685
     36.9818	  84.000	  71.431	-236.181	  35.628
     37.0152	  71.000	  68.166	-245.916	  35.571
     37.0486	  76.000	  64.957	-237.707	  35.514
     37.0821	  61.000	  61.966	-249.716	  35.457
     37.1155	  58.000	  59.274	-250.024	  35.400
     37.1489	  47.000	  56.909	-258.659	  35.343
     37.1823	  44.000	  54.861	-259.611	  35.286
     37.2158	  56.000	  53.105	-245.855	  35.230
     37.2492	  39.000	  51.606	-261.356	  35.173
     37.2826	  45.000	  50.330	-254.080	  35.117
     37.3160	  48.000	  49.242	-249.992	  35.061
     37.3494	  42.000	  48.315	-255.065	  35.005
     37.3829	  35.000	  47.523	-261.273	  34.949
     37.4163	  39.000	  46.846	-256.596	  34.893
     37.4497	  52.000	  46.265	-243.015	  34.837
     37.4831	  37.000	  45.765	-257.515	  34.781
     37.5166	  33.000	  45.335	-261.085	  34.725
     37.5500	  35.000	  44.965	-258.715	  34.670
     37.5834	  31.000	  44.646	-262.396	  34.614
     37.6168	  39.000	  44.371	-254.121	  34.559
     37.6502	  42.000	  44.136	-250.886	  34.504
     37.6837	  41.000	  43.934	-251.684	  34.449
     37.7171	  37.000	  43.763	-255.513	  34.394
     37.7505	  41.000	  43.619	-251.369	  34.339
     37.7839	  39.000	  43.500	-253.250	  34.284
     37.8174	  34.000	  43.403	-258.153	  34.229
     37.8508	  28.000	  43.327	-264.077	  34.174
     37.8842	  30.000	  43.270	-262.020	  34.120
     37.9176	  48.000	  43.231	-243.981	  34.065
     37.9510	  47.000	  43.208	-244.958	  34.011
     37.9845	  38.000	  43.202	-253.952	  33.957
     38.0179	  39.000	  43.211	-252.961	  33.903
     38.0513	  37.000	  43.234	-254.984	  33.849
     38.0847	  35.000	  43.272	-257.022	  33.795
     38.1182	  45.000	  43.325	-247.075	  33.741
     38.1516	  38.000	  43.391	-254.141	  33.687
     38.1850	  42.000	  43.472	-250.222	  33.633
     38.2184	  34.000	  43.566	-258.316	  33.580
     38.2519	  64.000	  43.675	-228.425	  33.527
     38.2853	  35.000	  43.798	-257.548	  33.473
     38.3187	  41.000	  43.937	-251.687	  33.420
     38.3521	  46.000	  44.090	-246.840	  33.367
     38.3855	  43.000	  44.260	-250.010	  33.314
     38.4190	  48.000	  44.446	-245.196	  33.261
     38.4524	  37.000	  44.649	-256.398	  33.208
     38.4858	  50.000	  44.869	-243.619	  33.155
     38.5192	  46.000	  45.109	-247.859	  33.102
     38.5527	  35.000	  45.369	-259.119	  33.050
     38.5861	  39.000	  45.650	-255.400	  32.997
     38.6195	  57.000	  45.953	-237.703	  32.945
     38.6529	  39.000	  46.279	-256.029	  32.893
     38.6863	  52.000	  46.632	-243.382	  32.841
     38.7198	  48.000	  47.011	-247.761	  32.788
     38.7532	  41.000	  47.419	-255.169	  32.736
     38.7866	  48.000	  47.859	-248.609	  32.685
     38.8200	  59.000	  48.332	-238.082	  32.633
     38.8535	  47.000	  48.842	-250.592	  32.581
     38.8869	  56.000	  49.391	-242.141	  32.529
     38.9203	  51.000	  49.983	-247.733	  32.478
     38.9537	  47.000	  50.621	-252.371	  32.427
     38.9872	  52.000	  51.310	-248.060	  32.375
     39.0206	  56.000	  52.055	-244.805	  32.324
     39.0540	  57.000	  52.859	-244.609	  32.273
     39.0874	  63.000	  53.730	-239.480	  32.222
     39.1208	  63.000	  54.675	-240.425	  32.171
     39.1543	  64.000	  55.699	-240.449	  32.120
     39.1877	  62.000	  56.813	-243.563	  32.069
     39.2211	  57.000	  58.025	-249.775	  32.019
     39.2545	  64.000	  59.348	-244.098	  31.968
     39.2880	  73.000	  60.792	-236.542	  31.918
     39.3214	  62.000	  62.373	-249.123	  31.867
     39.3548	  78.000	  64.107	-234.857	  31.817
     39.3882	  74.000	  66.013	-240.763	  31.767
     39.4216	  66.000	  68.114	-250.864	  31.717
     39.4551	  76.000	  70.434	-243.184	  31.667
     39.4885	  68.000	  73.005	-253.755	  31.617
     39.5219	  83.000	  75.861	-241.611	  31.567
     39.5553	  85.000	  79.045	-242.795	  31.518
     39.5888	  78.000	  82.605	-253.355	  31.468
     39.6222	 102.000	  86.601	-233.351	  31.418
     39.6556	 106.000	  91.103	-233.853	  31.369
     39.6890	 111.000	  96.196	-233.946	  31.320
     39.7224	 111.000	 101.981	-239.731	  31.271
     39.7559	 118.000	 108.580	-239.330	  31.221
     39.7893	 125.000	 116.143	-239.893	  31.172
     39.8227	 128.000	 124.843	-245.593	  31.123
     39.8561	 165.000	 134.894	-218.644	  31.075
     39.8896	 148.000	 146.546	-247.296	  31.026
     39.9230	 170.000	 160.096	-238.846	  30.977
     39.9564	 172.000	 175.938	-252.688	  30.929
     39.9898	 207.000	 194.355	-236.105	  30.880
     40.0233	 222.000	 215.815	-242.565	  30.832
     40.0567	 267.000	 240.725	-222.475	  30.784
     40.0901	 306.000	 269.461	-212.211	  30.735
     40.1235	 322.000	 302.127	-228.877	  30.687
     40.1569	 353.000	 338.504	-234.254	  30.639
     40.1904	 466.000	 377.735	-160.485	  30.591
     40.2238	 478.000	 418.013	-188.763	  30.544
     40.2572	 570.000	 456.440	-135.190	  30.496
     40.2906	 631.000	 489.253	-107.003	  30.448
     40.3241	 605.000	 512.522	-156.272	  30.401
     40.3575	 666.000	 523.247	-105.997	  30.353
     40.3909	 645.000	 520.127	-123.877	  30.306
     40.4243	 615.000	 503.881	-137.631	  30.259
     40.4577	 580.000	 476.931	-145.681	  30.211
     40.4912	 547.000	 442.549	-144.299	  30.164
     40.5246	 498.000	 404.113	-154.863	  30.117
     40.5580	 457.000	 364.785	-156.535	  30.070
     40.5914	 364.000	 326.917	-211.667	  30.024
     40.6249	 328.000	 291.969	-212.719	  29.977
     40.6583	 271.000	 260.646	-238.396	  29.930
     40.6917	 283.000	 233.127	-198.877	  29.884
     40.7251	 240.000	 209.232	-217.982	  29.837
     40.7585	 195.000	 188.628	-242.378	  29.791
     40.7920	 196.000	 170.928	-223.678	  29.745
     40.8254	 172.000	 155.732	-232.482	  29.699
     40.8588	 172.000	 142.676	-219.426	  29.653
     40.8922	 132.000	 131.431	-248.181	  29.607
     40.9257	 129.000	 121.715	-241.465	  29.561
     40.9591	 143.000	 113.541	-219.291	  29.515
     40.9925	 112.000	 106.211	-242.961	  29.469
     41.0259	 103.000	  99.805	-245.555	  29.424
     41.0593	 105.000	  94.182	-237.932	  29.378
     41.0928	 104.000	  89.348	-234.098	  29.333
     41.1262	  94.000	  84.963	-239.713	  29.287
     41.1596	 101.000	  81.068	-228.818	  29.242
     41.1930	  88.000	  77.594	-238.344	  29.197
     41.2265	  90.000	  74.488	-233.238	  29.152
     41.2599	  55.000	  71.701	-265.451	  29.107
     41.2933	  72.000	  69.194	-245.944	  29.062
     41.3267	  70.000	  66.934	-245.684	  29.017
     41.3602	  52.000	  64.891	-261.641	  28.972
     41.3936	  57.000	  63.042	-254.792	  28.928
     41.4270	  70.000	  61.366	-240.116	  28.883
     41.4604	  66.000	  59.844	-242.594	  28.839
     41.4938	  51.000	  58.462	-256.212	  28.794
     41.5273	  56.000	  57.206	-249.956	  28.750
     41.5607	  57.000	  56.066	-247.816	  28.706
     41.5941	  71.000	  55.030	-232.780	  28.662
     41.6275	  58.000	  54.092	-244.842	  28.618
     41.6610	  50.000	  53.243	-251.993	  28.574
     41.6944	  68.000	  52.477	-233.227	  28.530
     41.7278	  54.000	  51.790	-246.540	  28.486
     41.7612	  60.000	  51.177	-239.927	  28.443
     41.7946	  46.000	  50.634	-253.384	  28.399
     41.8281	  54.000	  50.160	-244.910	  28.356
     41.8615	  62.000	  49.752	-236.502	  28.312
     41.8949	  50.000	  49.409	-248.159	  28.269
     41.9283	  46.000	  49.131	-251.881	  28.226
     41.9618	  54.000	  48.917	-243.667	  28.183
     41.9952	  57.000	  48.770	-240.520	  28.140
     42.0286	  47.000	  48.691	-250.441	  28.097
     42.0620	  45.000	  48.682	-252.432	  28.054
     42.0954	  68.000	  48.749	-229.499	  28.011
     42.1289	  47.000	  48.897	-250.647	  27.969
     42.1623	  28.000	  49.131	-269.881	  27.926
     42.1957	  60.000	  49.461	-238.211	  27.883
     42.2291	  58.000	  49.896	-240.646	  27.841
     42.2626	  73.000	  50.450	-226.200	  27.799
     42.2960	  61.000	  51.139	-238.889	  27.756
     42.3294	  52.000	  51.981	-248.731	  27.714
     42.3628	  43.000	  53.000	-258.750	  27.672
     42.3963	  56.000	  54.224	-246.974	  27.630
     42.4297	  55.000	  55.685	-249.435	  27.588
     42.4631	  71.000	  57.426	-235.176	  27.547
     42.4965	  56.000	  59.494	-252.244	  27.505
     42.5299	  85.000	  61.943	-225.693	  27.463
     42.5634	  60.000	  64.840	-253.590	  27.422
     42.5968	  74.000	  68.253	-243.003	  27.380
     42.6302	  66.000	  72.255	-255.005	  27.339
     42.6636	  97.000	  76.920	-228.670	  27.298
     42.6971	  87.000	  82.292	-244.042	  27.256
     42.7305	  92.000	  88.416	-245.166	  27.215
     42.7639	 115.000	  95.146	-228.896	  27.174
     42.7973	 124.000	 102.310	-227.060	  27.133
     42.8307	 119.000	 109.532	-239.282	  27.092
     42.8642	 131.000	 116.267	-234.017	  27.052
     42.8976	 156.000	 121.792	-214.542	  27.011
     42.9310	 164.000	 125.463	-210.213	  26.970
     42.9644	 135.000	 126.813	-240.563	  26.930
     42.9979	 146.000	 125.702	-228.452	  26.889
     43.0313	 136.000	 122.315	-235.065	  26.849
     43.0647	 125.000	 117.082	-240.832	  26.809
     43.0981	 112.000	 110.566	-247.316	  26.769
     43.1315	 115.000	 103.365	-237.115	  26.728
     43.1650	 110.000	  96.014	-234.764	  26.688
     43.1984	  89.000	  88.916	-248.666	  26.649
     43.2318	  99.000	  82.339	-232.089	  26.609
     43.2652	  78.000	  76.411	-247.161	  26.569
     43.2987	  69.000	  71.167	-250.917	  26.529
     43.3321	  59.000	  66.585	-256.335	  26.490
     43.3655	  69.000	  62.605	-242.355	  26.450
     43.3989	  56.000	  59.163	-251.913	  26.411
     43.4324	  56.000	  56.185	-248.935	  26.371
     43.4658	  64.000	  53.607	-238.357	  26.332
     43.4992	  50.000	  51.370	-250.120	  26.293
     43.5326	  54.000	  49.422	-244.172	  26.254
     43.5660	  47.000	  47.719	-249.469	  26.215
     43.5995	  39.000	  46.225	-255.975	  26.176
     43.6329	  48.000	  44.906	-245.656	  26.137
     43.6663	  55.000	  43.739	-237.489	  26.098
     43.6997	  49.000	  42.700	-242.450	  26.060
     43.7332	  41.000	  41.771	-249.521	  26.021
     43.7666	  45.000	  40.937	-244.687	  25.983
     43.8000	  37.000	  40.186	-251.936	  25.944
     43.8334	  41.000	  39.505	-247.255	  25.906
     43.8668	  36.000	  38.888	-251.638	  25.868
     43.9003	  52.000	  38.325	-235.075	  25.829
     43.9337	  45.000	  37.810	-241.560	  25.791
     43.9671	  36.000	  37.338	-250.088	  25.753
     44.0005	  35.000	  36.904	-250.654	  25.715
     44.0340	  34.000	  36.504	-251.254	  25.678
     44.0674	  42.000	  36.133	-242.883	  25.640
     44.1008	  33.000	  35.790	-251.540	  25.602
     44.1342	  33.000	  35.472	-251.222	  25.565
     44.1676	  49.000	  35.175	-234.925	  25.527
     44.2011	  41.000	  34.898	-242.648	  25.490
     44.2345	  35.000	  34.640	-248.390	  25.452
     44.2679	  32.000	  34.398	-251.148	  25.415
     44.3013	  35.000	  34.171	-247.921	  25.378
     44.3348	  50.000	  33.958	-232.708	  25.341
     44.3682	  45.000	  33.758	-237.508	  25.304
     44.4016	  31.000	  33.570	-251.320	  25.267
     44.4350	  38.000	  33.392	-244.142	  25.230
     44.4684	  31.000	  33.224	-250.974	  25.193
     44.5019	  34.000	  33.066	-247.816	  25.156
     44.5353	  32.000	  32.916	-249.666	  25.120
     44.5687	  23.000	  32.775	-258.525	  25.083
     44.6021	  33.000	  32.641	-248.391	  25.047
     44.6356	  34.000	  32.514	-247.264	  25.010
     44.6690	  39.000	  32.394	-242.144	  24.974
     44.7024	  32.000	  32.280	-249.030	  24.938
     44.7358	  28.000	  32.172	-252.922	  24.902
     44.7692	  36.000	  32.069	-244.819	  24.866
     44.8027	  39.000	  31.972	-241.722	  24.830
     44.8361	  35.000	  31.880	-245.630	  24.794
     44.8695	  34.000	  31.793	-246.543	  24.758
     44.9029	  37.000	  31.710	-243.460	  24.722
     44.9364	  41.000	  31.632	-239.382	  24.686
     44.9698	  31.000	  31.557	-249.307	  24.651
     45.0032	  34.000	  31.487	-246.237	  24.615
     45.0366	  20.000	  31.421	-260.171	  24.580
     45.0701	  34.000	  31.359	-246.109	  24.545
     45.1035	  23.000	  31.300	-257.050	  24.509
     45.1369	  34.000	  31.245	-245.995	  24.474
     45.1703	  36.000	  31.169	-243.919	  24.439
     45.2037	  29.000	  31.121	-250.871	  24.404
     45.2372	  27.000	  31.064	-252.814	  24.369
     45.2706	  25.000	  31.022	-254.772	  24.334
     45.3040	  42.000	  30.984	-237.734	  24.299
     45.3374	  30.000	  30.948	-249.698	  24.265
     45.3709	  34.000	  30.916	-245.666	  24.230
     45.4043	  33.000	  30.886	-246.636	  24.195
     45.4377	  44.000	  30.860	-235.610	  24.161
     45.4711	  31.000	  30.836	-248.586	  24.127
     45.5045	  33.000	  30.816	-246.566	  24.092
     45.5380	  28.000	  30.798	-251.548	  24.058
     45.5714	  39.000	  30.784	-240.534	  24.024
     45.6048	  28.000	  30.772	-251.522	  23.990
     45.6382	  36.000	  30.763	-243.513	  23.956
     45.6717	  23.000	  30.757	-256.507	  23.922
     45.7051	  35.000	  30.754	-244.504	  23.888
     45.7385	  37.000	  30.754	-242.504	  23.854
     45.7719	  19.000	  30.758	-260.508	  23.820
     45.8053	  36.000	  30.764	-243.514	  23.787
     45.8388	  33.000	  30.773	-246.523	  23.753
     45.8722	  44.000	  30.786	-235.536	  23.720
     45.9056	  32.000	  30.801	-247.551	  23.686
     45.9390	  20.000	  30.820	-259.570	  23.653
     45.9725	  33.000	  30.843	-246.593	  23.620
     46.0059	  24.000	  30.869	-255.619	  23.587
     46.0393	  24.000	  30.898	-255.648	  23.554
     46.0727	  29.000	  30.931	-250.681	  23.521
     46.1062	  48.000	  30.968	-231.718	  23.488
     46.1396	  32.000	  31.008	-247.758	  23.455
     46.1730	  30.000	  31.053	-249.803	  23.422
     46.2064	  34.000	  31.101	-245.851	  23.389
     46.2398	  43.000	  31.154	-236.904	  23.357
     46.2733	  32.000	  31.211	-247.961	  23.324
     46.3067	  28.000	  31.273	-252.023	  23.292
     46.3401	  32.000	  31.339	-248.089	  23.259
     46.3735	  38.000	  31.410	-242.160	  23.227
     46.4070	  34.000	  31.486	-246.236	  23.195
     46.4404	  28.000	  31.567	-252.317	  23.162
     46.4738	  25.000	  31.654	-255.404	  23.130
     46.5072	  45.000	  31.747	-235.497	  23.098
     46.5406	  33.000	  31.845	-247.595	  23.066
     46.5741	  48.000	  31.950	-232.700	  23.034
     46.6075	  29.000	  32.061	-251.811	  23.003
     46.6409	  39.000	  32.179	-241.929	  22.971
     46.6743	  39.000	  32.304	-242.054	  22.939
     46.7078	  35.000	  32.437	-246.187	  22.908
     46.7412	  42.000	  32.578	-239.328	  22.876
     46.7746	  44.000	  32.727	-237.477	  22.845
     46.8080	  32.000	  32.885	-249.635	  22.813
     46.8414	  29.000	  33.052	-252.802	  22.782
     46.8749	  33.000	  33.229	-248.979	  22.751
     46.9083	  33.000	  33.416	-249.166	  22.720
     46.9417	  49.000	  33.615	-233.365	  22.689
     46.9751	  44.000	  33.825	-238.575	  22.658
     47.0086	  43.000	  34.047	-239.797	  22.627
     47.0420	  55.000	  34.283	-228.033	  22.596
     47.0754	  41.000	  34.532	-242.282	  22.565
     47.1088	  41.000	  34.797	-242.547	  22.534
     47.1423	  37.000	  35.078	-246.828	  22.504
     47.1757	  56.000	  35.376	-228.126	  22.473
     47.2091	  43.000	  35.692	-241.442	  22.443
     47.2425	  57.000	  36.028	-227.778	  22.412
     47.2759	  46.000	  36.385	-239.135	  22.382
     47.3094	  39.000	  36.764	-246.514	  22.352
     47.3428	  47.000	  37.169	-238.919	  22.322
     47.3762	  51.000	  37.600	-235.350	  22.292
     47.4096	  56.000	  38.059	-230.809	  22.262
     47.4431	  54.000	  38.550	-233.300	  22.232
     47.4765	  45.000	  39.074	-242.824	  22.202
     47.5099	  47.000	  39.635	-241.385	  22.172
     47.5433	  57.000	  40.237	-231.987	  22.142
     47.5767	  60.000	  40.882	-229.632	  22.112
     47.6102	  47.000	  41.576	-243.326	  22.083
     47.6436	  65.000	  42.322	-226.072	  22.053
     47.6770	  63.000	  43.127	-228.877	  22.024
     47.7104	  52.000	  43.997	-240.747	  21.994
     47.7439	  70.000	  44.938	-223.688	  21.965
     47.7773	  61.000	  45.960	-233.710	  21.936
     47.8107	  75.000	  47.070	-220.820	  21.907
     47.8441	  63.000	  48.280	-234.030	  21.878
     47.8775	  64.000	  49.602	-234.352	  21.849
     47.9110	  64.000	  51.139	-235.889	  21.820
     47.9444	  70.000	  52.732	-231.482	  21.791
     47.9778	  55.000	  54.490	-248.240	  21.762
     48.0112	  91.000	  56.434	-214.184	  21.733
     48.0447	  64.000	  58.593	-243.343	  21.704
     48.0781	  78.000	  61.042	-231.792	  21.676
     48.1115	 100.000	  63.731	-212.481	  21.647
     48.1449	  94.000	  66.747	-221.497	  21.619
     48.1783	 103.000	  70.141	-215.891	  21.590
     48.2118	 112.000	  73.970	-210.720	  21.562
     48.2452	  89.000	  78.299	-238.049	  21.534
     48.2786	  94.000	  83.251	-238.001	  21.506
     48.3120	 112.000	  88.794	-225.544	  21.478
     48.3455	 110.000	  95.048	-233.798	  21.450
     48.3789	 129.000	 102.066	-221.816	  21.422
     48.4123	 143.000	 109.864	-215.614	  21.394
     48.4457	 149.000	 118.421	-218.171	  21.366
     48.4792	 149.000	 127.552	-227.302	  21.338
     48.5126	 171.000	 137.034	-214.784	  21.310
     48.5460	 195.000	 146.528	-200.278	  21.283
     48.5794	 239.000	 155.646	-165.396	  21.255
     48.6128	 255.000	 164.076	-157.826	  21.228
     48.6463	 229.000	 171.667	-191.417	  21.200
     48.6797	 245.000	 178.495	-182.245	  21.173
     48.7131	 238.000	 184.835	-195.585	  21.146
     48.7465	 232.000	 191.088	-207.838	  21.118
     48.7800	 255.000	 197.415	-191.165	  21.091
     48.8134	 250.000	 204.864	-203.614	  21.064
     48.8468	 283.000	 213.443	-179.193	  21.037
     48.8802	 267.000	 223.102	-204.852	  21.010
     48.9136	 264.000	 233.921	-218.671	  20.983
     48.9471	 317.000	 245.188	-176.938	  20.957
     48.9805	 310.000	 256.028	-194.778	  20.930
     49.0139	 297.000	 265.442	-217.192	  20.903
     49.0473	 332.000	 272.561	-189.311	  20.877
     49.0808	 334.000	 276.889	-191.639	  20.850
     49.1142	 333.000	 278.429	-194.179	  20.824
     49.1476	 349.000	 277.621	-177.371	  20.797
     49.1810	 340.000	 275.224	-183.974	  20.771
     49.2144	 350.000	 272.175	-170.925	  20.745
     49.2479	 331.000	 269.506	-187.256	  20.719
     49.2813	 294.000	 268.209	-222.959	  20.692
     49.3147	 329.000	 269.158	-188.908	  20.666
     49.3481	 366.000	 273.043	-155.793	  20.640
     49.3816	 327.000	 280.315	-202.065	  20.614
     49.4150	 373.000	 291.208	-166.958	  20.589
     49.4484	 403.000	 305.670	-151.420	  20.563
     49.4818	 426.000	 323.292	-146.042	  20.537
     49.5153	 428.000	 343.237	-163.987	  20.511
     49.5487	 504.000	 364.078	-108.828	  20.486
     49.5821	 511.000	 383.870	-121.620	  20.460
     49.6155	 508.000	 400.324	-141.074	  20.435
     49.6489	 530.000	 411.232	-129.982	  20.409
     49.6824	 594.000	 415.008	 -69.758	  20.384
     49.7158	 556.000	 411.016	-103.766	  20.359
     49.7492	 574.000	 399.580	 -74.330	  20.334
     49.7826	 529.000	 381.751	-101.501	  20.309
     49.8161	 458.000	 359.041	-149.791	  20.284
     49.8495	 472.000	 333.149	-109.899	  20.259
     49.8829	 398.000	 305.788	-156.538	  20.234
     49.9163	 383.000	 278.470	-144.220	  20.209
     49.9497	 332.000	 252.335	-169.085	  20.184
     49.9832	 288.000	 228.141	-188.891	  20.159
     50.0166	 276.000	 206.252	-179.002	  20.135
     50.0500	 246.000	 186.769	-189.519	  20.110
     50.0834	 232.000	 169.613	-186.363	  20.085
     50.1169	 196.000	 154.602	-207.352	  20.061
     50.1503	 154.000	 141.511	-236.261	  20.037
     50.1837	 156.000	 130.116	-222.866	  20.012
     50.2171	 168.000	 120.188	-200.938	  19.988
     50.2505	 119.000	 111.532	-241.282	  19.964
     50.2840	 142.000	 103.969	-210.719	  19.940
     50.3174	 117.000	  97.344	-229.094	  19.915
     50.3508	 117.000	  91.527	-223.277	  19.891
     50.3842	 126.000	  86.436	-209.186	  19.868
     50.4177	 101.000	  81.915	-229.665	  19.844
     50.4511	 110.000	  77.916	-216.666	  19.820
     50.4845	  84.000	  74.371	-239.121	  19.796
     50.5179	  97.000	  71.225	-222.975	  19.772
     50.5513	  85.000	  68.447	-232.197	  19.749
     50.5848	  88.000	  65.966	-226.716	  19.725
     50.6182	  56.000	  63.766	-256.516	  19.702
     50.6516	  69.000	  61.821	-241.571	  19.678
     50.6850	  73.000	  60.108	-235.858	  19.655
     50.7185	  77.000	  58.612	-230.362	  19.632
     50.7519	  74.000	  57.342	-232.092	  19.608
     50.7853	  77.000	  56.242	-227.992	  19.585
     50.8187	  75.000	  55.330	-229.080	  19.562
     50.8521	  63.000	  54.602	-240.352	  19.539
     50.8856	  65.000	  54.061	-237.811	  19.516
     50.9190	  62.000	  53.722	-240.472	  19.493
     50.9524	  69.000	  53.569	-233.319	  19.470
     50.9858	  79.000	  53.627	-223.377	  19.447
     51.0193	  59.000	  53.910	-243.660	  19.424
     51.0527	  57.000	  54.440	-246.190	  19.402
     51.0861	  55.000	  55.238	-248.988	  19.379
     51.1195	  69.000	  56.333	-236.083	  19.357
     51.1530	  69.000	  57.750	-237.500	  19.334
     51.1864	  72.000	  59.515	-236.265	  19.312
     51.2198	  79.000	  61.644	-231.394	  19.289
     51.2532	  81.000	  64.135	-231.885	  19.267
     51.2866	  82.000	  66.953	-233.703	  19.245
     51.3201	  81.000	  70.012	-237.762	  19.223
     51.3535	 109.000	  73.159	-212.909	  19.200
     51.3869	  95.000	  76.169	-229.919	  19.178
     51.4203	  98.000	  78.761	-229.511	  19.156
     51.4538	 103.000	  80.587	-226.337	  19.134
     51.4872	  96.000	  81.534	-234.284	  19.112
     51.5206	 105.000	  81.424	-225.174	  19.091
     51.5540	 121.000	  80.235	-207.985	  19.069
     51.5874	 114.000	  78.139	-212.889	  19.047
     51.6209	 101.000	  75.284	-223.034	  19.026
     51.6543	 113.000	  71.884	-207.634	  19.004
     51.6877	  85.000	  68.168	-231.918	  18.982
     51.7211	  92.000	  64.347	-221.097	  18.961
     51.7546	  69.000	  60.602	-240.352	  18.940
     51.7880	  71.000	  57.059	-234.809	  18.918
     51.8214	  44.000	  53.795	-258.545	  18.897
     51.8548	  71.000	  50.843	-228.593	  18.876
     51.8883	  54.000	  48.208	-242.958	  18.855
     51.9217	  51.000	  45.873	-243.623	  18.833
     51.9551	  43.000	  43.812	-249.562	  18.812
     51.9885	  51.000	  41.996	-239.746	  18.791
     52.0219	  55.000	  40.396	-234.146	  18.770
     52.0554	  43.000	  38.982	-244.732	  18.750
     52.0888	  54.000	  37.730	-232.480	  18.729
     52.1222	  43.000	  36.619	-242.369	  18.708
     52.1556	  35.000	  35.627	-249.377	  18.687
     52.1891	  49.000	  34.740	-234.490	  18.667
     52.2225	  41.000	  33.942	-241.692	  18.646
     52.2559	  41.000	  33.222	-240.972	  18.626
     52.2893	  48.000	  32.569	-233.319	  18.605
     52.3227	  37.000	  31.975	-243.725	  18.585
     52.3562	  34.000	  31.433	-246.183	  18.565
     52.3896	  32.000	  30.936	-247.686	  18.544
     52.4230	  31.000	  30.479	-248.229	  18.524
     52.4564	  33.000	  30.057	-245.807	  18.504
     52.4899	  39.000	  29.667	-239.417	  18.484
     52.5233	  35.000	  29.305	-243.055	  18.464
     52.5567	  30.000	  28.969	-247.719	  18.444
     52.5901	  32.000	  28.655	-245.405	  18.424
     52.6235	  27.000	  28.361	-250.111	  18.404
     52.6570	  43.000	  28.087	-233.837	  18.384
     52.6904	  25.000	  27.829	-251.579	  18.364
     52.7238	  25.000	  27.587	-251.337	  18.345
     52.7572	  23.000	  27.359	-253.109	  18.325
     52.7907	  24.000	  27.143	-251.893	  18.306
     52.8241	  32.000	  26.940	-243.690	  18.286
     52.8575	  24.000	  26.748	-251.498	  18.267
     52.8909	  25.000	  26.566	-250.316	  18.247
     52.9244	  28.000	  26.394	-247.144	  18.228
     52.9578	  23.000	  26.230	-251.980	  18.208
     52.9912	  28.000	  26.075	-246.825	  18.189
     53.0246	  28.000	  25.928	-246.678	  18.170
     53.0580	  31.000	  25.787	-243.537	  18.151
     53.0915	  21.000	  25.653	-253.403	  18.132
     53.1249	  38.000	  25.526	-236.276	  18.113
     53.1583	  25.000	  25.405	-249.155	  18.094
     53.1917	  23.000	  25.289	-251.039	  18.075
     53.2252	  29.000	  25.179	-244.929	  18.056
     53.2586	  37.000	  25.074	-236.824	  18.037
     53.2920	  23.000	  24.974	-250.724	  18.019
     53.3254	  31.000	  24.878	-242.628	  18.000
     53.3588	  23.000	  24.787	-250.537	  17.981
     53.3923	  35.000	  24.700	-238.450	  17.963
     53.4257	  42.000	  24.618	-231.368	  17.944
     53.4591	  38.000	  24.539	-235.289	  17.926
     53.4925	  23.000	  24.463	-250.213	  17.907
     53.5260	  28.000	  24.392	-245.142	  17.889
     53.5594	  32.000	  24.324	-241.074	  17.871
     53.5928	  23.000	  24.259	-250.009	  17.853
     53.6262	  32.000	  24.199	-240.949	  17.834
     53.6596	  25.000	  24.141	-247.891	  17.816
     53.6931	  35.000	  24.086	-237.836	  17.798
     53.7265	  31.000	  24.035	-241.785	  17.780
     53.7599	  22.000	  23.986	-250.736	  17.762
     53.7933	  22.000	  23.941	-250.691	  17.744
     53.8268	  17.000	  23.898	-255.648	  17.727
     53.8602	  24.000	  23.858	-248.608	  17.709
     53.8936	  27.000	  23.821	-245.571	  17.691
     53.9270	  22.000	  23.786	-250.536	  17.673
     53.9604	  33.000	  23.755	-239.505	  17.656
     53.9939	  19.000	  23.726	-253.476	  17.638
     54.0273	  23.000	  23.700	-249.450	  17.621
     54.0607	  30.000	  23.677	-242.427	  17.603
     54.0941	  25.000	  23.656	-247.406	  17.586
     54.1276	  23.000	  23.639	-249.389	  17.568
     54.1610	  25.000	  23.624	-247.374	  17.551
     54.1944	  31.000	  23.612	-241.362	  17.534
     54.2278	  24.000	  23.603	-248.353	  17.517
     54.2612	  24.000	  23.597	-248.347	  17.499
     54.2947	  33.000	  23.594	-239.344	  17.482
     54.3281	  30.000	  23.594	-242.344	  17.465
     54.3615	  28.000	  23.597	-244.347	  17.448
     54.3949	  28.000	  23.603	-244.353	  17.431
     54.4284	  34.000	  23.613	-238.363	  17.415
     54.4618	  31.000	  23.625	-241.375	  17.398
     54.4952	  22.000	  23.641	-250.391	  17.381
     54.5286	  36.000	  23.661	-236.411	  17.364
     54.5621	  34.000	  23.684	-238.434	  17.348
     54.5955	  24.000	  23.711	-248.461	  17.331
     54.6289	  27.000	  23.742	-245.492	  17.314
     54.6623	  36.000	  23.777	-236.527	  17.298
     54.6957	  25.000	  23.817	-247.567	  17.281
     54.7292	  31.000	  23.861	-241.611	  17.265
     54.7626	  32.000	  23.909	-240.659	  17.249
     54.7960	  29.000	  23.962	-243.712	  17.232
     54.8294	  32.000	  24.021	-240.771	  17.216
     54.8629	  30.000	  24.084	-242.834	  17.200
     54.8963	  33.000	  24.154	-239.904	  17.184
     54.9297	  22.000	  24.229	-250.979	  17.168
     54.9631	  33.000	  24.311	-240.061	  17.152
     54.9965	  23.000	  24.399	-250.149	  17.136
     55.0300	  30.000	  24.494	-243.244	  17.120
     55.0634	  25.000	  24.596	-248.346	  17.104
     55.0968	  24.000	  24.706	-249.456	  17.088
     55.1302	  28.000	  24.823	-245.573	  17.072
     55.1637	  31.000	  24.948	-242.698	  17.056
     55.1971	  29.000	  25.081	-244.831	  17.041
     55.2305	  37.000	  25.224	-236.974	  17.025
     55.2639	  28.000	  25.375	-246.125	  17.009
     55.2973	  29.000	  25.537	-245.287	  16.994
     55.3308	  34.000	  25.710	-240.460	  16.978
     55.3642	  15.000	  25.894	-259.644	  16.963
     55.3976	  23.000	  26.092	-251.842	  16.948
     55.4310	  25.000	  26.305	-250.055	  16.932
     55.4645	  32.000	  26.533	-243.283	  16.917
     55.4979	  36.000	  26.779	-239.529	  16.902
     55.5313	  31.000	  27.043	-244.793	  16.887
     55.5647	  21.000	  27.328	-255.078	  16.871
     55.5982	  34.000	  27.634	-242.384	  16.856
     55.6316	  36.000	  27.965	-240.715	  16.841
     55.6650	  36.000	  28.323	-241.073	  16.826
     55.6984	  33.000	  28.709	-244.459	  16.811
     55.7318	  33.000	  29.127	-244.877	  16.796
     55.7653	  39.000	  29.579	-239.329	  16.782
     55.7987	  34.000	  30.070	-244.820	  16.767
     55.8321	  30.000	  30.603	-249.353	  16.752
     55.8655	  38.000	  31.182	-241.932	  16.737
     55.8990	  27.000	  31.814	-253.564	  16.723
     55.9324	  25.000	  32.503	-256.253	  16.708
     55.9658	  34.000	  33.346	-248.096	  16.693
     55.9992	  37.000	  34.173	-245.923	  16.679
     56.0326	  42.000	  35.081	-241.831	  16.665
     56.0661	  32.000	  36.081	-252.831	  16.650
     56.0995	  35.000	  37.185	-250.935	  16.636
     56.1329	  39.000	  38.451	-248.201	  16.621
     56.1663	  45.000	  39.809	-243.559	  16.607
     56.1998	  38.000	  41.320	-252.070	  16.593
     56.2332	  46.000	  43.008	-245.758	  16.579
     56.2666	  49.000	  44.899	-244.649	  16.565
     56.3000	  46.000	  47.024	-249.774	  16.551
     56.3334	  44.000	  49.419	-254.169	  16.537
     56.3669	  71.000	  52.127	-229.877	  16.523
     56.4003	  54.000	  55.195	-249.945	  16.509
     56.4337	  60.000	  58.681	-247.431	  16.495
     56.4671	  65.000	  62.644	-246.394	  16.481
     56.5006	  70.000	  67.155	-245.905	  16.467
     56.5340	  66.000	  72.287	-255.037	  16.453
     56.5674	  78.000	  78.111	-248.861	  16.440
     56.6008	  74.000	  84.694	-259.444	  16.426
     56.6343	  96.000	  92.076	-244.826	  16.412
     56.6677	 109.000	 100.254	-240.004	  16.399
     56.7011	 114.000	 109.157	-243.907	  16.385
     56.7345	 137.000	 118.604	-230.354	  16.372
     56.7679	 164.000	 128.285	-213.035	  16.359
     56.8014	 150.000	 137.756	-236.506	  16.345
     56.8348	 155.000	 146.471	-240.221	  16.332
     56.8682	 175.000	 153.899	-227.649	  16.319
     56.9016	 193.000	 159.618	-215.368	  16.305
     56.9351	 209.000	 163.438	-203.188	  16.292
     56.9685	 195.000	 165.403	-219.153	  16.279
     57.0019	 176.000	 165.743	-238.493	  16.266
     57.0353	 168.000	 164.789	-245.539	  16.253
     57.0687	 177.000	 162.899	-234.649	  16.240
     57.1022	 194.000	 160.418	-215.168	  16.227
     57.1356	 200.000	 157.616	-206.366	  16.214
     57.1690	 162.000	 154.647	-241.397	  16.201
     57.2024	 162.000	 151.515	-238.265	  16.188
     57.2359	 162.000	 148.095	-234.845	  16.175
     57.2693	 131.000	 144.199	-261.949	  16.163
     57.3027	 159.000	 139.616	-229.366	  16.150
     57.3361	 145.000	 134.372	-238.122	  16.137
     57.3695	 129.000	 128.447	-248.197	  16.125
     57.4030	 124.000	 121.976	-246.726	  16.112
     57.4364	 122.000	 115.023	-241.773	  16.100
     57.4698	 135.000	 107.851	-221.601	  16.087
     57.5032	 102.000	 100.632	-247.382	  16.075
     57.5367	 100.000	  93.565	-242.315	  16.062
     57.5701	  83.000	  86.835	-252.585	  16.050
     57.6035	  91.000	  80.540	-238.290	  16.038
     57.6369	  77.000	  74.772	-246.522	  16.026
     57.6703	  71.000	  69.561	-247.311	  16.013
     57.7038	  68.000	  64.901	-245.651	  16.001
     57.7372	  69.000	  60.656	-240.406	  15.989
     57.7706	  56.000	  56.995	-249.745	  15.977
     57.8040	  56.000	  53.766	-246.516	  15.965
     57.8375	  50.000	  50.918	-249.668	  15.953
     57.8709	  57.000	  48.349	-240.099	  15.941
     57.9043	  45.000	  46.137	-249.887	  15.929
     57.9377	  50.000	  44.178	-242.928	  15.917
     57.9712	  48.000	  42.445	-243.195	  15.905
     58.0046	  48.000	  40.908	-241.658	  15.894
     58.0380	  37.000	  39.544	-251.294	  15.882
     58.0714	  41.000	  38.333	-246.083	  15.870
     58.1048	  29.000	  37.255	-257.005	  15.859
     58.1383	  28.000	  36.296	-257.046	  15.847
     58.1717	  43.000	  35.444	-241.194	  15.835
     58.2051	  36.000	  34.687	-247.437	  15.824
     58.2385	  37.000	  34.017	-245.767	  15.812
     58.2720	  47.000	  33.425	-235.175	  15.801
     58.3054	  33.000	  32.906	-248.656	  15.790
     58.3388	  27.000	  32.453	-254.203	  15.778
     58.3722	  45.000	  31.816	-235.566	  15.767
     58.4056	  29.000	  31.486	-251.236	  15.756
     58.4391	  28.000	  31.213	-251.963	  15.744
     58.4725	  29.000	  30.994	-250.744	  15.733
     58.5059	  29.000	  30.705	-250.455	  15.722
     58.5393	  30.000	  30.593	-249.343	  15.711
     58.5728	  24.000	  30.533	-255.283	  15.700
     58.6062	  35.000	  30.527	-244.277	  15.689
     58.6396	  25.000	  30.576	-254.326	  15.678
     58.6730	  29.000	  30.682	-250.432	  15.667
     58.7064	  28.000	  30.849	-251.599	  15.656
     58.7399	  35.000	  31.082	-244.832	  15.645
     58.7733	  32.000	  31.384	-248.134	  15.634
     58.8067	  33.000	  31.764	-247.514	  15.624
     58.8401	  34.000	  32.229	-246.979	  15.613
     58.8736	  37.000	  32.789	-244.539	  15.602
     58.9070	  50.000	  33.455	-232.205	  15.592
     58.9404	  33.000	  34.240	-249.990	  15.581
     58.9738	  34.000	  35.161	-249.911	  15.570
     59.0073	  29.000	  36.235	-255.985	  15.560
     59.0407	  34.000	  37.483	-252.233	  15.549
     59.0741	  38.000	  38.928	-249.678	  15.539
     59.1075	  45.000	  40.593	-244.343	  15.528
     59.1409	  42.000	  42.503	-249.253	  15.518
     59.1744	  54.000	  44.680	-239.430	  15.508
     59.2078	  47.000	  47.140	-248.890	  15.497
     59.2412	  51.000	  49.884	-247.634	  15.487
     59.2746	  49.000	  52.895	-252.645	  15.477
     59.3081	  52.000	  56.122	-252.872	  15.467
     59.3415	  54.000	  59.475	-254.225	  15.457
     59.3749	  62.000	  62.818	-249.568	  15.446
     59.4083	  71.000	  65.984	-243.734	  15.436
     59.4417	  52.000	  68.797	-265.547	  15.426
     59.4752	  74.000	  71.115	-245.865	  15.416
     59.5086	  82.000	  72.854	-239.604	  15.406
     59.5420	  78.000	  74.010	-244.760	  15.397
     59.5754	  85.000	  74.642	-238.392	  15.387
     59.6089	  61.000	  74.840	-262.590	  15.377
     59.6423	  71.000	  74.705	-252.455	  15.367
     59.6757	  73.000	  74.328	-250.078	  15.357
     59.7091	  73.000	  73.775	-249.525	  15.348
     59.7425	  89.000	  73.081	-232.831	  15.338
     59.7760	  82.000	  72.232	-238.982	  15.328
     59.8094	  69.000	  71.178	-250.928	  15.319
     59.8428	  81.000	  69.856	-237.606	  15.309
     59.8762	  83.000	  68.215	-233.965	  15.299
     59.9097	  72.000	  66.240	-242.990	  15.290
     59.9431	  76.000	  63.951	-236.701	  15.281
     59.9765	  61.000	  61.397	-249.147	  15.271
     60.0099	  69.000	  58.642	-238.392	  15.262
     60.0434	  60.000	  55.756	-244.506	  15.252
     60.0768	  57.000	  52.819	-244.569	  15.243
     60.1102	  54.000	  49.910	-244.660	  15.234
     60.1436	  49.000	  47.102	-246.852	  15.225
     60.1770	  56.000	  44.451	-237.201	  15.215
     60.2105	  38.000	  41.998	-252.748	  15.206
     60.2439	  37.000	  39.761	-251.511	  15.197
     60.2773	  47.000	  37.709	-239.459	  15.188
     60.3107	  36.000	  35.902	-248.652	  15.179
     60.3442	  48.000	  34.293	-235.043	  15.170
     60.3776	  36.000	  32.863	-245.613	  15.161
     60.4110	  37.000	  31.575	-243.325	  15.152
     60.4444	  35.000	  30.447	-244.197	  15.143
     60.4778	  36.000	  29.443	-242.193	  15.134
     60.5113	  20.000	  28.548	-257.298	  15.125
     60.5447	  45.000	  27.748	-231.498	  15.117
     60.5781	  20.000	  27.032	-255.782	  15.108
     60.6115	  18.000	  26.388	-257.138	  15.099
     60.6450	  22.000	  25.807	-252.557	  15.090
     60.6784	  25.000	  25.283	-249.033	  15.082
     60.7118	  29.000	  24.807	-244.557	  15.073
     60.7452	  25.000	  24.375	-248.125	  15.064
     60.7786	  28.000	  23.981	-244.731	  15.056
     60.8121	  28.000	  23.620	-244.370	  15.047
     60.8455	  18.000	  23.290	-254.040	  15.039
     60.8789	  19.000	  22.986	-252.736	  15.030
     60.9123	  20.000	  22.707	-251.457	  15.022
     60.9458	  25.000	  22.449	-246.199	  15.014
     60.9792	  20.000	  22.211	-250.961	  15.005
     61.0126	  18.000	  21.990	-252.740	  14.997
     61.0460	  19.000	  21.785	-251.535	  14.989
     61.0794	  35.000	  21.595	-235.345	  14.980
     61.1129	  19.000	  21.417	-251.167	  14.972
     61.1463	  25.000	  21.252	-245.002	  14.964
     61.1797	  17.000	  21.099	-252.849	  14.956
     61.2131	  19.000	  20.955	-250.705	  14.948
     61.2466	  27.000	  20.820	-242.570	  14.940
     61.2800	  32.000	  20.695	-237.445	  14.932
     61.3134	  20.000	  20.577	-249.327	  14.924
     61.3468	  12.000	  20.467	-257.217	  14.916
     61.3803	  22.000	  20.364	-247.114	  14.908
     61.4137	  20.000	  20.267	-249.017	  14.900
     61.4471	  23.000	  20.177	-245.927	  14.892
     61.4805	  21.000	  20.092	-247.842	  14.884
     61.5139	  18.000	  20.012	-250.762	  14.876
     61.5474	  16.000	  19.938	-252.688	  14.868
     61.5808	  21.000	  19.868	-247.618	  14.861
     61.6142	  18.000	  19.803	-250.553	  14.853
     61.6476	  21.000	  19.742	-247.492	  14.845
     61.6811	  22.000	  19.686	-246.436	  14.838
     61.7145	  16.000	  19.633	-252.383	  14.830
     61.7479	  17.000	  19.584	-251.334	  14.822
     61.7813	  12.000	  19.539	-256.289	  14.815
     61.8147	  19.000	  19.498	-249.248	  14.807
     61.8482	  22.000	  19.535	-246.285	  14.800
     61.8816	  25.000	  19.501	-243.251	  14.792
     61.9150	  16.000	  19.470	-252.220	  14.785
     61.9484	  18.000	  19.443	-250.193	  14.778
     61.9819	  20.000	  19.419	-248.169	  14.770
     62.0153	  12.000	  19.436	-256.186	  14.763
     62.0487	  24.000	  19.419	-244.169	  14.756
     62.0821	  14.000	  19.406	-254.156	  14.748
     62.1155	  22.000	  19.397	-246.147	  14.741
     62.1490	  20.000	  19.391	-248.141	  14.734
     62.1824	  20.000	  19.389	-248.139	  14.727
     62.2158	  24.000	  19.391	-244.141	  14.719
     62.2492	  16.000	  19.398	-252.148	  14.712
     62.2827	  25.000	  19.409	-243.159	  14.705
     62.3161	  18.000	  19.425	-250.175	  14.698
     62.3495	  16.000	  19.447	-252.197	  14.691
     62.3829	  21.000	  19.475	-247.225	  14.684
     62.4164	  19.000	  19.509	-249.259	  14.677
     62.4498	  10.000	  19.550	-258.300	  14.670
     62.4832	  11.000	  19.599	-257.349	  14.663
     62.5166	  19.000	  19.656	-249.406	  14.657
     62.5500	  15.000	  19.722	-253.472	  14.650
     62.5835	  34.000	  19.798	-234.548	  14.643
     62.6169	  22.000	  19.920	-246.670	  14.636
     62.6503	  16.000	  20.016	-252.766	  14.629
     62.6837	  20.000	  20.120	-248.870	  14.623
     62.7172	  25.000	  20.231	-243.981	  14.616
     62.7506	  19.000	  20.346	-250.096	  14.609
     62.7840	  21.000	  20.459	-248.209	  14.603
     62.8174	  18.000	  20.582	-251.332	  14.596
     62.8508	  19.000	  20.674	-250.424	  14.589
     62.8843	  22.000	  20.748	-247.498	  14.583
     62.9177	  25.000	  20.801	-244.551	  14.576
     62.9511	  20.000	  20.832	-249.582	  14.570
     62.9845	  19.000	  20.843	-250.593	  14.563
     63.0180	  14.000	  20.836	-255.586	  14.557
     63.0514	  31.000	  20.816	-238.566	  14.551
     63.0848	  16.000	  20.786	-253.536	  14.544
     63.1182	  18.000	  20.750	-251.500	  14.538
     63.1516	  27.000	  20.713	-242.463	  14.531
     63.1851	  21.000	  20.679	-248.429	  14.525
     63.2185	  18.000	  20.651	-251.401	  14.519
     63.2519	  18.000	  20.632	-251.382	  14.513
     63.2853	  22.000	  20.623	-247.373	  14.506
     63.3188	  27.000	  20.625	-242.375	  14.500
     63.3522	  16.000	  20.639	-253.389	  14.494
     63.3856	  23.000	  20.665	-246.415	  14.488
     63.4190	  20.000	  20.702	-249.452	  14.482
     63.4524	  20.000	  20.751	-249.501	  14.476
     63.4859	  25.000	  20.810	-244.560	  14.470
     63.5193	  24.000	  20.881	-245.631	  14.464
     63.5527	  20.000	  20.962	-249.712	  14.458
     63.5861	  20.000	  21.053	-249.803	  14.452
     63.6196	  23.000	  21.155	-246.905	  14.446
     63.6530	  18.000	  21.268	-252.018	  14.440
     63.6864	  28.000	  21.392	-242.142	  14.434
     63.7198	  22.000	  21.527	-248.277	  14.428
     63.7533	  18.000	  21.674	-252.424	  14.422
     63.7867	  20.000	  21.832	-250.582	  14.417
     63.8201	  20.000	  22.004	-250.754	  14.411
     63.8535	  17.000	  22.189	-253.939	  14.405
     63.8869	  23.000	  22.389	-248.139	  14.399
     63.9204	  30.000	  22.604	-241.354	  14.394
     63.9538	  22.000	  22.836	-249.586	  14.388
     63.9872	  23.000	  23.086	-248.836	  14.382
     64.0206	  33.000	  23.355	-239.105	  14.377
     64.0541	  29.000	  23.645	-243.395	  14.371
     64.0875	  17.000	  23.958	-255.708	  14.365
     64.1209	  20.000	  24.295	-253.045	  14.360
     64.1543	  28.000	  24.660	-245.410	  14.354
     64.1877	  16.000	  25.055	-257.805	  14.349
     64.2212	  29.000	  25.483	-245.233	  14.343
     64.2546	  17.000	  25.947	-257.697	  14.338
     64.2880	  23.000	  26.452	-252.202	  14.333
     64.3214	  37.000	  27.018	-238.768	  14.327
     64.3549	  31.000	  27.617	-245.367	  14.322
     64.3883	  31.000	  28.272	-246.022	  14.316
     64.4217	  35.000	  28.989	-242.739	  14.311
     64.4551	  29.000	  29.777	-249.527	  14.306
     64.4885	  30.000	  30.643	-249.393	  14.301
     64.5220	  33.000	  31.607	-247.357	  14.295
     64.5554	  31.000	  32.664	-250.414	  14.290
     64.5888	  31.000	  33.837	-251.587	  14.285
     64.6222	  35.000	  35.141	-248.891	  14.280
     64.6557	  36.000	  36.595	-249.345	  14.275
     64.6891	  42.000	  38.221	-244.971	  14.269
     64.7225	  44.000	  40.043	-244.793	  14.264
     64.7559	  48.000	  42.090	-242.840	  14.259
     64.7894	  39.000	  44.396	-254.146	  14.254
     64.8228	  52.000	  46.996	-243.746	  14.249
     64.8562	  46.000	  49.933	-252.683	  14.244
     64.8896	  50.000	  53.253	-252.003	  14.239
     64.9230	  46.000	  57.002	-259.752	  14.234
     64.9565	  66.000	  61.231	-243.981	  14.229
     64.9899	  60.000	  65.981	-254.731	  14.224
     65.0233	  78.000	  71.288	-242.038	  14.219
     65.0567	  78.000	  77.166	-247.916	  14.215
     65.0901	  70.000	  83.583	-262.333	  14.210
     65.1236	  83.000	  90.463	-256.213	  14.205
     65.1570	  95.000	  97.640	-251.390	  14.200
     65.1904	 100.000	 104.858	-253.608	  14.195
     65.2238	 116.000	 111.768	-244.518	  14.191
     65.2573	 118.000	 117.945	-248.695	  14.186
     65.2907	 148.000	 122.965	-223.715	  14.181
     65.3241	 131.000	 126.470	-244.220	  14.176
     65.3575	 124.000	 128.247	-252.997	  14.172
     65.3910	 142.000	 128.253	-235.003	  14.167
     65.4244	 129.000	 126.591	-246.341	  14.162
     65.4578	 123.000	 123.453	-249.203	  14.158
     65.4912	 110.000	 119.083	-257.833	  14.153
     65.5246	 122.000	 113.736	-240.486	  14.149
     65.5581	 115.000	 107.687	-241.437	  14.144
     65.5915	 101.000	 101.221	-248.971	  14.140
     65.6249	 111.000	  94.619	-232.369	  14.135
     65.6583	  97.000	  88.120	-239.870	  14.131
     65.6918	  86.000	  81.922	-244.672	  14.126
     65.7252	  68.000	  76.149	-256.899	  14.122
     65.7586	  70.000	  70.878	-249.628	  14.117
     65.7920	  64.000	  66.135	-250.885	  14.113
     65.8254	  81.000	  61.915	-229.665	  14.109
     65.8589	  59.000	  58.193	-247.943	  14.104
     65.8923	  54.000	  54.847	-249.597	  14.100
     65.9257	  54.000	  52.008	-246.758	  14.096
     65.9591	  55.000	  49.552	-243.302	  14.091
     65.9926	  49.000	  47.438	-247.188	  14.087
     66.0260	  58.000	  45.631	-236.381	  14.083
     66.0594	  55.000	  44.061	-237.811	  14.079
     66.0928	  58.000	  42.785	-233.535	  14.074
     66.1263	  48.000	  41.742	-242.492	  14.070
     66.1597	  36.000	  40.912	-253.662	  14.066
     66.1931	  49.000	  40.285	-240.035	  14.062
     66.2265	  32.000	  39.851	-256.601	  14.058
     66.2599	  42.000	  39.604	-246.354	  14.054
     66.2934	  33.000	  39.492	-255.242	  14.050
     66.3268	  34.000	  39.619	-254.369	  14.045
     66.3602	  44.000	  39.940	-244.690	  14.041
     66.3936	  36.000	  40.461	-253.211	  14.037
     66.4271	  50.000	  41.192	-239.942	  14.033
     66.4605	  35.000	  42.121	-255.871	  14.029
     66.4939	  54.000	  43.312	-238.062	  14.025
     66.5273	  55.000	  44.751	-238.501	  14.021
     66.5607	  43.000	  46.447	-252.197	  14.017
     66.5942	  45.000	  48.400	-252.150	  14.014
     66.6276	  55.000	  50.597	-244.347	  14.010
     66.6610	  63.000	  53.003	-238.753	  14.006
     66.6944	  56.000	  55.558	-248.308	  14.002
     66.7279	  51.000	  58.163	-255.913	  13.998
     66.7613	  58.000	  60.693	-251.443	  13.994
     66.7947	  64.000	  62.998	-247.748	  13.990
     66.8281	  56.000	  64.930	-257.680	  13.987
     66.8615	  74.000	  66.369	-241.119	  13.983
     66.8950	  60.000	  67.248	-255.998	  13.979
     66.9284	  87.000	  67.557	-229.307	  13.975
     66.9618	  70.000	  67.333	-246.083	  13.972
     66.9952	  52.000	  66.639	-263.389	  13.968
     67.0287	  60.000	  65.546	-254.296	  13.964
     67.0621	  79.000	  64.121	-233.871	  13.960
     67.0955	  63.000	  62.429	-248.179	  13.957
     67.1289	  55.000	  60.531	-254.281	  13.953
     67.1624	  66.000	  58.479	-241.229	  13.950
     67.1958	  57.000	  56.326	-248.076	  13.946
     67.2292	  50.000	  54.113	-252.863	  13.942
     67.2626	  49.000	  51.878	-251.628	  13.939
     67.2960	  62.000	  49.653	-236.403	  13.935
     67.3295	  61.000	  47.464	-235.214	  13.932
     67.3629	  37.000	  45.331	-257.081	  13.928
     67.3963	  44.000	  43.270	-248.020	  13.925
     67.4297	  55.000	  41.291	-235.041	  13.921
     67.4632	  52.000	  39.406	-236.156	  13.918
     67.4966	  37.000	  37.625	-249.375	  13.914
     67.5300	  33.000	  35.958	-251.708	  13.911
     67.5634	  44.000	  34.414	-239.164	  13.907
     67.5968	  35.000	  32.995	-246.745	  13.904
     67.6303	  20.000	  31.703	-260.453	  13.901
     67.6637	  24.000	  30.531	-255.281	  13.897
     67.6971	  30.000	  29.474	-248.224	  13.894
     67.7305	  34.000	  28.523	-243.273	  13.890
     67.7640	  33.000	  27.667	-243.417	  13.887
     67.7974	  25.000	  26.897	-250.647	  13.884
     67.8308	  24.000	  26.205	-250.955	  13.880
     67.8642	  33.000	  25.581	-241.331	  13.877
     67.8976	  19.000	  25.018	-254.768	  13.874
     67.9311	  32.000	  24.510	-241.260	  13.871
     67.9645	  16.000	  24.049	-256.799	  13.867
     67.9979	  20.000	  23.631	-252.381	  13.864
     68.0313	  18.000	  23.251	-254.001	  13.861
     68.0648	  27.000	  22.904	-244.654	  13.858
     68.0982	  30.000	  22.588	-241.338	  13.855
     68.1316	  23.000	  22.298	-248.048	  13.851
     68.1650	  25.000	  22.033	-245.783	  13.848
     68.1984	  23.000	  21.834	-247.584	  13.845
     68.2319	  16.000	  21.610	-254.360	  13.842
     68.2653	  14.000	  21.405	-256.155	  13.839
     68.2987	  31.000	  21.215	-238.965	  13.836
     68.3321	  21.000	  21.071	-248.821	  13.833
     68.3656	  21.000	  20.911	-248.661	  13.830
     68.3990	  16.000	  20.762	-253.512	  13.826
     68.4324	  21.000	  20.647	-248.397	  13.823
     68.4658	  16.000	  20.521	-253.271	  13.820
     68.4993	  20.000	  20.447	-249.197	  13.817
     68.5327	  23.000	  20.340	-246.090	  13.814
     68.5661	  28.000	  20.257	-241.007	  13.811
     68.5995	  24.000	  20.136	-244.886	  13.808
     68.6329	  25.000	  20.053	-243.803	  13.805
     68.6664	  18.000	  19.977	-250.727	  13.802
     68.6998	  19.000	  19.909	-249.659	  13.799
     68.7332	  20.000	  19.867	-248.617	  13.797
     68.7666	  22.000	  19.795	-246.545	  13.794
     68.8000	  22.000	  19.744	-246.494	  13.791
     68.8335	  21.000	  19.699	-247.449	  13.788
     68.8669	  22.000	  19.659	-246.409	  13.785
     68.9003	  25.000	  19.624	-243.374	  13.782
     68.9337	  19.000	  19.594	-249.344	  13.779
     68.9672	  18.000	  19.630	-250.380	  13.776
     69.0006	  24.000	  19.610	-244.360	  13.773
     69.0340	  24.000	  19.595	-244.345	  13.771
     69.0674	  20.000	  19.584	-248.334	  13.768
     69.1009	  15.000	  19.577	-253.327	  13.765
     69.1343	  25.000	  19.564	-243.314	  13.762
     69.1677	  18.000	  19.607	-250.357	  13.759
     69.2011	  23.000	  19.614	-245.364	  13.757
     69.2345	  16.000	  19.625	-252.375	  13.754
     69.2680	  23.000	  19.641	-245.391	  13.751
     69.3014	  16.000	  19.660	-252.410	  13.748
     69.3348	  19.000	  19.684	-249.434	  13.746
     69.3682	  27.000	  19.713	-241.463	  13.743
     69.4017	  24.000	  19.746	-244.496	  13.740
     69.4351	  20.000	  19.783	-248.533	  13.738
     69.4685	  17.000	  19.825	-251.575	  13.735
     69.5019	  20.000	  19.873	-248.623	  13.732
     69.5354	  25.000	  19.925	-243.675	  13.730
     69.5688	  23.000	  19.982	-245.732	  13.727
     69.6022	  20.000	  20.045	-248.795	  13.724
     69.6356	  27.000	  20.113	-241.863	  13.722
     69.6690	  16.000	  20.187	-252.937	  13.719
     69.7025	  20.000	  20.267	-249.017	  13.716
     69.7359	  20.000	  20.354	-249.104	  13.714
     69.7693	  29.000	  20.447	-240.197	  13.711
     69.8027	  15.000	  20.547	-254.297	  13.709
     69.8362	  22.000	  20.655	-247.405	  13.706
     69.8696	  20.000	  20.770	-249.520	  13.703
     69.9030	  16.000	  20.894	-253.644	  13.701
     69.9364	  25.000	  21.027	-244.777	  13.698
     69.9698	  34.000	  21.169	-235.919	  13.696
     70.0033	  27.000	  21.321	-243.071	  13.693
     70.0367	  20.000	  21.484	-250.234	  13.691
     70.0701	  22.000	  21.658	-248.408	  13.688
     70.1035	  25.000	  21.845	-245.595	  13.686
     70.1370	  21.000	  22.045	-249.795	  13.683
     70.1704	  24.000	  22.259	-247.009	  13.681
     70.2038	  12.000	  22.489	-259.239	  13.678
     70.2372	  24.000	  22.736	-247.486	  13.676
     70.2706	  23.000	  23.022	-248.772	  13.673
     70.3041	  18.000	  23.307	-254.057	  13.671
     70.3375	  12.000	  23.613	-260.363	  13.668
     70.3709	  20.000	  23.943	-252.693	  13.666
     70.4043	  16.000	  24.299	-257.049	  13.663
     70.4378	  18.000	  24.684	-255.434	  13.661
     70.4712	  22.000	  25.100	-251.850	  13.659
     70.5046	  14.000	  25.560	-260.310	  13.656
     70.5380	  34.000	  26.048	-240.798	  13.654
     70.5714	  28.000	  26.579	-247.329	  13.651
     70.6049	  33.000	  27.157	-242.907	  13.649
     70.6383	  22.000	  27.786	-254.536	  13.647
     70.6717	  19.000	  28.475	-258.225	  13.644
     70.7051	  37.000	  29.229	-240.979	  13.642
     70.7386	  27.000	  30.056	-251.806	  13.640
     70.7720	  24.000	  30.967	-255.717	  13.637
     70.8054	  39.000	  31.971	-241.721	  13.635
     70.8388	  41.000	  33.082	-240.832	  13.632
     70.8723	  25.000	  34.312	-258.062	  13.630
     70.9057	  32.000	  35.678	-252.428	  13.628
     70.9391	  22.000	  37.200	-263.950	  13.625
     70.9725	  44.000	  38.896	-243.646	  13.623
     71.0059	  35.000	  40.791	-254.541	  13.621
     71.0394	  34.000	  42.911	-257.661	  13.619
     71.0728	  33.000	  45.285	-261.035	  13.616
     71.1062	  56.000	  47.945	-240.695	  13.614
     71.1396	  56.000	  50.924	-243.674	  13.612
     71.1730	  50.000	  54.251	-253.001	  13.609
     71.2065	  46.000	  57.959	-260.709	  13.607
     71.2399	  52.000	  62.066	-258.816	  13.605
     71.2733	  54.000	  66.583	-261.333	  13.603
     71.3067	  64.000	  71.492	-256.242	  13.600
     71.3402	  73.000	  76.736	-252.486	  13.598
     71.3736	  75.000	  82.219	-255.969	  13.596
     71.4070	  74.000	  87.782	-262.532	  13.594
     71.4404	  90.000	  93.207	-251.957	  13.591
     71.4739	  86.000	  98.234	-260.984	  13.589
     71.5073	 130.000	 102.574	-221.324	  13.587
     71.5407	 102.000	 105.981	-252.731	  13.585
     71.5741	 118.000	 108.279	-239.029	  13.582
     71.6075	  91.000	 109.399	-267.149	  13.580
     71.6410	 119.000	 109.372	-239.122	  13.578
     71.6744	 112.000	 108.306	-245.056	  13.576
     71.7078	  94.000	 106.346	-261.096	  13.574
     71.7412	 109.000	 103.648	-243.398	  13.571
     71.7747	  76.000	 100.373	-273.123	  13.569
     71.8081	  89.000	  96.693	-256.443	  13.567
     71.8415	  92.000	  92.788	-249.538	  13.565
     71.8749	  95.000	  88.846	-242.596	  13.563
     71.9084	  90.000	  85.038	-243.788	  13.560
     71.9418	  82.000	  81.514	-248.264	  13.558
     71.9752	  76.000	  78.386	-251.136	  13.556
     72.0086	  59.000	  75.735	-265.485	  13.554
     72.0420	  64.000	  73.606	-258.356	  13.552
     72.0755	  77.000	  72.014	-243.764	  13.549
     72.1089	  64.000	  70.952	-255.702	  13.547
     72.1423	  62.000	  70.389	-257.139	  13.545
     72.1757	  76.000	  70.273	-243.023	  13.543
     72.2092	  75.000	  70.524	-244.274	  13.541
     72.2426	  76.000	  71.037	-243.787	  13.539
     72.2760	  60.000	  71.680	-260.430	  13.537
     72.3094	  61.000	  72.302	-260.052	  13.534
     72.3428	  59.000	  72.749	-262.499	  13.532
     72.3763	  61.000	  72.886	-260.636	  13.530
     72.4097	  64.000	  72.616	-257.366	  13.528
     72.4431	  60.000	  71.894	-260.644	  13.526
     72.4765	  66.000	  70.721	-253.471	  13.524
     72.5100	  57.000	  69.132	-260.882	  13.522
     72.5434	  42.000	  67.184	-273.934	  13.519
     72.5768	  55.000	  64.937	-258.687	  13.517
     72.6102	  63.000	  62.452	-248.202	  13.515
     72.6436	  52.000	  59.796	-256.547	  13.513
     72.6771	  55.000	  57.044	-250.794	  13.511
     72.7105	  44.000	  54.265	-259.015	  13.509
     72.7439	  48.000	  51.534	-252.284	  13.507
     72.7773	  47.000	  48.909	-250.659	  13.504
     72.8108	  28.000	  46.433	-267.183	  13.502
     72.8442	  39.000	  44.134	-253.884	  13.500
     72.8776	  32.000	  42.025	-258.775	  13.498
     72.9110	  41.000	  40.110	-247.860	  13.496
     72.9445	  23.000	  38.383	-264.133	  13.494
     72.9779	  31.000	  36.834	-254.584	  13.492
     73.0113	  31.000	  35.448	-253.198	  13.490
     73.0447	  29.000	  34.213	-253.963	  13.487
     73.0781	  34.000	  33.115	-247.865	  13.485
     73.1116	  42.000	  32.140	-238.890	  13.483
     73.1450	  24.000	  31.276	-256.026	  13.481
     73.1784	  29.000	  30.514	-250.264	  13.479
     73.2118	  19.000	  29.842	-259.592	  13.477
     73.2453	  29.000	  29.253	-249.003	  13.475
     73.2787	  27.000	  28.740	-250.490	  13.473
     73.3121	  22.000	  28.298	-255.048	  13.471
     73.3455	  19.000	  27.920	-257.670	  13.468
     73.3789	  20.000	  27.604	-256.354	  13.466
     73.4124	  24.000	  27.347	-252.097	  13.464
     73.4458	  31.000	  27.146	-244.896	  13.462
     73.4792	  21.000	  27.002	-254.752	  13.460
     73.5126	  27.000	  26.912	-248.662	  13.458
     73.5461	  23.000	  26.879	-252.629	  13.456
     73.5795	  32.000	  26.903	-243.653	  13.454
     73.6129	  25.000	  26.986	-250.736	  13.451
     73.6463	  21.000	  27.132	-254.882	  13.449
     73.6797	  18.000	  27.345	-258.095	  13.447
     73.7132	  20.000	  27.627	-256.377	  13.445
     73.7466	  29.000	  27.986	-247.736	  13.443
     73.7800	  22.000	  28.424	-255.174	  13.441
     73.8134	  23.000	  28.949	-254.699	  13.439
     73.8469	  23.000	  29.564	-255.314	  13.436
     73.8803	  27.000	  30.270	-252.020	  13.434
     73.9137	  27.000	  31.068	-252.818	  13.432
     73.9471	  20.000	  31.950	-260.700	  13.430
     73.9805	  28.000	  32.902	-253.652	  13.428
     74.0140	  30.000	  33.901	-252.651	  13.426
     74.0474	  39.000	  34.910	-244.660	  13.424
     74.0808	  43.000	  35.882	-241.632	  13.421
     74.1142	  23.000	  36.762	-262.512	  13.419
     74.1477	  22.000	  37.493	-264.243	  13.417
     74.1811	  19.000	  38.025	-267.775	  13.415
     74.2145	  34.000	  38.325	-253.075	  13.413
     74.2479	  36.000	  38.380	-251.130	  13.411
     74.2813	  35.000	  38.199	-251.949	  13.408
     74.3148	  32.000	  37.800	-254.550	  13.406
     74.3482	  25.000	  37.213	-260.963	  13.404
     74.3816	  24.000	  36.465	-261.215	  13.402
     74.4150	  29.000	  35.587	-255.337	  13.400
     74.4485	  19.000	  34.609	-264.359	  13.397
     74.4819	  29.000	  33.598	-253.348	  13.395
     74.5153	  38.000	  32.518	-243.268	  13.393
     74.5487	  23.000	  31.436	-257.186	  13.391
     74.5822	  32.000	  30.380	-247.130	  13.389
     74.6156	  25.000	  29.372	-253.122	  13.386
     74.6490	  29.000	  28.428	-248.178	  13.384
     74.6824	  29.000	  27.555	-247.305	  13.382
     74.7158	  21.000	  26.687	-254.437	  13.380
     74.7493	  30.000	  25.965	-244.715	  13.377
     74.7827	  28.000	  25.314	-246.064	  13.375
     74.8161	  18.000	  24.731	-255.481	  13.373
     74.8495	  23.000	  24.208	-249.958	  13.371
     74.8830	  20.000	  23.741	-252.491	  13.368
     74.9164	  23.000	  23.280	-249.030	  13.366
     74.9498	  17.000	  22.908	-254.658	  13.364
     74.9832	  22.000	  22.576	-249.326	  13.362
     75.0166	  32.000	  22.279	-239.029	  13.359
     75.0501	  20.000	  22.014	-250.764	  13.357
     75.0835	  23.000	  21.777	-247.527	  13.355
     75.1169	  23.000	  21.565	-247.315	  13.353
     75.1503	  18.000	  21.376	-252.126	  13.350
     75.1838	  19.000	  21.208	-250.958	  13.348
     75.2172	  14.000	  21.057	-255.807	  13.346
     75.2506	  23.000	  20.923	-246.673	  13.343
     75.2840	  28.000	  20.803	-241.553	  13.341
     75.3175	  28.000	  20.697	-241.447	  13.339
     75.3509	  28.000	  20.604	-241.354	  13.336
     75.3843	  29.000	  20.522	-240.272	  13.334
     75.4177	  28.000	  20.450	-241.200	  13.332
     75.4511	  20.000	  20.388	-249.138	  13.329
     75.4846	  25.000	  20.335	-244.085	  13.327
     75.5180	  23.000	  20.290	-246.040	  13.325
     75.5514	  23.000	  20.253	-246.003	  13.322
     75.5848	  14.000	  20.223	-254.973	  13.320
     75.6183	  24.000	  20.201	-244.951	  13.318
     75.6517	  20.000	  20.185	-248.935	  13.315
     75.6851	  24.000	  20.176	-244.926	  13.313
     75.7185	  25.000	  20.173	-243.923	  13.310
     75.7519	  33.000	  20.176	-235.926	  13.308
     75.7854	  25.000	  20.184	-243.934	  13.306
     75.8188	  15.000	  20.199	-253.949	  13.303
     75.8522	  25.000	  20.218	-243.968	  13.301
     75.8856	  19.000	  20.244	-249.994	  13.298
     75.9191	  25.000	  20.274	-244.024	  13.296
     75.9525	  16.000	  20.310	-253.060	  13.293
     75.9859	  20.000	  20.352	-249.102	  13.291
     76.0193	  30.000	  20.398	-239.148	  13.288
     76.0527	  19.000	  20.450	-250.200	  13.286
     76.0862	  23.000	  20.508	-246.258	  13.283
     76.1196	  24.000	  20.571	-245.321	  13.281
     76.1530	  19.000	  20.639	-250.389	  13.278
     76.1864	  20.000	  20.714	-249.464	  13.276
     76.2199	  23.000	  20.794	-246.544	  13.273
     76.2533	  23.000	  20.880	-246.630	  13.271
     76.2867	  16.000	  20.972	-253.722	  13.268
     76.3201	  30.000	  21.071	-239.821	  13.266
     76.3535	  29.000	  21.152	-240.902	  13.263
     76.3870	  19.000	  21.265	-251.015	  13.261
     76.4204	  27.000	  21.384	-243.134	  13.258
     76.4538	  30.000	  21.511	-240.261	  13.255
     76.4872	  25.000	  21.646	-245.396	  13.253
     76.5207	  25.000	  21.772	-245.522	  13.250
     76.5541	  27.000	  21.923	-243.673	  13.248
     76.5875	  30.000	  22.088	-240.838	  13.245
     76.6209	  24.000	  22.258	-247.008	  13.242
     76.6544	  30.000	  22.444	-241.194	  13.240
     76.6878	  21.000	  22.634	-250.384	  13.237
     76.7212	  28.000	  22.826	-243.576	  13.234
     76.7546	  21.000	  23.039	-250.789	  13.232
     76.7880	  27.000	  23.264	-245.014	  13.229
     76.8215	  36.000	  23.503	-236.253	  13.226
     76.8549	  30.000	  23.756	-242.506	  13.224
     76.8883	  25.000	  24.027	-247.777	  13.221
     76.9217	  31.000	  24.307	-242.057	  13.218
     76.9552	  35.000	  24.608	-238.358	  13.215
     76.9886	  31.000	  24.928	-242.678	  13.213
     77.0220	  29.000	  25.268	-245.018	  13.210
     77.0554	  31.000	  25.630	-243.380	  13.207
     77.0888	  30.000	  26.014	-244.764	  13.204
     77.1223	  27.000	  26.424	-248.174	  13.202
     77.1557	  20.000	  26.860	-255.610	  13.199
     77.1891	  25.000	  27.326	-251.076	  13.196
     77.2225	  20.000	  27.824	-256.574	  13.193
     77.2560	  38.000	  28.356	-239.106	  13.190
     77.2894	  28.000	  28.927	-249.677	  13.187
     77.3228	  32.000	  29.538	-246.288	  13.185
     77.3562	  30.000	  30.195	-248.945	  13.182
     77.3896	  34.000	  30.901	-245.651	  13.179
     77.4231	  29.000	  31.662	-251.412	  13.176
     77.4565	  33.000	  32.483	-248.233	  13.173
     77.4899	  39.000	  33.370	-243.120	  13.170
     77.5233	  29.000	  34.331	-254.081	  13.167
     77.5568	  42.000	  35.373	-242.123	  13.164
     77.5902	  33.000	  36.506	-252.256	  13.161
     77.6236	  29.000	  37.741	-257.491	  13.158
     77.6570	  45.000	  39.088	-242.838	  13.155
     77.6905	  47.000	  40.560	-242.310	  13.152
     77.7239	  35.000	  42.174	-255.924	  13.149
     77.7573	  45.000	  43.945	-247.695	  13.146
     77.7907	  62.000	  45.894	-232.644	  13.143
     77.8241	  45.000	  48.040	-251.790	  13.140
     77.8576	  60.000	  50.408	-239.158	  13.137
     77.8910	  46.000	  53.023	-255.773	  13.134
     77.9244	  39.000	  55.915	-265.665	  13.131
     77.9578	  51.000	  59.112	-256.862	  13.128
     77.9912	  60.000	  62.643	-251.393	  13.125
     78.0247	  72.000	  66.541	-243.291	  13.122
     78.0581	  68.000	  70.831	-251.581	  13.118
     78.0915	  69.000	  75.533	-255.283	  13.115
     78.1249	  71.000	  80.653	-258.403	  13.112
     78.1584	  79.000	  86.187	-255.937	  13.109
     78.1918	  95.000	  92.099	-245.849	  13.106
     78.2252	  76.000	  98.330	-271.080	  13.102
     78.2586	  85.000	 104.787	-268.537	  13.099
     78.2921	 131.000	 111.352	-229.102	  13.096
     78.3255	 112.000	 117.884	-254.634	  13.093
     78.3589	 121.000	 124.237	-251.987	  13.089
     78.3923	 122.000	 130.275	-257.025	  13.086
     78.4257	 118.000	 135.890	-266.640	  13.083
     78.4592	 152.000	 140.994	-237.744	  13.080
     78.4926	 141.000	 145.527	-253.277	  13.076
     78.5260	 175.000	 149.445	-223.195	  13.073
     78.5594	 163.000	 152.713	-238.463	  13.069
     78.5929	 141.000	 155.307	-263.057	  13.066
     78.6263	 149.000	 157.219	-256.969	  13.063
     78.6597	 137.000	 158.454	-270.204	  13.059
     78.6931	 138.000	 159.048	-269.798	  13.056
     78.7265	 173.000	 159.072	-234.822	  13.052
     78.7600	 190.000	 158.633	-217.383	  13.049
     78.7934	 146.000	 157.874	-260.624	  13.045
     78.8268	 128.000	 156.951	-277.701	  13.042
     78.8602	 161.000	 156.017	-243.767	  13.038
     78.8937	 176.000	 155.199	-227.949	  13.035
     78.9271	 153.000	 154.584	-250.334	  13.031
     78.9605	 141.000	 154.214	-261.964	  13.028
     78.9939	 148.000	 154.076	-254.826	  13.024
     79.0274	 154.000	 154.100	-248.850	  13.021
     79.0608	 145.000	 154.163	-257.913	  13.017
     79.0942	 153.000	 154.099	-249.849	  13.013
     79.1276	 150.000	 153.711	-252.461	  13.010
     79.1610	 149.000	 152.810	-252.560	  13.006
     79.1945	 137.000	 151.245	-262.995	  13.003
     79.2279	 111.000	 148.934	-286.684	  12.999
     79.2613	 104.000	 145.866	-290.616	  12.995
     79.2947	 141.000	 142.093	-249.843	  12.991
     79.3282	 110.000	 137.700	-276.450	  12.988
     79.3616	 121.000	 132.787	-260.537	  12.984
     79.3950	 106.000	 127.442	-270.192	  12.980
     79.4284	 138.000	 121.760	-232.510	  12.976
     79.4618	  88.000	 115.835	-276.585	  12.973
     79.4953	  94.000	 109.772	-264.522	  12.969
     79.5287	  98.000	 103.690	-254.440	  12.965
     79.5621	  91.000	  97.701	-255.451	  12.961
     79.5955	  84.000	  91.916	-256.666	  12.957
     79.6290	  74.000	  86.419	-261.169	  12.953
     79.6624	  77.000	  81.273	-253.023	  12.949
     79.6958	  84.000	  76.512	-241.262	  12.945
     79.7292	  70.000	  72.153	-250.903	  12.941
     79.7626	  64.000	  68.196	-252.946	  12.937
     79.7961	  68.000	  64.628	-245.378	  12.933
     79.8295	  46.000	  61.428	-264.178	  12.929
     79.8629	  44.000	  58.573	-263.323	  12.925
     79.8963	  48.000	  56.038	-256.788	  12.921
     79.9298	  58.000	  53.801	-244.551	  12.917
     79.9632	  52.000	  51.837	-248.587	  12.913
     79.9966	  55.000	  50.128	-243.878	  12.909
     80.0300	  51.000	  48.654	-246.404	  12.905
     80.0634	  63.000	  47.402	-233.152	  12.901
     80.0969	  44.000	  46.357	-251.107	  12.897
     80.1303	  38.000	  45.511	-256.261	  12.892
     80.1637	  45.000	  44.855	-248.605	  12.888
     80.1971	  41.000	  44.382	-252.132	  12.884
     80.2306	  43.000	  44.085	-249.835	  12.880
     80.2640	  59.000	  43.958	-233.708	  12.875
     80.2974	  49.000	  43.994	-243.744	  12.871
     80.3308	  51.000	  44.182	-241.932	  12.867
     80.3643	  48.000	  44.506	-245.256	  12.862
     80.3977	  46.000	  44.942	-247.692	  12.858
     80.4311	  45.000	  45.460	-249.210	  12.854
     80.4645	  30.000	  46.066	-264.816	  12.849
     80.4979	  50.000	  46.612	-245.362	  12.845
     80.5314	  38.000	  47.090	-257.840	  12.841
     80.5648	  49.000	  47.442	-247.192	  12.836
     80.5982	  60.000	  47.621	-236.371	  12.832
     80.6316	  46.000	  47.608	-250.358	  12.827
     80.6651	  56.000	  47.358	-240.108	  12.823
     80.6985	  50.000	  46.891	-245.641	  12.818
     80.7319	  38.000	  46.247	-256.997	  12.813
     80.7653	  34.000	  45.403	-260.153	  12.809
     80.7987	  52.000	  44.409	-241.159	  12.804
     80.8322	  39.000	  43.287	-253.037	  12.800
     80.8656	  42.000	  42.062	-248.812	  12.795
     80.8990	  37.000	  40.767	-252.517	  12.790
     80.9324	  42.000	  39.413	-246.163	  12.786
     80.9659	  34.000	  38.037	-252.787	  12.781
     80.9993	  32.000	  36.666	-253.416	  12.776
     81.0327	  30.000	  35.363	-254.113	  12.771
     81.0661	  35.000	  34.077	-247.827	  12.767
     81.0995	  27.000	  32.860	-254.610	  12.762
     81.1330	  33.000	  31.721	-247.471	  12.757
     81.1664	  28.000	  30.662	-251.412	  12.752
     81.1998	  27.000	  29.686	-251.436	  12.747
     81.2332	  36.000	  28.789	-241.539	  12.742
     81.2667	  29.000	  27.967	-247.717	  12.738
     81.3001	  24.000	  27.159	-251.909	  12.733
     81.3335	  25.000	  26.473	-250.223	  12.728
     81.3669	  38.000	  25.846	-236.596	  12.723
     81.4004	  21.000	  25.273	-253.023	  12.718
     81.4338	  24.000	  24.748	-249.498	  12.713
     81.4672	  25.000	  24.266	-248.016	  12.708
     81.5006	  27.000	  23.824	-245.574	  12.702
     81.5340	  23.000	  23.381	-249.131	  12.697
     81.5675	  28.000	  23.006	-243.756	  12.692
     81.6009	  22.000	  22.661	-249.411	  12.687
     81.6343	  21.000	  22.341	-250.091	  12.682
     81.6677	  30.000	  22.044	-240.794	  12.677
     81.7012	  22.000	  21.769	-248.519	  12.672
     81.7346	  19.000	  21.514	-251.264	  12.666
     81.7680	  25.000	  21.275	-245.025	  12.661
     81.8014	  19.000	  21.054	-250.804	  12.656
     81.8348	  27.000	  20.846	-242.596	  12.650
     81.8683	  19.000	  20.653	-250.403	  12.645
     81.9017	  18.000	  20.472	-251.222	  12.640
     81.9351	  18.000	  20.303	-251.053	  12.634
     81.9685	  18.000	  20.145	-250.895	  12.629
     82.0020	  18.000	  19.997	-250.747	  12.623
     82.0354	  25.000	  19.858	-243.608	  12.618
     82.0688	  27.000	  19.729	-241.479	  12.612
     82.1022	  24.000	  19.608	-244.358	  12.607
     82.1356	  14.000	  19.495	-254.245	  12.601
     82.1691	  22.000	  19.389	-246.139	  12.596
     82.2025	  15.000	  19.256	-253.006	  12.590
     82.2359	  22.000	  19.166	-245.916	  12.585
     82.2693	  20.000	  19.083	-247.833	  12.579
     82.3028	  11.000	  19.025	-256.775	  12.573
     82.3362	  28.000	  18.956	-239.706	  12.568
     82.3696	  15.000	  18.893	-252.643	  12.562
     82.4030	  16.000	  18.820	-251.570	  12.556
     82.4364	  16.000	  18.771	-251.521	  12.550
     82.4699	  16.000	  18.730	-251.480	  12.545
     82.5033	  17.000	  18.695	-250.445	  12.539
     82.5367	  24.000	  18.667	-243.417	  12.533
     82.5701	  23.000	  18.656	-244.406	  12.527
     82.6036	  18.000	  18.650	-249.400	  12.521
     82.6370	  25.000	  18.644	-242.394	  12.515
     82.6704	  22.000	  18.646	-245.396	  12.509
     82.7038	  14.000	  18.655	-253.405	  12.503
     82.7373	  15.000	  18.670	-252.420	  12.497
     82.7707	  17.000	  18.690	-250.440	  12.491
     82.8041	  16.000	  18.714	-251.464	  12.485
     82.8375	  22.000	  18.740	-245.490	  12.479
     82.8709	  23.000	  18.768	-244.518	  12.473
     82.9044	  20.000	  18.790	-247.540	  12.467
     82.9378	  22.000	  18.806	-245.556	  12.460
     82.9712	  19.000	  18.815	-248.565	  12.454
     83.0046	  15.000	  18.815	-252.565	  12.448
     83.0381	  15.000	  18.806	-252.556	  12.442
     83.0715	  27.000	  18.789	-240.539	  12.435
     83.1049	  25.000	  18.765	-242.515	  12.429
     83.1383	  31.000	  18.735	-236.485	  12.423
     83.1717	  18.000	  18.700	-249.450	  12.416
     83.2052	  17.000	  18.661	-250.411	  12.410
     83.2386	  12.000	  18.620	-255.370	  12.404
     83.2720	  23.000	  18.579	-244.329	  12.397
     83.3054	  24.000	  18.537	-243.287	  12.391
     83.3389	  17.000	  18.497	-250.247	  12.384
     83.3723	  21.000	  18.461	-246.211	  12.378
     83.4057	  15.000	  18.429	-252.179	  12.371
     83.4391	  14.000	  18.403	-253.153	  12.364
     83.4725	  20.000	  18.384	-247.134	  12.358
     83.5060	  15.000	  18.372	-252.122	  12.351
     83.5394	  12.000	  18.368	-255.118	  12.344
     83.5728	  14.000	  18.372	-253.122	  12.338
     83.6062	  25.000	  18.385	-242.135	  12.331
     83.6397	  16.000	  18.406	-251.156	  12.324
     83.6731	  21.000	  18.435	-246.185	  12.317
     83.7065	  22.000	  18.473	-245.223	  12.311
     83.7399	  19.000	  18.520	-248.270	  12.304
     83.7734	  25.000	  18.576	-242.326	  12.297
     83.8068	  21.000	  18.642	-246.392	  12.290
     83.8402	  17.000	  18.717	-250.467	  12.283
     83.8736	  22.000	  18.803	-245.553	  12.276
     83.9070	  15.000	  18.899	-252.649	  12.269
     83.9405	  15.000	  19.007	-252.757	  12.262
     83.9739	  23.000	  19.127	-244.877	  12.255
     84.0073	  12.000	  19.260	-256.010	  12.248
     84.0407	  15.000	  19.407	-253.157	  12.240
     84.0742	  18.000	  19.569	-250.319	  12.233
     84.1076	  18.000	  19.732	-250.482	  12.226
     84.1410	  21.000	  19.929	-247.679	  12.219
     84.1744	  18.000	  20.146	-250.896	  12.212
     84.2078	  27.000	  20.384	-242.134	  12.204
     84.2413	  11.000	  20.646	-258.396	  12.197
     84.2747	   9.000	  20.935	-260.685	  12.190
     84.3081	  23.000	  21.253	-247.003	  12.182
     84.3415	  14.000	  21.594	-256.344	  12.175
     84.3750	  23.000	  21.980	-247.730	  12.167
     84.4084	  22.000	  22.405	-249.155	  12.160
     84.4418	  24.000	  22.875	-247.625	  12.152
     84.4752	  23.000	  23.394	-249.144	  12.145
     84.5086	  23.000	  23.969	-249.719	  12.137
     84.5421	   8.000	  24.605	-265.355	  12.130
     84.5755	  19.000	  25.309	-255.059	  12.122
     84.6089	  33.000	  26.089	-241.839	  12.114
     84.6423	  27.000	  26.953	-248.703	  12.106
     84.6758	  27.000	  27.911	-249.661	  12.099
     84.7092	  30.000	  28.970	-247.720	  12.091
     84.7426	  32.000	  30.139	-246.889	  12.083
     84.7760	  35.000	  31.426	-245.176	  12.075
     84.8094	  27.000	  32.836	-254.586	  12.067
     84.8429	  24.000	  34.373	-259.123	  12.060
     84.8763	  30.000	  36.034	-254.784	  12.052
     84.9097	  33.000	  37.807	-253.557	  12.044
     84.9431	  39.000	  39.674	-249.424	  12.036
     84.9766	  37.000	  41.602	-253.352	  12.028
     85.0100	  49.000	  43.545	-243.295	  12.019
     85.0434	  36.000	  45.441	-258.191	  12.011
     85.0768	  41.000	  47.219	-254.969	  12.003
     85.1103	  58.000	  48.800	-239.550	  11.995
     85.1437	  39.000	  50.111	-259.861	  11.987
     85.1771	  44.000	  51.092	-255.842	  11.979
     85.2105	  50.000	  51.709	-250.459	  11.970
     85.2439	  57.000	  51.951	-243.701	  11.962
     85.2774	  39.000	  51.834	-261.584	  11.954
     85.3108	  55.000	  51.388	-245.138	  11.945
     85.3442	  46.000	  50.652	-253.402	  11.937
     85.3776	  48.000	  49.664	-250.414	  11.928
     85.4111	  41.000	  48.460	-256.210	  11.920
     85.4445	  51.000	  47.073	-244.823	  11.911
     85.4779	  57.000	  45.536	-237.286	  11.903
     85.5113	  54.000	  43.887	-238.637	  11.894
     85.5447	  51.000	  42.165	-239.915	  11.886
     85.5782	  51.000	  40.412	-238.162	  11.877
     85.6116	  28.000	  38.669	-259.419	  11.868
     85.6450	  39.000	  36.971	-246.721	  11.860
     85.6784	  38.000	  35.345	-246.095	  11.851
     85.7119	  34.000	  33.811	-248.561	  11.842
     85.7453	  22.000	  32.382	-259.132	  11.833
     85.7787	  38.000	  31.063	-241.813	  11.824
     85.8121	  25.000	  29.855	-253.605	  11.815
     85.8456	  25.000	  28.756	-252.506	  11.806
     85.8790	  31.000	  27.761	-245.511	  11.797
     85.9124	  25.000	  26.861	-250.611	  11.788
     85.9458	  23.000	  26.052	-251.802	  11.779
     85.9792	  25.000	  25.325	-249.075	  11.770
     86.0127	  28.000	  24.673	-245.423	  11.761
     86.0461	  23.000	  24.091	-249.841	  11.752
     86.0795	  23.000	  23.570	-249.320	  11.743
     86.1129	  17.000	  23.107	-254.857	  11.734
     86.1464	  15.000	  22.695	-256.445	  11.724
     86.1798	  14.000	  22.332	-257.082	  11.715
     86.2132	  21.000	  22.066	-249.816	  11.706
     86.2466	  28.000	  21.787	-242.537	  11.696
     86.2800	  15.000	  21.546	-255.296	  11.687
     86.3135	  29.000	  21.340	-241.090	  11.677
     86.3469	  24.000	  21.168	-245.918	  11.668
     86.3803	  18.000	  21.029	-251.779	  11.658
     86.4137	  27.000	  20.920	-242.670	  11.649
     86.4472	  17.000	  20.842	-252.592	  11.639
     86.4806	  11.000	  20.794	-258.544	  11.630
     86.5140	  22.000	  20.803	-247.553	  11.620
     86.5474	  21.000	  20.815	-248.565	  11.610
     86.5808	  19.000	  20.859	-250.609	  11.600
     86.6143	  25.000	  20.935	-244.685	  11.591
     86.6477	  29.000	  21.044	-240.794	  11.581
     86.6811	  17.000	  21.189	-252.939	  11.571
     86.7145	  18.000	  21.370	-252.120	  11.561
     86.7480	  24.000	  21.591	-246.341	  11.551
     86.7814	  20.000	  21.853	-250.603	  11.541
     86.8148	  18.000	  22.158	-252.908	  11.531
     86.8482	  21.000	  22.509	-250.259	  11.521
     86.8816	  21.000	  22.907	-250.657	  11.511
     86.9151	  24.000	  23.390	-248.140	  11.501
     86.9485	  21.000	  23.881	-251.631	  11.491
     86.9819	  30.000	  24.416	-243.166	  11.480
     87.0153	  19.000	  24.988	-254.738	  11.470
     87.0488	  28.000	  25.588	-246.338	  11.460
     87.0822	  22.000	  26.205	-252.955	  11.449
     87.1156	  34.000	  26.821	-241.571	  11.439
     87.1490	  27.000	  27.421	-249.171	  11.429
     87.1824	  21.000	  27.985	-255.735	  11.418
     87.2159	  23.000	  28.517	-254.267	  11.408
     87.2493	  23.000	  28.965	-254.715	  11.397
     87.2827	  20.000	  29.341	-258.091	  11.387
     87.3161	  30.000	  29.643	-248.393	  11.376
     87.3496	  28.000	  29.871	-250.621	  11.365
     87.3830	  25.000	  30.025	-253.775	  11.355
     87.4164	  25.000	  30.107	-253.857	  11.344
     87.4498	  39.000	  30.111	-239.861	  11.333
     87.4833	  33.000	  30.036	-245.786	  11.322
     87.5167	  30.000	  29.875	-248.625	  11.311
     87.5501	  34.000	  29.626	-244.376	  11.301
     87.5835	  32.000	  29.291	-246.041	  11.290
     87.6169	  25.000	  28.877	-252.627	  11.279
     87.6504	  30.000	  28.396	-247.146	  11.268
     87.6838	  23.000	  27.861	-253.611	  11.257
     87.7172	  23.000	  27.289	-253.039	  11.245
     87.7506	  25.000	  26.690	-250.440	  11.234
     87.7841	  20.000	  26.077	-254.827	  11.223
     87.8175	  24.000	  25.457	-250.207	  11.212
     87.8509	  28.000	  24.838	-245.588	  11.201
     87.8843	  24.000	  24.224	-248.974	  11.189
     87.9177	  23.000	  23.622	-249.372	  11.178
     87.9512	  19.000	  23.036	-252.786	  11.167
     87.9846	  24.000	  22.472	-247.222	  11.155
     88.0180	  20.000	  21.934	-250.684	  11.144
     88.0514	  33.000	  21.426	-237.176	  11.132
     88.0849	  29.000	  20.950	-240.700	  11.121
     88.1183	  22.000	  20.508	-247.258	  11.109
     88.1517	  20.000	  20.099	-248.849	  11.097
     88.1851	  15.000	  19.723	-253.473	  11.086
     88.2186	  21.000	  19.379	-247.129	  11.074
     88.2520	  18.000	  19.064	-249.814	  11.062
     88.2854	  18.000	  18.777	-249.527	  11.050
     88.3188	  23.000	  18.516	-244.266	  11.039
     88.3522	  18.000	  18.279	-249.029	  11.027
     88.3857	  17.000	  18.063	-249.813	  11.015
     88.4191	  24.000	  17.867	-242.617	  11.003
     88.4525	  18.000	  17.694	-248.444	  10.991
     88.4859	  19.000	  17.532	-247.282	  10.979
     88.5193	  18.000	  17.385	-248.135	  10.966
     88.5528	  27.000	  17.252	-239.002	  10.954
     88.5862	  14.000	  17.087	-251.837	  10.942
     88.6196	  14.000	  16.977	-251.727	  10.930
     88.6530	  22.000	  16.877	-243.627	  10.918
     88.6865	  19.000	  16.787	-246.537	  10.905
     88.7199	  11.000	  16.706	-254.456	  10.893
     88.7533	  24.000	  16.605	-241.355	  10.880
     88.7867	  11.000	  16.539	-254.289	  10.868
     88.8202	  25.000	  16.458	-240.208	  10.855
     88.8536	  17.000	  16.406	-248.156	  10.843
     88.8870	  18.000	  16.360	-247.110	  10.830
     88.9204	  22.000	  16.278	-243.028	  10.818
     88.9538	  15.000	  16.243	-249.993	  10.805
     88.9873	  14.000	  16.198	-250.948	  10.792
     89.0207	  19.000	  16.173	-245.923	  10.779
     89.0541	  14.000	  16.153	-250.903	  10.767
     89.0875	  25.000	  16.138	-239.888	  10.754
     89.1210	  16.000	  16.126	-248.876	  10.741
     89.1544	  19.000	  16.119	-245.869	  10.728
     89.1878	  12.000	  16.095	-252.845	  10.715
     89.2212	  22.000	  16.096	-242.846	  10.702
     89.2546	  20.000	  16.101	-244.851	  10.689
     89.2881	  10.000	  16.110	-254.860	  10.676
     89.3215	  21.000	  16.123	-243.873	  10.662
     89.3549	   7.000	  16.139	-257.889	  10.649
     89.3883	  10.000	  16.160	-254.910	  10.636
     89.4218	  28.000	  16.184	-236.934	  10.623
     89.4552	  16.000	  16.129	-248.879	  10.609
     89.4886	  14.000	  16.162	-250.912	  10.596
     89.5220	  24.000	  16.198	-240.948	  10.582
     89.5555	  12.000	  16.239	-252.989	  10.569
     89.5889	  17.000	  16.284	-248.034	  10.555
     89.6223	  27.000	  16.333	-238.083	  10.542
     89.6557	  17.000	  16.386	-248.136	  10.528
     89.6891	  19.000	  16.403	-246.153	  10.514
     89.7226	  22.000	  16.466	-243.216	  10.501
     89.7560	  17.000	  16.534	-248.284	  10.487
     89.7894	  19.000	  16.606	-246.356	  10.473
     89.8228	  20.000	  16.685	-245.435	  10.459
     89.8563	  18.000	  16.768	-247.518	  10.445
     89.8897	  25.000	  16.858	-240.608	  10.431
     89.9231	  18.000	  16.953	-247.703	  10.417
     89.9565	  31.000	  17.055	-234.805	  10.403
     89.9899	  19.000	  17.163	-246.913	  10.389
     90.0234	  12.000	  17.278	-254.028	  10.375
     90.0568	  15.000	  17.401	-251.151	  10.361
     90.0902	  18.000	  17.532	-248.282	  10.346
     90.1236	  12.000	  17.671	-254.421	  10.332
     90.1571	  21.000	  17.819	-245.569	  10.318
     90.1905	  22.000	  17.976	-244.726	  10.303
     90.2239	  16.000	  18.144	-250.894	  10.289
     90.2573	  21.000	  18.322	-246.072	  10.274
     90.2907	  14.000	  18.512	-253.262	  10.260
     90.3242	  15.000	  18.713	-252.464	  10.245
     90.3576	  15.000	  18.929	-252.679	  10.231
     90.3910	  19.000	  19.158	-248.908	  10.216
     90.4244	  29.000	  19.402	-239.152	  10.201
     90.4579	  22.000	  19.663	-246.413	  10.186
     90.4913	  14.000	  19.942	-254.692	  10.172
     90.5247	  18.000	  20.240	-250.990	  10.157
     90.5581	  17.000	  20.559	-252.309	  10.142
     90.5915	  27.000	  20.900	-242.650	  10.127
     90.6250	  23.000	  21.266	-247.016	  10.112
     90.6584	  18.000	  21.658	-252.408	  10.097
     90.6918	  25.000	  22.080	-245.830	  10.081
     90.7252	  28.000	  22.534	-243.284	  10.066
     90.7587	  30.000	  23.022	-241.772	  10.051
     90.7921	  22.000	  23.549	-250.299	  10.036
     90.8255	  28.000	  24.118	-244.868	  10.020
     90.8589	  20.000	  24.734	-253.484	  10.005
     90.8923	  28.000	  25.400	-246.150	   9.990
     90.9258	  25.000	  26.122	-249.872	   9.974
     90.9592	  18.000	  26.906	-257.656	   9.959
     90.9926	  38.000	  27.739	-238.489	   9.943
     91.0260	  29.000	  28.668	-248.418	   9.927
     91.0595	  31.000	  29.680	-247.430	   9.912
     91.0929	  41.000	  30.784	-238.534	   9.896
     91.1263	  38.000	  31.991	-242.741	   9.880
     91.1597	  28.000	  33.309	-254.059	   9.864
     91.1932	  28.000	  34.752	-255.502	   9.848
     91.2266	  29.000	  36.320	-256.070	   9.832
     91.2600	  27.000	  38.046	-259.796	   9.817
     91.2934	  37.000	  39.932	-251.682	   9.800
     91.3268	  43.000	  41.991	-247.741	   9.784
     91.3603	  42.000	  44.233	-250.983	   9.768
     91.3937	  33.000	  46.668	-262.418	   9.752
     91.4271	  39.000	  49.297	-259.047	   9.736
     91.4605	  47.000	  52.122	-253.872	   9.719
     91.4940	  44.000	  55.132	-259.882	   9.703
     91.5274	  56.000	  58.306	-251.056	   9.687
     91.5608	  51.000	  61.609	-259.359	   9.670
     91.5942	  63.000	  64.993	-250.743	   9.654
     91.6276	  66.000	  68.394	-251.144	   9.637
     91.6611	  69.000	  71.735	-251.485	   9.621
     91.6945	  84.000	  74.932	-239.682	   9.604
     91.7279	  71.000	  77.902	-255.652	   9.587
     91.7613	  84.000	  80.572	-245.322	   9.570
     91.7948	  77.000	  82.885	-254.635	   9.554
     91.8282	  66.000	  84.809	-267.559	   9.537
     91.8616	  77.000	  86.332	-258.082	   9.520
     91.8950	  76.000	  87.466	-260.216	   9.503
     91.9285	  63.000	  88.232	-273.982	   9.486
     91.9619	  84.000	  88.663	-253.413	   9.469
     91.9953	  66.000	  88.792	-271.542	   9.452
     92.0287	  78.000	  88.657	-259.407	   9.434
     92.0621	  76.000	  88.296	-261.046	   9.417
     92.0956	  82.000	  87.748	-254.498	   9.400
     92.1290	  65.000	  87.053	-270.803	   9.382
     92.1624	  77.000	  86.248	-257.997	   9.365
     92.1958	  73.000	  85.394	-261.144	   9.348
     92.2293	  72.000	  84.446	-261.196	   9.330
     92.2627	  77.000	  83.442	-255.192	   9.313
     92.2961	  74.000	  82.377	-257.127	   9.295
     92.3295	  57.000	  81.233	-272.983	   9.277
     92.3629	  68.000	  79.987	-260.737	   9.260
     92.3964	  63.000	  78.617	-264.367	   9.242
     92.4298	  61.000	  77.105	-264.855	   9.224
     92.4632	  51.000	  75.445	-273.195	   9.206
     92.4966	  44.000	  73.662	-278.412	   9.188
     92.5301	  61.000	  71.739	-259.489	   9.170
     92.5635	  46.000	  69.716	-272.466	   9.152
     92.5969	  58.000	  67.617	-258.367	   9.134
     92.6303	  70.000	  65.463	-244.213	   9.116
     92.6637	  63.000	  63.274	-249.024	   9.097
     92.6972	  44.000	  61.060	-265.810	   9.079
     92.7306	  41.000	  58.834	-266.584	   9.061
     92.7640	  49.000	  56.649	-256.399	   9.042
     92.7974	  39.000	  54.443	-264.193	   9.024
     92.8309	  47.000	  52.277	-254.027	   9.006
     92.8643	  43.000	  50.171	-255.921	   8.987
     92.8977	  43.000	  48.148	-253.898	   8.968
     92.9311	  37.000	  46.230	-257.979	   8.950
     92.9645	  38.000	  44.432	-255.182	   8.931
     92.9980	  36.000	  42.766	-255.516	   8.912
     93.0314	  29.000	  41.242	-260.992	   8.893
     93.0648	  38.000	  39.884	-250.634	   8.874
     93.0982	  37.000	  38.652	-250.402	   8.856
     93.1317	  47.000	  37.567	-239.317	   8.837
     93.1651	  25.000	  36.624	-260.374	   8.817
     93.1985	  33.000	  35.821	-251.571	   8.798
     93.2319	  31.000	  35.154	-252.904	   8.779
     93.2654	  28.000	  34.619	-255.369	   8.760
     93.2988	  29.000	  34.213	-253.963	   8.741
     93.3322	  24.000	  33.932	-258.682	   8.721
     93.3656	  36.000	  33.775	-246.525	   8.702
     93.3990	  18.000	  33.737	-264.487	   8.682
     93.4325	  38.000	  33.816	-244.566	   8.663
     93.4659	  34.000	  34.007	-248.757	   8.643
     93.4993	  31.000	  34.305	-252.055	   8.624
     93.5327	  37.000	  34.701	-246.451	   8.604
     93.5662	  35.000	  35.186	-248.936	   8.584
     93.5996	  28.000	  35.745	-256.495	   8.565
     93.6330	  23.000	  36.357	-262.107	   8.545
     93.6664	  32.000	  36.999	-253.749	   8.525
     93.6998	  33.000	  37.644	-253.394	   8.505
     93.7333	  31.000	  38.260	-256.010	   8.485
     93.7667	  37.000	  38.817	-250.567	   8.465
     93.8001	  21.000	  39.288	-267.038	   8.445
     93.8335	  38.000	  39.653	-250.403	   8.424
     93.8670	  23.000	  39.897	-265.647	   8.404
     93.9004	  28.000	  40.016	-260.766	   8.384
     93.9338	  42.000	  40.011	-246.761	   8.363
     93.9672	  29.000	  39.887	-259.637	   8.343
     94.0006	  37.000	  39.660	-251.410	   8.322
     94.0341	  41.000	  39.318	-247.068	   8.302
     94.0675	  35.000	  38.870	-252.620	   8.281
     94.1009	  51.000	  38.320	-236.070	   8.261
     94.1343	  45.000	  37.668	-241.418	   8.240
     94.1678	  33.000	  36.919	-252.669	   8.219
     94.2012	  27.000	  36.082	-257.832	   8.198
     94.2346	  30.000	  35.170	-253.920	   8.177
     94.2680	  33.000	  34.201	-249.951	   8.156
     94.3015	  39.000	  33.197	-242.947	   8.135
     94.3349	  28.000	  32.169	-252.919	   8.114
     94.3683	  29.000	  31.136	-250.886	   8.093
     94.4017	  37.000	  30.112	-241.862	   8.072
     94.4351	  24.000	  29.106	-253.856	   8.050
     94.4686	  24.000	  28.126	-252.876	   8.029
     94.5020	  33.000	  27.176	-242.926	   8.008
     94.5354	  27.000	  26.262	-248.012	   7.986
     94.5688	  23.000	  25.385	-251.135	   7.965
     94.6022	  28.000	  24.551	-245.301	   7.943
     94.6357	  22.000	  23.759	-250.509	   7.922
     94.6691	  27.000	  23.012	-244.762	   7.900
     94.7025	  19.000	  22.311	-252.061	   7.878
     94.7359	  14.000	  21.656	-256.406	   7.856
     94.7694	  27.000	  21.046	-242.796	   7.834
     94.8028	  23.000	  20.479	-246.229	   7.812
     94.8362	  27.000	  19.953	-241.703	   7.790
     94.8696	  23.000	  19.467	-245.217	   7.768
     94.9031	  23.000	  19.018	-244.768	   7.746
     94.9365	  22.000	  18.603	-245.353	   7.724
     94.9699	  18.000	  18.219	-248.969	   7.702
     95.0033	  15.000	  17.865	-251.615	   7.680
     95.0367	  25.000	  17.538	-241.288	   7.657
     95.0702	  20.000	  17.236	-245.986	   7.635
     95.1036	  18.000	  16.956	-247.706	   7.612
     95.1370	  25.000	  16.697	-240.447	   7.590
     95.1704	  12.000	  16.458	-253.208	   7.567
     95.2039	  25.000	  16.236	-239.986	   7.544
     95.2373	  15.000	  16.030	-249.780	   7.522
     95.2707	  27.000	  15.839	-237.589	   7.499
     95.3041	  15.000	  15.662	-249.412	   7.476
     95.3375	  21.000	  15.498	-243.248	   7.453
     95.3710	  22.000	  15.346	-242.096	   7.430
     95.4044	  15.000	  15.205	-248.955	   7.407
     95.4378	  12.000	  15.075	-251.825	   7.384
     95.4712	  15.000	  14.954	-248.704	   7.361
     95.5047	  21.000	  14.842	-242.592	   7.337
     95.5381	  22.000	  14.739	-241.489	   7.314
     95.5715	  17.000	  14.645	-246.395	   7.291
     95.6049	  20.000	  14.557	-243.307	   7.267
     95.6384	  18.000	  14.478	-245.228	   7.244
     95.6718	  22.000	  14.405	-241.155	   7.220
     95.7052	  19.000	  14.339	-244.089	   7.197
     95.7386	  16.000	  14.280	-247.030	   7.173
     95.7720	  15.000	  14.227	-247.977	   7.149
     95.8055	  19.000	  14.180	-243.930	   7.125
     95.8389	  21.000	  14.139	-241.889	   7.101
     95.8723	  17.000	  14.105	-245.855	   7.078
     95.9057	  15.000	  14.041	-247.791	   7.053
     95.9392	  27.000	  14.017	-235.767	   7.029
     95.9726	  27.000	  14.000	-235.750	   7.005
     96.0060	  20.000	  13.988	-242.738	   6.981
     96.0394	  11.000	  13.982	-251.732	   6.957
     96.0728	  22.000	  13.982	-240.732	   6.932
     96.1063	  24.000	  13.987	-238.737	   6.908
     96.1397	  15.000	  13.998	-247.748	   6.884
     96.1731	  20.000	  14.015	-242.765	   6.859
     96.2065	  18.000	  14.021	-244.771	   6.834
     96.2400	  25.000	  14.050	-237.800	   6.810
     96.2734	  18.000	  14.086	-244.836	   6.785
     96.3068	  12.000	  14.128	-250.878	   6.760
     96.3402	  24.000	  14.176	-238.926	   6.735
     96.3736	  16.000	  14.232	-246.982	   6.711
     96.4071	  21.000	  14.295	-242.045	   6.686
     96.4405	  22.000	  14.365	-241.115	   6.661
     96.4739	  14.000	  14.443	-249.193	   6.635
     96.5073	  22.000	  14.530	-241.280	   6.610
     96.5408	  18.000	  14.624	-245.374	   6.585
     96.5742	  15.000	  14.727	-248.477	   6.560
     96.6076	  19.000	  14.840	-244.590	   6.534
     96.6410	  14.000	  14.961	-249.711	   6.509
     96.6745	  23.000	  15.093	-240.843	   6.483
     96.7079	  34.000	  15.234	-229.984	   6.458
     96.7413	  24.000	  15.386	-240.136	   6.432
     96.7747	  42.000	  15.549	-222.299	   6.406
     96.8081	  21.000	  15.723	-243.473	   6.381
     96.8416	  18.000	  15.910	-246.660	   6.355
     96.8750	  27.000	  16.109	-237.859	   6.329
     96.9084	  17.000	  16.323	-248.073	   6.303
     96.9418	  24.000	  16.553	-241.303	   6.277
     96.9753	  19.000	  16.799	-246.549	   6.251
     97.0087	  16.000	  17.070	-249.820	   6.225
     97.0421	  23.000	  17.355	-243.105	   6.198
     97.0755	  18.000	  17.662	-248.412	   6.172
     97.1089	  30.000	  17.993	-236.743	   6.146
     97.1424	  28.000	  18.350	-239.100	   6.119
     97.1758	  24.000	  18.736	-243.486	   6.093
     97.2092	  28.000	  19.153	-239.903	   6.066
     97.2426	  28.000	  19.604	-240.354	   6.039
     97.2761	  25.000	  20.092	-243.842	   6.013
     97.3095	  29.000	  20.623	-240.373	   5.986
     97.3429	  22.000	  21.201	-247.951	   5.959
     97.3763	  29.000	  21.826	-241.576	   5.932
     97.4097	  27.000	  22.505	-244.255	   5.905
     97.4432	  30.000	  23.245	-241.995	   5.878
     97.4766	  32.000	  24.050	-240.800	   5.851
     97.5100	  30.000	  24.927	-243.677	   5.824
     97.5434	  33.000	  25.883	-241.633	   5.796
     97.5769	  32.000	  26.925	-243.675	   5.769
     97.6103	  30.000	  28.060	-246.810	   5.742
     97.6437	  44.000	  29.298	-234.048	   5.714
     97.6771	  41.000	  30.645	-238.395	   5.687
     97.7105	  42.000	  32.112	-238.862	   5.659
     97.7440	  49.000	  33.705	-233.455	   5.631
     97.7774	  35.000	  35.432	-249.182	   5.604
     97.8108	  34.000	  37.297	-252.047	   5.576
     97.8442	  43.000	  39.306	-245.056	   5.548
     97.8777	  44.000	  41.482	-246.232	   5.520
     97.9111	  50.000	  43.769	-242.519	   5.492
     97.9445	  49.000	  46.179	-245.929	   5.464
     97.9779	  57.000	  48.692	-240.442	   5.436
     98.0114	  55.000	  51.293	-245.043	   5.407
     98.0448	  61.000	  53.908	-241.658	   5.379
     98.0782	  70.000	  56.500	-235.250	   5.351
     98.1116	  61.000	  59.009	-246.759	   5.322
     98.1450	  58.000	  61.371	-252.121	   5.294
     98.1785	  63.000	  63.518	-249.268	   5.265
     98.2119	  72.000	  65.407	-242.157	   5.236
     98.2453	  57.000	  66.973	-258.723	   5.208
     98.2787	  76.000	  68.204	-240.954	   5.179
     98.3122	  70.000	  69.101	-247.851	   5.150
     98.3456	  75.000	  69.691	-243.441	   5.121
     98.3790	  65.000	  69.991	-253.741	   5.092
     98.4124	  64.000	  70.048	-254.798	   5.063
     98.4458	  57.000	  69.900	-261.650	   5.034
     98.4793	  60.000	  69.595	-258.345	   5.004
     98.5127	  77.000	  69.159	-240.909	   4.975
     98.5461	  65.000	  68.622	-252.372	   4.946
     98.5795	  62.000	  68.010	-254.760	   4.916
     98.6130	  81.000	  67.348	-235.098	   4.887
     98.6464	  66.000	  66.664	-249.414	   4.857
     98.6798	  71.000	  65.987	-243.737	   4.828
     98.7132	  78.000	  65.344	-236.094	   4.798
     98.7467	  72.000	  64.761	-241.511	   4.768
     98.7801	  71.000	  64.252	-242.002	   4.738
     98.8135	  84.000	  63.822	-228.572	   4.708
     98.8469	  61.000	  63.468	-251.218	   4.678
     98.8803	  70.000	  63.167	-241.917	   4.648
     98.9138	  70.000	  62.890	-241.640	   4.618
     98.9472	  60.000	  62.602	-251.352	   4.588
     98.9806	  60.000	  62.248	-250.998	   4.557
     99.0140	  55.000	  61.795	-255.545	   4.527
     99.0474	  63.000	  61.208	-246.958	   4.496
     99.0809	  49.000	  60.467	-260.217	   4.466
     99.1143	  56.000	  59.563	-252.313	   4.435
     99.1477	  55.000	  58.499	-252.249	   4.405
     99.1811	  74.000	  57.290	-232.040	   4.374
     99.2146	  69.000	  55.951	-235.701	   4.343
     99.2480	  55.000	  54.502	-248.252	   4.312
     99.2814	  43.000	  52.960	-258.710	   4.281
     99.3148	  62.000	  51.340	-238.090	   4.250
     99.3483	  45.000	  49.647	-253.397	   4.219
     99.3817	  60.000	  47.894	-236.644	   4.188
     99.4151	  45.000	  46.091	-249.841	   4.156
     99.4485	  50.000	  44.253	-243.003	   4.125
     99.4819	  51.000	  42.397	-240.147	   4.094
     99.5154	  43.000	  40.539	-246.289	   4.062
     99.5488	  49.000	  38.702	-238.452	   4.031
     99.5822	  44.000	  36.904	-241.654	   3.999
     99.6156	  36.000	  35.164	-247.914	   3.967
     99.6491	  52.000	  33.495	-230.245	   3.935
     99.6825	  57.000	  31.908	-223.658	   3.904
     99.7159	  39.000	  30.410	-240.160	   3.872
     99.7493	  37.000	  29.005	-240.755	   3.840
     99.7827	  41.000	  27.695	-235.445	   3.808
     99.8162	  49.000	  26.489	-226.239	   3.775
     99.8496	  45.000	  25.363	-229.113	   3.743
     99.8830	  38.000	  24.325	-235.075	   3.711
     99.9164	  23.000	  23.370	-249.120	   3.678
     99.9499	  27.000	  22.493	-244.243	   3.646
     99.9833	  29.000	  21.921	-241.671	   3.613
     15.8805	        	        	        	        	       0	(  0  1  0)	  0  1 :  1
     15.9199	        	        	        	        	       0	(  0  1  0)	  0  2 :  1
     27.7114	        	        	        	        	       0	(  1  1  0)	  0  1 :  1
     27.7810	        	        	        	        	       0	(  1  1  0)	  0  2 :  1
     28.7001	        	        	        	        	       0	(  0  1  1)	  0  1 :  1
     28.7723	        	        	        	        	       0	(  0  1  1)	  0  2 :  1
     32.1113	        	        	        	        	       0	(  0  2  0)	  0  1 :  1
     32.1925	        	        	        	        	       0	(  0  2  0)	  0  2 :  1
     36.8156	        	        	        	        	       0	(  1  1  1)	  0  1 :  1
     36.9095	        	        	        	        	       0	(  1  1  1)	  0  2 :  1
     40.3350	        	        	        	        	       0	(  0  2  1)	  0  1 :  1
     40.4386	        	        	        	        	       0	(  0  2  1)	  0  2 :  1
     42.9344	        	        	        	        	       0	(  1  2  0)	  0  1 :  1
     42.9344	        	        	        	        	       0	(  2  1  0)	  0  1 :  1
     43.0454	        	        	        	        	       0	(  1  2  0)	  0  2 :  1
     43.0454	        	        	        	        	       0	(  2  1  0)	  0  2 :  1
     48.6092	        	        	        	        	       0	(  0  0  2)	  0  1 :  1
     48.7367	        	        	        	        	       0	(  0  0  2)	  0  2 :  1
     49.0402	        	        	        	        	       0	(  0  3  0)	  0  1 :  1
     49.1689	        	        	        	        	       0	(  0  3  0)	  0  2 :  1
     49.6565	        	        	        	        	       0	(  1  2  1)	  0  1 :  1
     49.6565	        	        	        	        	       0	(  2  1  1)	  0  1 :  1
     49.7871	        	        	        	        	       0	(  1  2  1)	  0  2 :  1
     49.7871	        	        	        	        	       0	(  2  1  1)	  0  2 :  1
     51.4728	        	        	        	        	       0	(  0  1  2)	  0  1 :  1
     51.6089	        	        	        	        	       0	(  0  1  2)	  0  2 :  1
     55.1972	        	        	        	        	       0	(  0  3  1)	  0  1 :  1
     55.3447	        	        	        	        	       0	(  0  3  1)	  0  2 :  1
     56.8886	        	        	        	        	       0	(  1  1  2)	  0  1 :  1
     57.0415	        	        	        	        	       0	(  1  1  2)	  0  2 :  1
     57.2751	        	        	        	        	       0	(  2  2  0)	  0  1 :  1
     57.4292	        	        	        	        	       0	(  2  2  0)	  0  2 :  1
     59.4721	        	        	        	        	       0	(  0  2  2)	  0  1 :  1
     59.6333	        	        	        	        	       0	(  0  2  2)	  0  2 :  1
     59.8481	        	        	        	        	       0	(  1  3  0)	  0  1 :  1
     59.8481	        	        	        	        	       0	(  3  1  0)	  0  1 :  1
     60.0105	        	        	        	        	       0	(  1  3  0)	  0  2 :  1
     60.0105	        	        	        	        	       0	(  3  1  0)	  0  2 :  1
     62.8823	        	        	        	        	       0	(  2  2  1)	  0  1 :  1
     63.0549	        	        	        	        	       0	(  2  2  1)	  0  2 :  1
     65.3228	        	        	        	        	       0	(  1  3  1)	  0  1 :  1
     65.3228	        	        	        	        	       0	(  3  1  1)	  0  1 :  1
     65.5037	        	        	        	        	       0	(  1  3  1)	  0  2 :  1
     65.5037	        	        	        	        	       0	(  3  1  1)	  0  2 :  1
     66.8577	        	        	        	        	       0	(  1  2  2)	  0  1 :  1
     66.8577	        	        	        	        	       0	(  2  1  2)	  0  1 :  1
     67.0440	        	        	        	        	       0	(  1  2  2)	  0  2 :  1
     67.0440	        	        	        	        	       0	(  2  1  2)	  0  2 :  1
     67.2101	        	        	        	        	       0	(  0  4  0)	  0  1 :  1
     67.3977	        	        	        	        	       0	(  0  4  0)	  0  2 :  1
     71.5556	        	        	        	        	       0	(  0  3  2)	  0  1 :  1
     71.7591	        	        	        	        	       0	(  0  3  2)	  0  2 :  1
     72.3888	        	        	        	        	       0	(  0  4  1)	  0  1 :  1
     72.5954	        	        	        	        	       0	(  0  4  1)	  0  2 :  1
     74.1928	        	        	        	        	       0	(  3  2  0)	  0  1 :  1
     74.1928	        	        	        	        	       0	(  2  3  0)	  0  1 :  1
     74.4063	        	        	        	        	       0	(  2  3  0)	  0  2 :  1
     74.4063	        	        	        	        	       0	(  3  2  0)	  0  2 :  1
     78.3797	        	        	        	        	       0	(  2  2  2)	  0  1 :  1
     78.5259	        	        	        	        	       0	(  0  1  3)	  0  1 :  1
     78.6098	        	        	        	        	       0	(  2  2  2)	  0  2 :  1
     78.7108	        	        	        	        	       0	(  1  4  0)	  0  1 :  1
     78.7108	        	        	        	        	       0	(  4  1  0)	  0  1 :  1
     78.7566	        	        	        	        	       0	(  0  1  3)	  0  2 :  1
     78.9423	        	        	        	        	       0	(  1  4  0)	  0  2 :  1
     78.9423	        	        	        	        	       0	(  4  1  0)	  0  2 :  1
     79.1874	        	        	        	        	       0	(  2  3  1)	  0  1 :  1
     79.1874	        	        	        	        	       0	(  3  2  1)	  0  1 :  1
     79.4209	        	        	        	        	       0	(  2  3  1)	  0  2 :  1
     79.4209	        	        	        	        	       0	(  3  2  1)	  0  2 :  1
     80.6129	        	        	        	        	       0	(  1  3  2)	  0  1 :  1
     80.6129	        	        	        	        	       0	(  3  1  2)	  0  1 :  1
     80.8524	        	        	        	        	       0	(  1  3  2)	  0  2 :  1
     80.8524	        	        	        	        	       0	(  3  1  2)	  0  2 :  1
     82.9761	        	        	        	        	       0	(  1  1  3)	  0  1 :  1
     83.2258	        	        	        	        	       0	(  1  1  3)	  0  2 :  1
     83.6297	        	        	        	        	       0	(  4  1  1)	  0  1 :  1
     83.6297	        	        	        	        	       0	(  1  4  1)	  0  1 :  1
     83.8823	        	        	        	        	       0	(  4  1  1)	  0  2 :  1
     83.8823	        	        	        	        	       0	(  1  4  1)	  0  2 :  1
     85.1838	        	        	        	        	       0	(  0  2  3)	  0  1 :  1
     85.4434	        	        	        	        	       0	(  0  2  3)	  0  2 :  1
     87.2409	        	        	        	        	       0	(  0  4  2)	  0  1 :  1
     87.5100	        	        	        	        	       0	(  0  4  2)	  0  2 :  1
     87.5658	        	        	        	        	       0	(  0  5  0)	  0  1 :  1
     87.8365	        	        	        	        	       0	(  0  5  0)	  0  2 :  1
     91.7772	        	        	        	        	       0	(  1  2  3)	  0  1 :  1
     91.7772	        	        	        	        	       0	(  2  1  3)	  0  1 :  1
     91.9587	        	        	        	        	       0	(  3  3  0)	  0  1 :  1
     92.0686	        	        	        	        	       0	(  1  2  3)	  0  2 :  1
     92.0686	        	        	        	        	       0	(  2  1  3)	  0  2 :  1
     92.2509	        	        	        	        	       0	(  3  3  0)	  0  2 :  1
     92.4268	        	        	        	        	       0	(  0  5  1)	  0  1 :  1
     92.7215	        	        	        	        	       0	(  0  5  1)	  0  2 :  1
     93.8325	        	        	        	        	       0	(  2  3  2)	  0  1 :  1
     93.8325	        	        	        	        	       0	(  3  2  2)	  0  1 :  1
     94.1345	        	        	        	        	       0	(  2  3  2)	  0  2 :  1
     94.1345	        	        	        	        	       0	(  3  2  2)	  0  2 :  1
     94.1578	        	        	        	        	       0	(  2  4  0)	  0  1 :  1
     94.1578	        	        	        	        	       0	(  4  2  0)	  0  1 :  1
     94.4616	        	        	        	        	       0	(  2  4  0)	  0  2 :  1
     94.4616	        	        	        	        	       0	(  4  2  0)	  0  2 :  1
     96.1808	        	        	        	        	       0	(  0  3  3)	  0  1 :  1
     96.4955	        	        	        	        	       0	(  0  3  3)	  0  2 :  1
     96.8342	        	        	        	        	       0	(  3  3  1)	  0  1 :  1
     97.1526	        	        	        	        	       0	(  3  3  1)	  0  2 :  1
     98.2500	        	        	        	        	       0	(  1  4  2)	  0  1 :  1
     98.2500	        	        	        	        	       0	(  4  1  2)	  0  1 :  1
     98.5765	        	        	        	        	       0	(  1  4  2)	  0  2 :  1
     98.5765	        	        	        	        	       0	(  4  1  2)	  0  2 :  1
     99.0516	        	        	        	        	       0	(  4  2  1)	  0  1 :  1
     99.0516	        	        	        	        	       0	(  2  4  1)	  0  1 :  1
     99.3827	        	        	        	        	       0	(  4  2  1)	  0  2 :  1
     99.3827	        	        	        	        	       0	(  2  4  1)	  0  2 :  1
    100.8061	        	        	        	        	       0	(  1  5  0)	  0  1 :  1
    100.8061	        	        	        	        	       0	(  5  1  0)	  0  1 :  1
    101.1477	        	        	        	        	       0	(  1  5  0)	  0  2 :  1
    101.1477	        	        	        	        	       0	(  5  1  0)	  0  2 :  1
    102.8647	        	        	        	        	       0	(  2  2  3)	  0  1 :  1
    103.2191	        	        	        	        	       0	(  2  2  3)	  0  2 :  1
    105.1281	        	        	        	        	       0	(  1  3  3)	  0  1 :  1
    105.1281	        	        	        	        	       0	(  3  1  3)	  0  1 :  1
    105.4974	        	        	        	        	       0	(  1  3  3)	  0  2 :  1
    105.4974	        	        	        	        	       0	(  3  1  3)	  0  2 :  1
    105.8017	        	        	        	        	       0	(  1  5  1)	  0  1 :  1
    105.8017	        	        	        	        	       0	(  5  1  1)	  0  1 :  1
    106.1755	        	        	        	        	       0	(  1  5  1)	  0  2 :  1
    106.1755	        	        	        	        	       0	(  5  1  1)	  0  2 :  1
    107.2660	        	        	        	        	       0	(  0  5  2)	  0  1 :  1
    107.6499	        	        	        	        	       0	(  0  5  2)	  0  2 :  1
    110.8836	        	        	        	        	       0	(  0  0  4)	  0  1 :  1
    111.2942	        	        	        	        	       0	(  0  0  4)	  0  2 :  1
    111.9297	        	        	        	        	       0	(  3  3  2)	  0  1 :  1
    112.0842	        	        	        	        	       0	(  0  4  3)	  0  1 :  1
    112.2801	        	        	        	        	       0	(  0  6  0)	  0  1 :  1
    112.3485	        	        	        	        	       0	(  3  3  2)	  0  2 :  1
    112.5042	        	        	        	        	       0	(  0  4  3)	  0  2 :  1
    112.7016	        	        	        	        	       0	(  0  6  0)	  0  2 :  1
    113.2536	        	        	        	        	       0	(  0  1  4)	  0  1 :  1
    113.6831	        	        	        	        	       0	(  0  1  4)	  0  2 :  1
    114.3179	        	        	        	        	       0	(  2  4  2)	  0  1 :  1
    114.3179	        	        	        	        	       0	(  4  2  2)	  0  1 :  1
    114.6747	        	        	        	        	       0	(  3  4  0)	  0  1 :  1
    114.6747	        	        	        	        	       0	(  4  3  0)	  0  1 :  1
    114.7562	        	        	        	        	       0	(  2  4  2)	  0  2 :  1
    114.7562	        	        	        	        	       0	(  4  2  2)	  0  2 :  1
    115.1160	        	        	        	        	       0	(  3  4  0)	  0  2 :  1
    115.1160	        	        	        	        	       0	(  4  3  0)	  0  2 :  1
    117.6432	        	        	        	        	       0	(  0  6  1)	  0  1 :  1
    118.1109	        	        	        	        	       0	(  0  6  1)	  0  2 :  1
    118.1295	        	        	        	        	       0	(  1  1  4)	  0  1 :  1
    118.6018	        	        	        	        	       0	(  1  1  4)	  0  2 :  1
    119.4040	        	        	        	        	       0	(  2  3  3)	  0  1 :  1
    119.4040	        	        	        	        	       0	(  3  2  3)	  0  1 :  1
    119.6124	        	        	        	        	       0	(  2  5  0)	  0  1 :  1
    119.6124	        	        	        	        	       0	(  5  2  0)	  0  1 :  1
    119.8885	        	        	        	        	       0	(  2  3  3)	  0  2 :  1
    119.8885	        	        	        	        	       0	(  3  2  3)	  0  2 :  1
    120.0989	        	        	        	        	       0	(  2  5  0)	  0  2 :  1
    120.0989	        	        	        	        	       0	(  5  2  0)	  0  2 :  1
    120.1521	        	        	        	        	       0	(  3  4  1)	  0  1 :  1
    120.1521	        	        	        	        	       0	(  4  3  1)	  0  1 :  1
    120.6440	        	        	        	        	       0	(  3  4  1)	  0  2 :  1
    120.6440	        	        	        	        	       0	(  4  3  1)	  0  2 :  1
    120.6504	        	        	        	        	       0	(  0  2  4)	  0  1 :  1
    121.1473	        	        	        	        	       0	(  0  2  4)	  0  2 :  1
    121.7893	        	        	        	        	       0	(  1  5  2)	  0  1 :  1
    121.7893	        	        	        	        	       0	(  5  1  2)	  0  1 :  1
    122.2980	        	        	        	        	       0	(  1  5  2)	  0  2 :  1
    122.2980	        	        	        	        	       0	(  5  1  2)	  0  2 :  1
    124.5852	        	        	        	        	       0	(  1  4  3)	  0  1 :  1
    124.5852	        	        	        	        	       0	(  4  1  3)	  0  1 :  1
    125.1247	        	        	        	        	       0	(  1  4  3)	  0  2 :  1
    125.1247	        	        	        	        	       0	(  4  1  3)	  0  2 :  1
    125.3777	        	        	        	        	       0	(  2  5  1)	  0  1 :  1
    125.3777	        	        	        	        	       0	(  5  2  1)	  0  1 :  1
    125.9264	        	        	        	        	       0	(  2  5  1)	  0  2 :  1
    125.9264	        	        	        	        	       0	(  5  2  1)	  0  2 :  1
    128.6675	        	        	        	        	       0	(  1  2  4)	  0  1 :  1
    128.6675	        	        	        	        	       0	(  2  1  4)	  0  1 :  1
    129.2576	        	        	        	        	       0	(  1  2  4)	  0  2 :  1
    129.2576	        	        	        	        	       0	(  2  1  4)	  0  2 :  1
    130.3507	        	        	        	        	       0	(  1  6  0)	  0  1 :  1
    130.3507	        	        	        	        	       0	(  6  1  0)	  0  1 :  1
    130.9641	        	        	        	        	       0	(  1  6  0)	  0  2 :  1
    130.9641	        	        	        	        	       0	(  6  1  0)	  0  2 :  1
    134.5450	        	        	        	        	       0	(  0  3  4)	  0  1 :  1
    135.2232	        	        	        	        	       0	(  0  3  4)	  0  2 :  1
    135.9282	        	        	        	        	       0	(  0  6  2)	  0  1 :  1
    136.1346	        	        	        	        	       0	(  0  5  3)	  0  1 :  1
    136.6304	        	        	        	        	       0	(  0  6  2)	  0  2 :  1
    136.8405	        	        	        	        	       0	(  0  5  3)	  0  2 :  1
    137.0798	        	        	        	        	       0	(  1  6  1)	  0  1 :  1
    137.0798	        	        	        	        	       0	(  6  1  1)	  0  1 :  1
    137.8031	        	        	        	        	       0	(  1  6  1)	  0  2 :  1
    137.8031	        	        	        	        	       0	(  6  1  1)	  0  2 :  1
    139.1833	        	        	        	        	       0	(  3  4  2)	  0  1 :  1
    139.1833	        	        	        	        	       0	(  4  3  2)	  0  1 :  1
