 Nd hydroxide   Chi2:  2.5054  CELL:    6.42473   6.42473   3.73891   90.0000   90.0000  120.0000   SPGR: P 63/m                 TEMP:      0.00
  1   2693     1.54060     1.54439     0.00000     0.06674     0.00000    0
   178     0     1
       0.00000      13.00000
 2Theta	Yobs	Ycal	Yobs-Ycal	Backg	Posr	(hkl)	K
     10.0098	  242.00	  136.38	 -526.63	  136.38
     10.0432	  210.00	  136.16	 -526.63	  136.16
     10.0767	  232.00	  135.94	 -526.63	  135.94
     10.1101	  211.00	  135.73	 -526.63	  135.73
     10.1435	  237.00	  135.51	 -526.63	  135.51
     10.1769	  256.00	  135.29	 -526.63	  135.29
     10.2103	  232.00	  135.08	 -526.63	  135.08
     10.2438	  296.00	  134.86	 -526.63	  134.86
     10.2772	  259.00	  134.65	 -526.63	  134.65
     10.3106	  207.00	  134.43	 -526.63	  134.43
     10.3440	  244.00	  134.22	 -526.63	  134.22
     10.3775	  238.00	  134.00	 -526.63	  134.00
     10.4109	  232.00	  133.79	 -526.63	  133.79
     10.4443	  234.00	  133.57	 -526.63	  133.57
     10.4777	  213.00	  133.36	 -526.63	  133.36
     10.5111	  229.00	  133.14	 -526.63	  133.14
     10.5446	  247.00	  132.93	 -526.63	  132.93
     10.5780	  245.00	  132.72	 -526.63	  132.72
     10.6114	  251.00	  132.50	 -526.63	  132.50
     10.6448	  219.00	  132.29	 -526.63	  132.29
     10.6783	  255.00	  132.08	 -526.63	  132.08
     10.7117	  247.00	  131.87	 -526.63	  131.87
     10.7451	  232.00	  131.65	 -526.63	  131.65
     10.7785	  253.00	  131.44	 -526.63	  131.44
     10.8120	  240.00	  131.23	 -526.63	  131.23
     10.8454	  236.00	  131.02	 -526.63	  131.02
     10.8788	  227.00	  130.81	 -526.63	  130.81
     10.9122	  217.00	  130.60	 -526.63	  130.60
     10.9456	  227.00	  130.39	 -526.63	  130.39
     10.9791	  202.00	  130.18	 -526.63	  130.18
     11.0125	  219.00	  129.97	 -526.63	  129.97
     11.0459	  173.00	  129.76	 -526.63	  129.76
     11.0793	  221.00	  129.55	 -526.63	  129.55
     11.1128	  206.00	  129.34	 -526.63	  129.34
     11.1462	  198.00	  129.13	 -526.63	  129.13
     11.1796	  238.00	  128.92	 -526.63	  128.92
     11.2130	  213.00	  128.71	 -526.63	  128.71
     11.2464	  200.00	  128.50	 -526.63	  128.50
     11.2799	  219.00	  128.29	 -526.63	  128.29
     11.3133	  213.00	  128.08	 -526.63	  128.08
     11.3467	  209.00	  127.88	 -526.63	  127.88
     11.3801	  218.00	  127.67	 -526.63	  127.67
     11.4136	  170.00	  127.46	 -526.63	  127.46
     11.4470	  226.00	  127.25	 -526.63	  127.25
     11.4804	  208.00	  127.05	 -526.63	  127.05
     11.5138	  217.00	  126.84	 -526.63	  126.84
     11.5472	  194.00	  126.63	 -526.63	  126.63
     11.5807	  209.00	  126.43	 -526.63	  126.43
     11.6141	  207.00	  126.22	 -526.63	  126.22
     11.6475	  195.00	  126.01	 -526.63	  126.01
     11.6809	  218.00	  125.81	 -526.63	  125.81
     11.7144	  209.00	  125.60	 -526.63	  125.60
     11.7478	  210.00	  125.40	 -526.63	  125.40
     11.7812	  209.00	  125.19	 -526.63	  125.19
     11.8146	  202.00	  124.99	 -526.63	  124.99
     11.8481	  216.00	  124.78	 -526.63	  124.78
     11.8815	  212.00	  124.58	 -526.63	  124.58
     11.9149	  211.00	  124.38	 -526.63	  124.38
     11.9483	  191.00	  124.17	 -526.63	  124.17
     11.9817	  176.00	  123.97	 -526.63	  123.97
     12.0152	  180.00	  123.77	 -526.63	  123.77
     12.0486	  200.00	  123.56	 -526.63	  123.56
     12.0820	  175.00	  123.36	 -526.63	  123.36
     12.1154	  192.00	  123.16	 -526.63	  123.16
     12.1489	  190.00	  122.96	 -526.63	  122.96
     12.1823	  202.00	  122.75	 -526.63	  122.75
     12.2157	  181.00	  122.55	 -526.63	  122.55
     12.2491	  170.00	  122.35	 -526.63	  122.35
     12.2825	  203.00	  122.15	 -526.63	  122.15
     12.3160	  170.00	  121.95	 -526.63	  121.95
     12.3494	  205.00	  121.75	 -526.63	  121.75
     12.3828	  191.00	  121.55	 -526.63	  121.55
     12.4162	  191.00	  121.35	 -526.63	  121.35
     12.4497	  196.00	  121.15	 -526.63	  121.15
     12.4831	  182.00	  120.95	 -526.63	  120.95
     12.5165	  206.00	  120.75	 -526.63	  120.75
     12.5499	  195.00	  120.55	 -526.63	  120.55
     12.5833	  175.00	  120.35	 -526.63	  120.35
     12.6168	  196.00	  120.15	 -526.63	  120.15
     12.6502	  177.00	  119.95	 -526.63	  119.95
     12.6836	  176.00	  119.75	 -526.63	  119.75
     12.7170	  205.00	  119.55	 -526.63	  119.55
     12.7505	  203.00	  119.35	 -526.63	  119.35
     12.7839	  176.00	  119.16	 -526.63	  119.16
     12.8173	  162.00	  118.96	 -526.63	  118.96
     12.8507	  203.00	  118.76	 -526.63	  118.76
     12.8841	  182.00	  118.56	 -526.63	  118.56
     12.9176	  194.00	  118.37	 -526.63	  118.37
     12.9510	  183.00	  118.17	 -526.63	  118.17
     12.9844	  175.00	  117.97	 -526.63	  117.97
     13.0178	  179.00	  120.22	 -467.85	  117.78
     13.0513	  159.00	  120.08	 -487.71	  117.58
     13.0847	  186.00	  119.94	 -460.57	  117.39
     13.1181	  176.00	  119.80	 -470.43	  117.19
     13.1515	  177.00	  119.67	 -469.30	  117.00
     13.1850	  183.00	  119.54	 -463.17	  116.80
     13.2184	  178.00	  119.41	 -468.04	  116.61
     13.2518	  200.00	  119.28	 -445.91	  116.41
     13.2852	  193.00	  119.16	 -452.79	  116.22
     13.3186	  153.00	  119.04	 -492.67	  116.02
     13.3521	  176.00	  118.92	 -469.55	  115.83
     13.3855	  177.00	  118.81	 -468.44	  115.63
     13.4189	  167.00	  118.70	 -478.33	  115.44
     13.4523	  183.00	  118.59	 -462.22	  115.25
     13.4858	  216.00	  118.49	 -429.12	  115.05
     13.5192	  157.00	  118.39	 -488.02	  114.86
     13.5526	  152.00	  118.29	 -492.92	  114.67
     13.5860	  178.00	  118.20	 -466.83	  114.48
     13.6194	  197.00	  118.11	 -447.74	  114.28
     13.6529	  204.00	  118.03	 -440.66	  114.09
     13.6863	  149.00	  117.95	 -495.58	  113.90
     13.7197	  195.00	  117.88	 -449.51	  113.71
     13.7531	  169.00	  117.81	 -475.45	  113.52
     13.7866	  144.00	  117.75	 -500.39	  113.33
     13.8200	  166.00	  117.70	 -478.33	  113.14
     13.8534	  162.00	  117.65	 -482.29	  112.95
     13.8868	  172.00	  117.61	 -472.25	  112.76
     13.9202	  176.00	  117.58	 -468.21	  112.57
     13.9537	  154.00	  117.56	 -490.19	  112.38
     13.9871	  149.00	  117.54	 -495.17	  112.19
     14.0205	  167.00	  117.53	 -477.16	  112.00
     14.0539	  173.00	  117.53	 -471.17	  111.81
     14.0874	  195.00	  117.55	 -449.18	  111.62
     14.1208	  145.00	  117.57	 -499.20	  111.43
     14.1542	  171.00	  117.61	 -473.24	  111.24
     14.1876	  155.00	  117.66	 -489.29	  111.05
     14.2211	  159.00	  117.72	 -485.35	  110.87
     14.2545	  175.00	  117.80	 -469.43	  110.68
     14.2879	  166.00	  117.89	 -478.52	  110.49
     14.3213	  145.00	  118.00	 -499.63	  110.30
     14.3547	  169.00	  118.13	 -475.76	  110.12
     14.3882	  184.00	  118.28	 -460.91	  109.93
     14.4216	  177.00	  118.45	 -468.08	  109.74
     14.4550	  166.00	  118.64	 -479.27	  109.56
     14.4884	  178.00	  118.86	 -467.49	  109.37
     14.5219	  162.00	  119.11	 -483.74	  109.18
     14.5553	  142.00	  119.38	 -504.02	  109.00
     14.5887	  163.00	  119.70	 -483.33	  108.81
     14.6221	  168.00	  120.04	 -478.68	  108.63
     14.6555	  162.00	  120.43	 -485.06	  108.44
     14.6890	  169.00	  120.87	 -478.50	  108.26
     14.7224	  158.00	  121.35	 -489.98	  108.07
     14.7558	  162.00	  121.88	 -486.52	  107.89
     14.7892	  133.00	  122.48	 -516.11	  107.70
     14.8227	  170.00	  123.14	 -479.78	  107.52
     14.8561	  156.00	  123.88	 -494.52	  107.34
     14.8895	  167.00	  124.71	 -484.34	  107.15
     14.9229	  145.00	  125.63	 -507.26	  106.97
     14.9563	  148.00	  126.65	 -505.28	  106.79
     14.9898	  163.00	  127.80	 -491.43	  106.60
     15.0232	  162.00	  129.08	 -493.71	  106.42
     15.0566	  164.00	  130.52	 -493.16	  106.24
     15.0900	  144.00	  132.14	 -514.78	  106.06
     15.1235	  163.00	  133.97	 -497.61	  105.87
     15.1569	  136.00	  136.05	 -526.68	  105.69
     15.1903	  172.00	  138.40	 -493.03	  105.51
     15.2237	  166.00	  141.08	 -501.71	  105.33
     15.2571	  167.00	  144.14	 -503.78	  105.15
     15.2906	  154.00	  147.67	 -520.31	  104.97
     15.3240	  173.00	  151.75	 -505.39	  104.79
     15.3574	  169.00	  156.50	 -514.13	  104.61
     15.3908	  181.00	  162.05	 -507.69	  104.43
     15.4243	  195.00	  168.60	 -500.23	  104.25
     15.4577	  202.00	  176.39	 -501.02	  104.07
     15.4911	  216.00	  185.72	 -496.35	  103.89
     15.5245	  224.00	  197.03	 -499.66	  103.71
     15.5580	  213.00	  210.89	 -524.53	  103.53
     15.5914	  261.00	  228.10	 -493.74	  103.35
     15.6248	  235.00	  249.81	 -541.44	  103.17
     15.6582	  249.00	  277.72	 -555.35	  102.99
     15.6916	  319.00	  314.48	 -522.12	  102.81
     15.7251	  290.00	  364.38	 -601.01	  102.64
     15.7585	  424.00	  434.34	 -536.97	  102.46
     15.7919	  497.00	  535.19	 -564.82	  102.28
     15.8253	  633.00	  682.70	 -576.33	  102.10
     15.8588	  825.00	  896.95	 -598.58	  101.93
     15.8922	 1171.00	 1196.30	 -551.93	  101.75
     15.9256	 1546.00	 1573.03	 -553.66	  101.57
     15.9590	 1718.00	 1938.05	 -746.68	  101.40
     15.9924	 1849.00	 2106.53	 -784.16	  101.22
     16.0259	 1816.00	 1968.14	 -678.77	  101.04
     16.0593	 1528.00	 1622.06	 -620.69	  100.87
     16.0927	 1176.00	 1243.95	 -594.58	  100.69
     16.1261	  932.00	  933.56	 -528.19	  100.52
     16.1596	  700.00	  708.01	 -534.65	  100.34
     16.1930	  551.00	  551.76	 -527.40	  100.17
     16.2264	  419.00	  444.75	 -552.38	   99.99
     16.2598	  365.00	  370.58	 -532.21	   99.82
     16.2932	  304.00	  317.81	 -540.44	   99.64
     16.3267	  286.00	  279.02	 -519.66	   99.47
     16.3601	  225.00	  249.63	 -551.26	   99.30
     16.3935	  236.00	  226.77	 -517.41	   99.12
     16.4269	  205.00	  208.63	 -530.26	   98.95
     16.4604	  204.00	  193.98	 -516.61	   98.77
     16.4938	  171.00	  181.98	 -537.61	   98.60
     16.5272	  154.00	  172.03	 -544.66	   98.43
     16.5606	  193.00	  163.69	 -497.32	   98.26
     16.5941	  167.00	  156.62	 -516.26	   98.08
     16.6275	  141.00	  150.58	 -536.22	   97.91
     16.6609	  144.00	  145.38	 -528.01	   97.74
     16.6943	  144.00	  140.86	 -523.49	   97.57
     16.7277	  142.00	  136.90	 -521.53	   97.40
     16.7612	  119.00	  133.42	 -541.05	   97.23
     16.7946	  151.00	  130.33	 -505.97	   97.05
     16.8280	  116.00	  127.59	 -538.22	   96.88
     16.8614	  128.00	  125.12	 -523.76	   96.71
     16.8949	  126.00	  122.91	 -523.54	   96.54
     16.9283	  140.00	  120.91	 -507.54	   96.37
     16.9617	  116.00	  119.09	 -529.72	   96.20
     16.9951	  114.00	  117.43	 -530.06	   96.03
     17.0285	  124.00	  115.91	 -518.55	   95.86
     17.0620	  128.00	  114.52	 -513.15	   95.69
     17.0954	  122.00	  113.23	 -517.87	   95.53
     17.1288	  112.00	  112.04	 -526.68	   95.36
     17.1622	  121.00	  110.94	 -516.57	   95.19
     17.1957	  111.00	  109.91	 -525.55	   95.02
     17.2291	  115.00	  108.96	 -520.59	   94.85
     17.2625	  119.00	  108.06	 -515.69	   94.68
     17.2959	   97.00	  107.22	 -536.85	   94.51
     17.3293	  118.00	  106.42	 -515.06	   94.35
     17.3628	   95.00	  105.68	 -537.31	   94.18
     17.3962	  113.00	  104.97	 -518.60	   94.01
     17.4296	  114.00	  104.30	 -516.93	   93.85
     17.4630	   99.00	  103.67	 -531.30	   93.68
     17.4965	  124.00	  103.06	 -505.69	   93.51
     17.5299	  110.00	  102.49	 -519.12	   93.35
     17.5633	  113.00	  101.94	 -515.57	   93.18
     17.5967	  119.00	  101.41	 -509.04	   93.01
     17.6301	  112.00	  100.91	 -515.54	   92.85
     17.6636	   97.00	  100.42	 -530.05	   92.68
     17.6970	  114.00	   99.96	 -512.59	   92.52
     17.7304	  109.00	   99.51	 -517.14	   92.35
     17.7638	  109.00	   99.08	 -516.71	   92.19
     17.7973	  104.00	   98.66	 -521.29	   92.02
     17.8307	   89.00	   98.26	 -535.89	   91.86
     17.8641	   98.00	   97.87	 -526.50	   91.69
     17.8975	   89.00	   97.49	 -535.12	   91.53
     17.9310	   89.00	   97.12	 -534.75	   91.37
     17.9644	  105.00	   96.77	 -518.40	   91.20
     17.9978	  112.00	   96.42	 -511.05	   91.04
     18.0312	  110.00	   96.08	 -512.71	   90.88
     18.0646	   84.00	   95.75	 -538.38	   90.71
     18.0981	  102.00	   95.43	 -520.06	   90.55
     18.1315	  114.00	   95.12	 -507.75	   90.39
     18.1649	  100.00	   94.81	 -521.44	   90.23
     18.1983	  102.00	   94.51	 -519.14	   90.06
     18.2318	   88.00	   94.22	 -532.85	   89.90
     18.2652	  101.00	   93.93	 -519.56	   89.74
     18.2986	   96.00	   93.65	 -524.28	   89.58
     18.3320	   95.00	   93.37	 -525.00	   89.42
     18.3654	   94.00	   93.10	 -525.73	   89.26
     18.3989	   96.00	   92.83	 -523.46	   89.10
     18.4323	   85.00	   92.57	 -534.20	   88.94
     18.4657	   86.00	   92.31	 -532.94	   88.77
     18.4991	  105.00	   92.06	 -513.69	   88.61
     18.5326	  100.00	   91.81	 -518.44	   88.45
     18.5660	   87.00	   91.56	 -531.19	   88.29
     18.5994	  104.00	   91.32	 -513.95	   88.14
     18.6328	   92.00	   91.08	 -525.71	   87.98
     18.6662	   96.00	   90.84	 -521.48	   87.82
     18.6997	   98.00	   90.61	 -519.24	   87.66
     18.7331	   96.00	   90.38	 -521.01	   87.50
     18.7665	   75.00	   90.15	 -541.78	   87.34
     18.7999	   92.00	   89.93	 -524.56	   87.18
     18.8334	   99.00	   89.71	 -517.34	   87.02
     18.8668	   85.00	   89.49	 -531.12	   86.87
     18.9002	  106.00	   89.27	 -509.90	   86.71
     18.9336	   75.00	   89.05	 -540.68	   86.55
     18.9671	   83.00	   88.84	 -532.47	   86.39
     19.0005	   85.00	   88.63	 -530.26	   86.24
     19.0339	   76.00	   88.42	 -539.05	   86.08
     19.0673	   73.00	   88.21	 -541.84	   85.92
     19.1007	   91.00	   88.01	 -523.64	   85.77
     19.1342	   73.00	   87.80	 -541.43	   85.61
     19.1676	   97.00	   87.60	 -517.23	   85.45
     19.2010	   96.00	   87.40	 -518.03	   85.30
     19.2344	   86.00	   87.20	 -527.83	   85.14
     19.2679	   66.00	   87.00	 -547.64	   84.99
     19.3013	   72.00	   86.81	 -541.44	   84.83
     19.3347	   89.00	   86.61	 -524.25	   84.68
     19.3681	   76.00	   86.42	 -537.05	   84.52
     19.4015	   98.00	   86.23	 -514.86	   84.37
     19.4350	   99.00	   86.04	 -513.67	   84.21
     19.4684	  100.00	   85.85	 -512.48	   84.06
     19.5018	   79.00	   85.66	 -533.29	   83.90
     19.5352	   92.00	   85.48	 -520.11	   83.75
     19.5687	   68.00	   85.29	 -543.92	   83.60
     19.6021	   84.00	   85.10	 -527.74	   83.44
     19.6355	   89.00	   84.92	 -522.55	   83.29
     19.6689	   74.00	   84.74	 -537.37	   83.14
     19.7023	   74.00	   84.56	 -537.19	   82.98
     19.7358	   74.00	   84.38	 -537.01	   82.83
     19.7692	   74.00	   84.20	 -536.83	   82.68
     19.8026	   86.00	   84.02	 -524.65	   82.53
     19.8360	   82.00	   83.84	 -528.47	   82.38
     19.8695	   96.00	   83.66	 -514.30	   82.22
     19.9029	   94.00	   83.49	 -516.12	   82.07
     19.9363	   95.00	   83.31	 -514.94	   81.92
     19.9697	  101.00	   83.14	 -508.77	   81.77
     20.0032	   75.00	   82.96	 -534.60	   81.62
     20.0366	   75.00	   82.79	 -534.42	   81.47
     20.0700	   86.00	   82.62	 -523.25	   81.32
     20.1034	   76.00	   82.45	 -533.08	   81.17
     20.1368	  105.00	   82.28	 -503.91	   81.02
     20.1703	   74.00	   82.11	 -534.74	   80.87
     20.2037	   75.00	   81.13	 -532.76	   80.72
     20.2371	   77.00	   80.57	 -530.20	   80.57
     20.2705	   85.00	   80.42	 -522.05	   80.42
     20.3040	   94.00	   80.27	 -512.90	   80.27
     20.3374	   94.00	   80.12	 -512.75	   80.12
     20.3708	   76.00	   79.97	 -530.60	   79.97
     20.4042	   88.00	   79.82	 -518.45	   79.82
     20.4376	   56.00	   79.67	 -550.31	   79.67
     20.4711	   68.00	   79.53	 -538.16	   79.53
     20.5045	   75.00	   79.38	 -531.01	   79.38
     20.5379	   84.00	   79.23	 -521.86	   79.23
     20.5713	   74.00	   79.08	 -531.72	   79.08
     20.6048	   52.00	   78.94	 -553.57	   78.94
     20.6382	   97.00	   78.79	 -508.42	   78.79
     20.6716	   81.00	   78.64	 -524.27	   78.64
     20.7050	   72.00	   78.50	 -533.13	   78.50
     20.7384	   73.00	   78.35	 -531.98	   78.35
     20.7719	   78.00	   78.20	 -526.83	   78.20
     20.8053	   84.00	   78.06	 -520.69	   78.06
     20.8387	   70.00	   77.91	 -534.54	   77.91
     20.8721	   69.00	   77.76	 -535.40	   77.76
     20.9056	   86.00	   77.62	 -518.25	   77.62
     20.9390	   76.00	   77.47	 -528.11	   77.47
     20.9724	   64.00	   77.33	 -539.96	   77.33
     21.0058	   75.00	   77.18	 -528.82	   77.18
     21.0392	   69.00	   77.04	 -534.67	   77.04
     21.0727	   74.00	   76.89	 -529.53	   76.89
     21.1061	   68.00	   76.75	 -535.38	   76.75
     21.1395	   63.00	   76.61	 -540.24	   76.61
     21.1729	   61.00	   76.46	 -542.09	   76.46
     21.2064	   76.00	   76.32	 -526.95	   76.32
     21.2398	   78.00	   76.17	 -524.81	   76.17
     21.2732	   60.00	   76.03	 -542.66	   76.03
     21.3066	   73.00	   75.89	 -529.52	   75.89
     21.3401	   75.00	   75.75	 -527.38	   75.75
     21.3735	   66.00	   75.60	 -536.23	   75.60
     21.4069	   75.00	   75.46	 -527.09	   75.46
     21.4403	   69.00	   75.32	 -532.95	   75.32
     21.4737	   76.00	   75.18	 -525.81	   75.18
     21.5072	   68.00	   75.03	 -533.67	   75.03
     21.5406	   68.00	   74.89	 -533.52	   74.89
     21.5740	   82.00	   74.75	 -519.38	   74.75
     21.6074	   62.00	   74.61	 -539.24	   74.61
     21.6409	   77.00	   74.47	 -524.10	   74.47
     21.6743	   61.00	   74.33	 -539.96	   74.33
     21.7077	   66.00	   74.19	 -534.82	   74.19
     21.7411	   59.00	   74.05	 -541.68	   74.05
     21.7745	   50.00	   73.90	 -550.54	   73.90
     21.8080	   76.00	   73.76	 -524.40	   73.76
     21.8414	   64.00	   73.62	 -536.26	   73.62
     21.8748	   60.00	   73.48	 -540.12	   73.48
     21.9082	   75.00	   73.35	 -524.98	   73.35
     21.9417	   49.00	   73.21	 -550.84	   73.21
     21.9751	   58.00	   73.07	 -541.70	   73.07
     22.0085	   64.00	   72.93	 -535.56	   72.93
     22.0419	   63.00	   72.79	 -536.42	   72.79
     22.0753	   76.00	   72.65	 -523.28	   72.65
     22.1088	   77.00	   72.51	 -522.14	   72.51
     22.1422	   66.00	   72.37	 -533.01	   72.37
     22.1756	   73.00	   72.24	 -525.87	   72.24
     22.2090	   69.00	   72.10	 -529.73	   72.10
     22.2425	   65.00	   71.96	 -533.59	   71.96
     22.2759	   76.00	   71.82	 -522.45	   71.82
     22.3093	   70.00	   71.69	 -528.32	   71.69
     22.3427	   55.00	   71.55	 -543.18	   71.55
     22.3762	   61.00	   71.41	 -537.04	   71.41
     22.4096	   69.00	   71.27	 -528.91	   71.27
     22.4430	   68.00	   71.14	 -529.77	   71.14
     22.4764	   69.00	   71.00	 -528.63	   71.00
     22.5098	   65.00	   70.87	 -532.50	   70.87
     22.5433	   68.00	   70.73	 -529.36	   70.73
     22.5767	   82.00	   70.59	 -515.23	   70.59
     22.6101	   69.00	   70.46	 -528.09	   70.46
     22.6435	   54.00	   70.32	 -542.95	   70.32
     22.6770	   58.00	   70.19	 -538.82	   70.19
     22.7104	   58.00	   70.05	 -538.68	   70.05
     22.7438	   50.00	   69.92	 -546.55	   69.92
     22.7772	   70.00	   69.78	 -526.42	   69.78
     22.8106	   79.00	   69.65	 -517.28	   69.65
     22.8441	   60.00	   69.51	 -536.15	   69.51
     22.8775	   60.00	   69.38	 -536.01	   69.38
     22.9109	   52.00	   69.25	 -543.88	   69.25
     22.9443	   74.00	   69.11	 -521.75	   69.11
     22.9778	   60.00	   68.98	 -535.61	   68.98
     23.0112	   60.00	   68.85	 -535.48	   68.85
     23.0446	   61.00	   68.71	 -534.35	   68.71
     23.0780	   64.00	   68.58	 -531.21	   68.58
     23.1114	   64.00	   68.45	 -531.08	   68.45
     23.1449	   56.00	   68.32	 -538.95	   68.32
     23.1783	   72.00	   68.18	 -522.82	   68.18
     23.2117	   65.00	   68.05	 -529.68	   68.05
     23.2451	   65.00	   67.92	 -529.55	   67.92
     23.2786	   50.00	   67.79	 -544.42	   67.79
     23.3120	   76.00	   67.66	 -518.29	   67.66
     23.3454	   55.00	   67.52	 -539.16	   67.52
     23.3788	   66.00	   67.39	 -528.03	   67.39
     23.4122	   76.00	   67.26	 -517.89	   67.26
     23.4457	   59.00	   67.13	 -534.76	   67.13
     23.4791	   66.00	   67.00	 -527.63	   67.00
     23.5125	   55.00	   66.87	 -538.50	   66.87
     23.5459	   66.00	   67.48	 -528.12	   66.74
     23.5794	   58.00	   67.37	 -536.00	   66.61
     23.6128	   63.00	   67.62	 -531.25	   66.48
     23.6462	   56.00	   67.51	 -538.14	   66.35
     23.6796	   62.00	   67.39	 -532.03	   66.22
     23.7131	   63.00	   67.28	 -530.92	   66.09
     23.7465	   62.00	   67.18	 -531.81	   65.96
     23.7799	   54.00	   67.07	 -539.70	   65.83
     23.8133	   62.00	   66.96	 -531.59	   65.71
     23.8467	   58.00	   66.85	 -535.48	   65.58
     23.8802	   71.00	   66.74	 -522.38	   65.45
     23.9136	   64.00	   66.64	 -529.27	   65.32
     23.9470	   56.00	   66.53	 -537.16	   65.19
     23.9804	   48.00	   66.43	 -545.06	   65.07
     24.0139	   57.00	   66.32	 -535.96	   64.94
     24.0473	   69.00	   66.22	 -523.85	   64.81
     24.0807	   48.00	   66.12	 -544.75	   64.68
     24.1141	   49.00	   66.02	 -543.65	   64.56
     24.1475	   54.00	   65.92	 -538.55	   64.43
     24.1810	   52.00	   65.82	 -540.45	   64.30
     24.2144	   70.00	   65.72	 -522.35	   64.18
     24.2478	   64.00	   65.62	 -528.26	   64.05
     24.2812	   63.00	   65.53	 -529.16	   63.92
     24.3147	   69.00	   65.43	 -523.06	   63.80
     24.3481	   66.00	   65.34	 -525.97	   63.67
     24.3815	   81.00	   65.24	 -510.88	   63.55
     24.4149	   66.00	   65.15	 -525.78	   63.42
     24.4483	   48.00	   65.06	 -543.69	   63.30
     24.4818	   61.00	   64.97	 -530.60	   63.17
     24.5152	   59.00	   64.88	 -532.52	   63.05
     24.5486	   60.00	   65.96	 -532.59	   62.92
     24.5820	   66.00	   65.90	 -526.53	   62.80
     24.6155	   48.00	   66.41	 -545.04	   62.67
     24.6489	   73.00	   66.36	 -519.99	   62.55
     24.6823	   50.00	   66.30	 -542.93	   62.43
     24.7157	   58.00	   66.25	 -534.88	   62.30
     24.7491	   58.00	   66.21	 -534.84	   62.18
     24.7826	   56.00	   66.16	 -536.79	   62.06
     24.8160	   74.00	   66.12	 -518.75	   61.93
     24.8494	   47.00	   66.08	 -545.71	   61.81
     24.8828	   55.00	   66.04	 -537.67	   61.69
     24.9163	   58.00	   66.01	 -534.64	   61.56
     24.9497	   72.00	   65.97	 -520.61	   61.44
     24.9831	   41.00	   65.95	 -551.58	   61.32
     25.0165	   50.00	   65.92	 -542.55	   61.20
     25.0500	   60.00	   65.90	 -532.53	   61.08
     25.0834	   59.00	   65.88	 -533.51	   60.95
     25.1168	   63.00	   65.87	 -529.50	   60.83
     25.1502	   56.00	   65.85	 -536.49	   60.71
     25.1836	   48.00	   65.85	 -544.48	   60.59
     25.2171	   66.00	   65.84	 -526.48	   60.47
     25.2505	   64.00	   65.85	 -528.48	   60.35
     25.2839	   51.00	   65.85	 -541.48	   60.23
     25.3173	   57.00	   65.86	 -535.49	   60.11
     25.3508	   64.00	   65.88	 -528.51	   59.99
     25.3842	   58.00	   65.90	 -534.53	   59.87
     25.4176	   52.00	   65.92	 -540.56	   59.75
     25.4510	   57.00	   65.96	 -535.59	   59.63
     25.4844	   76.00	   65.99	 -516.62	   59.51
     25.5179	   50.00	   66.04	 -542.67	   59.39
     25.5513	   61.00	   66.09	 -531.72	   59.27
     25.5847	   47.00	   66.14	 -545.78	   59.15
     25.6181	   45.00	   66.21	 -547.84	   59.03
     25.6516	   63.00	   66.28	 -529.91	   58.91
     25.6850	   51.00	   66.36	 -541.99	   58.80
     25.7184	   56.00	   66.45	 -537.08	   58.68
     25.7518	   41.00	   66.55	 -552.18	   58.56
     25.7852	   50.00	   66.66	 -543.29	   58.44
     25.8187	   55.00	   66.78	 -538.41	   58.32
     25.8521	   63.00	   66.91	 -530.54	   58.21
     25.8855	   59.00	   67.05	 -534.68	   58.09
     25.9189	   58.00	   67.20	 -535.83	   57.97
     25.9524	   55.00	   67.36	 -539.00	   57.85
     25.9858	   42.00	   67.54	 -552.18	   57.74
     26.0192	   57.00	   67.74	 -537.37	   57.62
     26.0526	   61.00	   67.95	 -533.58	   57.50
     26.0861	   52.00	   68.18	 -542.81	   57.39
     26.1195	   46.00	   68.42	 -549.05	   57.27
     26.1529	   58.00	   68.69	 -537.32	   57.16
     26.1863	   48.00	   68.97	 -547.60	   57.04
     26.2197	   46.00	   69.28	 -549.91	   56.93
     26.2532	   57.00	   69.61	 -539.25	   56.81
     26.2866	   56.00	   69.97	 -540.60	   56.69
     26.3200	   47.00	   70.36	 -549.99	   56.58
     26.3534	   55.00	   70.78	 -542.41	   56.47
     26.3869	   56.00	   71.23	 -541.86	   56.35
     26.4203	   55.00	   71.72	 -543.35	   56.24
     26.4537	   45.00	   72.24	 -553.87	   56.12
     26.4871	   59.00	   72.81	 -540.44	   56.01
     26.5205	   52.00	   73.43	 -548.06	   55.89
     26.5540	   50.00	   74.10	 -550.73	   55.78
     26.5874	   49.00	   74.82	 -552.45	   55.67
     26.6208	   55.00	   75.61	 -547.24	   55.55
     26.6542	   58.00	   76.47	 -545.10	   55.44
     26.6877	   75.00	   77.40	 -529.03	   55.33
     26.7211	   68.00	   78.42	 -537.05	   55.21
     26.7545	   71.00	   79.53	 -535.17	   55.10
     26.7879	   66.00	   80.75	 -541.39	   54.99
     26.8213	   77.00	   82.10	 -531.73	   54.88
     26.8548	   73.00	   83.57	 -537.20	   54.76
     26.8882	   78.00	   85.20	 -533.83	   54.65
     26.9216	   72.00	   87.00	 -541.64	   54.54
     26.9550	   72.00	   89.01	 -543.64	   54.43
     26.9885	   86.00	   91.24	 -531.87	   54.32
     27.0219	   88.00	   93.73	 -532.37	   54.21
     27.0553	   97.00	   96.54	 -526.17	   54.10
     27.0887	  106.00	   99.70	 -520.33	   53.98
     27.1222	   99.00	  103.28	 -530.91	   53.87
     27.1556	  112.00	  107.36	 -521.99	   53.76
     27.1890	   96.00	  112.04	 -542.67	   53.65
     27.2224	  105.00	  117.43	 -539.06	   53.54
     27.2558	  102.00	  123.70	 -548.33	   53.43
     27.2893	  116.00	  131.03	 -541.66	   53.32
     27.3227	  135.00	  139.69	 -531.32	   53.21
     27.3561	  126.00	  150.02	 -550.65	   53.10
     27.3895	  132.00	  162.48	 -557.11	   52.99
     27.4230	  167.00	  177.71	 -537.34	   52.88
     27.4564	  210.00	  196.62	 -513.25	   52.78
     27.4898	  215.00	  220.52	 -532.15	   52.67
     27.5232	  256.00	  251.31	 -521.94	   52.56
     27.5566	  326.00	  291.72	 -492.35	   52.45
     27.5901	  395.00	  345.53	 -477.16	   52.34
     27.6235	  439.00	  417.74	 -505.37	   52.23
     27.6569	  616.00	  514.39	 -425.03	   52.13
     27.6903	  772.00	  641.30	 -395.93	   52.02
     27.7238	  918.00	  799.78	 -408.41	   51.91
     27.7572	 1122.00	  976.79	 -381.42	   51.80
     27.7906	 1317.00	 1133.61	 -343.24	   51.69
     27.8240	 1386.00	 1216.11	 -356.74	   51.59
     27.8574	 1369.00	 1195.91	 -353.54	   51.48
     27.8909	 1242.00	 1088.81	 -373.45	   51.37
     27.9243	  997.00	  932.76	 -462.39	   51.27
     27.9577	  926.00	  769.15	 -369.78	   51.16
     27.9911	  723.00	  626.04	 -429.67	   51.05
     28.0246	  599.00	  512.84	 -440.48	   50.95
     28.0580	  454.00	  428.07	 -500.71	   50.84
     28.0914	  414.00	  366.35	 -478.98	   50.74
     28.1248	  369.00	  322.16	 -479.79	   50.63
     28.1582	  277.00	  291.02	 -540.66	   50.53
     28.1917	  273.00	  269.63	 -523.26	   50.42
     28.2251	  240.00	  255.69	 -542.32	   50.32
     28.2585	  234.00	  247.70	 -540.33	   50.21
     28.2919	  219.00	  244.80	 -552.43	   50.11
     28.3254	  212.00	  246.55	 -561.18	   50.00
     28.3588	  213.00	  252.93	 -566.56	   49.90
     28.3922	  220.00	  264.26	 -570.89	   49.79
     28.4256	  231.00	  281.29	 -576.92	   49.69
     28.4591	  243.00	  305.28	 -588.91	   49.59
     28.4925	  266.00	  338.21	 -598.84	   49.48
     28.5259	  306.00	  383.04	 -603.67	   49.38
     28.5593	  388.00	  444.06	 -582.69	   49.27
     28.5927	  470.00	  527.14	 -583.78	   49.17
     28.6262	  575.00	  639.94	 -591.57	   49.07
     28.6596	  736.00	  791.22	 -581.85	   48.97
     28.6930	 1011.00	  988.28	 -503.91	   48.86
     28.7264	 1185.00	 1229.02	 -570.65	   48.76
     28.7599	 1443.00	 1486.23	 -569.86	   48.66
     28.7933	 1675.00	 1695.46	 -547.09	   48.56
     28.8267	 1749.00	 1782.22	 -559.85	   48.45
     28.8601	 1806.00	 1720.51	 -441.14	   48.35
     28.8935	 1507.00	 1541.69	 -561.33	   48.25
     28.9270	 1255.00	 1301.72	 -573.35	   48.15
     28.9604	 1026.00	 1057.11	 -557.74	   48.05
     28.9938	  786.00	  844.30	 -584.93	   47.95
     29.0272	  650.00	  674.75	 -551.38	   47.85
     29.0607	  508.00	  545.30	 -563.93	   47.74
     29.0941	  392.00	  448.04	 -582.67	   47.64
     29.1275	  313.00	  375.01	 -588.64	   47.54
     29.1609	  282.00	  319.71	 -564.34	   47.44
     29.1943	  205.00	  277.22	 -598.85	   47.34
     29.2278	  200.00	  244.00	 -570.64	   47.24
     29.2612	  175.00	  217.57	 -569.20	   47.14
     29.2946	  139.00	  196.17	 -583.80	   47.04
     29.3280	  155.00	  178.60	 -550.23	   46.94
     29.3615	  119.00	  163.97	 -571.61	   46.84
     29.3949	  113.00	  151.67	 -565.31	   46.75
     29.4283	  101.00	  141.23	 -566.86	   46.65
     29.4617	   88.00	  132.28	 -570.91	   46.55
     29.4951	   73.00	  124.55	 -578.18	   46.45
     29.5286	   83.00	  117.83	 -561.46	   46.35
     29.5620	   75.00	  111.94	 -563.57	   46.25
     29.5954	   94.00	  106.76	 -539.39	   46.15
     29.6288	   82.00	  102.18	 -546.81	   46.06
     29.6623	   72.00	   98.09	 -552.73	   45.96
     29.6957	   76.00	   94.44	 -545.08	   45.86
     29.7291	   81.00	   91.17	 -536.80	   45.76
     29.7625	   70.00	   88.21	 -544.84	   45.67
     29.7960	   82.00	   85.54	 -530.17	   45.57
     29.8294	   73.00	   83.11	 -536.74	   45.47
     29.8628	   71.00	   80.89	 -536.52	   45.37
     29.8962	   59.00	   78.87	 -546.50	   45.28
     29.9296	   58.00	   77.01	 -545.64	   45.18
     29.9631	   58.00	   75.30	 -543.93	   45.08
     29.9965	   52.00	   73.73	 -548.36	   44.99
     30.0299	   61.00	   72.28	 -537.91	   44.89
     30.0633	   59.00	   70.93	 -538.56	   44.80
     30.0968	   50.00	   69.68	 -546.32	   44.70
     30.1302	   58.00	   68.52	 -537.16	   44.60
     30.1636	   52.00	   67.44	 -542.08	   44.51
     30.1970	   45.00	   66.44	 -548.07	   44.41
     30.2304	   57.00	   65.50	 -535.13	   44.32
     30.2639	   56.00	   64.62	 -535.25	   44.22
     30.2973	   49.00	   63.80	 -541.43	   44.13
     30.3307	   60.00	   63.03	 -529.66	   44.04
     30.3641	   50.00	   62.30	 -538.94	   43.94
     30.3976	   41.00	   61.63	 -547.26	   43.85
     30.4310	   47.00	   60.99	 -540.62	   43.75
     30.4644	   56.00	   60.39	 -531.02	   43.66
     30.4978	   51.00	   59.83	 -535.46	   43.56
     30.5312	   59.00	   59.31	 -526.94	   43.47
     30.5647	   52.00	   58.81	 -533.44	   43.38
     30.5981	   36.00	   58.35	 -548.98	   43.28
     30.6315	   52.00	   57.92	 -532.55	   43.19
     30.6649	   45.00	   57.51	 -539.14	   43.10
     30.6984	   56.00	   57.14	 -527.77	   43.01
     30.7318	   54.00	   56.78	 -529.42	   42.91
     30.7652	   42.00	   56.46	 -541.09	   42.82
     30.7986	   52.00	   56.16	 -530.79	   42.73
     30.8321	   48.00	   55.89	 -534.52	   42.64
     30.8655	   60.00	   55.64	 -522.27	   42.54
     30.8989	   49.00	   55.42	 -533.05	   42.45
     30.9323	   65.00	   55.22	 -516.85	   42.36
     30.9657	   58.00	   55.05	 -523.68	   42.27
     30.9992	   60.00	   54.90	 -521.54	   42.18
     31.0326	   52.00	   54.79	 -529.42	   42.09
     31.0660	   45.00	   54.70	 -536.33	   41.99
     31.0994	   44.00	   54.64	 -537.28	   41.90
     31.1329	   45.00	   54.62	 -536.25	   41.81
     31.1663	   55.00	   54.63	 -526.26	   41.72
     31.1997	   56.00	   54.68	 -525.31	   41.63
     31.2331	   63.00	   54.77	 -518.40	   41.54
     31.2665	   63.00	   54.91	 -518.54	   41.45
     31.3000	   47.00	   55.09	 -534.73	   41.36
     31.3334	   48.00	   55.34	 -533.97	   41.27
     31.3668	   52.00	   55.64	 -530.28	   41.18
     31.4002	   48.00	   56.02	 -534.66	   41.09
     31.4337	   48.00	   56.49	 -535.12	   41.00
     31.4671	   47.00	   57.04	 -536.67	   40.91
     31.5005	   62.00	   57.71	 -522.34	   40.83
     31.5339	   68.00	   58.51	 -517.14	   40.74
     31.5673	   61.00	   59.46	 -525.09	   40.65
     31.6008	   59.00	   60.59	 -528.22	   40.56
     31.6342	   68.00	   61.95	 -520.58	   40.47
     31.6676	   57.00	   63.57	 -533.20	   40.38
     31.7010	   55.00	   65.52	 -537.15	   40.29
     31.7345	   62.00	   67.88	 -532.51	   40.21
     31.7679	   64.00	   70.76	 -533.39	   40.12
     31.8013	   63.00	   74.30	 -537.93	   40.03
     31.8347	   79.00	   78.71	 -526.34	   39.94
     31.8682	   63.00	   84.27	 -547.90	   39.86
     31.9016	   97.00	   91.38	 -521.02	   39.77
     31.9350	   96.00	  100.61	 -531.25	   39.68
     31.9684	  121.00	  112.72	 -518.35	   39.60
     32.0018	  156.00	  128.70	 -499.33	   39.51
     32.0353	  180.00	  149.74	 -496.37	   39.42
     32.0687	  191.00	  177.14	 -512.77	   39.34
     32.1021	  273.00	  210.85	 -464.49	   39.25
     32.1355	  291.00	  251.17	 -486.80	   39.16
     32.1690	  361.00	  291.59	 -457.22	   39.08
     32.2024	  409.00	  322.56	 -440.20	   38.99
     32.2358	  388.00	  333.87	 -472.50	   38.91
     32.2692	  386.00	  323.25	 -463.89	   38.82
     32.3026	  372.00	  295.55	 -450.18	   38.74
     32.3361	  305.00	  258.11	 -479.74	   38.65
     32.3695	  275.00	  218.76	 -470.40	   38.57
     32.4029	  217.00	  183.27	 -492.90	   38.48
     32.4363	  164.00	  154.07	 -516.70	   38.40
     32.4698	  142.00	  131.18	 -515.81	   38.31
     32.5032	  113.00	  113.60	 -527.23	   38.23
     32.5366	  110.00	  100.18	 -516.81	   38.14
     32.5700	  110.00	   89.95	 -506.58	   38.06
     32.6034	   92.00	   81.96	 -516.59	   37.98
     32.6369	   85.00	   75.70	 -517.33	   37.89
     32.6703	   58.00	   70.67	 -539.30	   37.81
     32.7037	   73.00	   66.59	 -520.22	   37.73
     32.7371	   62.00	   63.22	 -527.85	   37.64
     32.7706	   55.00	   60.40	 -532.04	   37.56
     32.8040	   66.00	   58.03	 -518.66	   37.48
     32.8374	   42.00	   56.00	 -540.63	   37.39
     32.8708	   44.00	   54.25	 -536.88	   37.31
     32.9043	   42.00	   52.73	 -537.36	   37.23
     32.9377	   37.00	   51.40	 -541.03	   37.15
     32.9711	   36.00	   50.23	 -540.86	   37.06
     33.0045	   51.00	   49.19	 -524.82	   36.98
     33.0379	   46.00	   48.26	 -528.89	   36.90
     33.0714	   31.00	   47.42	 -543.06	   36.82
     33.1048	   38.00	   45.52	 -534.16	   36.74
     33.1382	   41.00	   44.86	 -530.49	   36.65
     33.1716	   39.00	   43.68	 -531.31	   36.57
     33.2051	   49.00	   43.13	 -520.77	   36.49
     33.2385	   42.00	   42.63	 -527.27	   36.41
     33.2719	   24.00	   42.17	 -544.81	   36.33
     33.3053	   33.00	   41.75	 -535.38	   36.25
     33.3387	   33.00	   41.35	 -534.99	   36.17
     33.3722	   41.00	   40.99	 -526.62	   36.09
     33.4056	   42.00	   40.64	 -525.28	   36.01
     33.4390	   37.00	   40.32	 -529.96	   35.93
     33.4724	   32.00	   40.02	 -534.65	   35.85
     33.5059	   32.00	   39.74	 -534.37	   35.77
     33.5393	   28.00	   39.47	 -538.10	   35.69
     33.5727	   33.00	   39.22	 -532.85	   35.61
     33.6061	   38.00	   38.97	 -527.61	   35.53
     33.6395	   33.00	   38.75	 -532.38	   35.45
     33.6730	   33.00	   38.53	 -532.16	   35.37
     33.7064	   43.00	   38.32	 -521.95	   35.29
     33.7398	   23.00	   38.12	 -541.75	   35.21
     33.7732	   33.00	   37.93	 -531.56	   35.14
     33.8067	   38.00	   37.74	 -526.38	   35.06
     33.8401	   24.00	   37.57	 -540.20	   34.98
     33.8735	   31.00	   37.40	 -533.03	   34.90
     33.9069	   22.00	   37.23	 -541.87	   34.82
     33.9403	   41.00	   37.07	 -522.71	   34.74
     33.9738	   24.00	   36.92	 -539.55	   34.67
     34.0072	   30.00	   36.77	 -533.40	   34.59
     34.0406	   24.00	   36.63	 -539.26	   34.51
     34.0740	   33.00	   36.49	 -530.12	   34.43
     34.1075	   27.00	   36.35	 -535.98	   34.36
     34.1409	   34.00	   36.22	 -528.85	   34.28
     34.1743	   32.00	   36.09	 -530.72	   34.20
     34.2077	   34.00	   35.96	 -528.60	   34.13
     34.2411	   23.00	   35.84	 -539.47	   34.05
     34.2746	   24.00	   35.72	 -538.35	   33.97
     34.3080	   30.00	   35.61	 -532.24	   33.90
     34.3414	   39.00	   35.49	 -523.12	   33.82
     34.3748	   25.00	   35.38	 -537.01	   33.75
     34.4083	   31.00	   35.27	 -530.90	   33.67
     34.4417	   25.00	   35.16	 -536.80	   33.59
     34.4751	   33.00	   35.06	 -528.69	   33.52
     34.5085	   32.00	   34.96	 -529.59	   33.44
     34.5420	   31.00	   34.85	 -530.49	   33.37
     34.5754	   29.00	   34.76	 -532.39	   33.29
     34.6088	   29.00	   34.66	 -532.29	   33.22
     34.6422	   34.00	   34.56	 -527.20	   33.14
     34.6756	   25.00	   34.47	 -536.10	   33.07
     34.7091	   37.00	   34.38	 -524.01	   32.99
     34.7425	   20.00	   34.29	 -540.92	   32.92
     34.7759	   21.00	   34.20	 -539.83	   32.85
     34.8093	   25.00	   34.12	 -535.75	   32.77
     34.8428	   23.00	   34.03	 -537.66	   32.70
     34.8762	   27.00	   33.95	 -533.58	   32.62
     34.9096	   29.00	   33.87	 -531.50	   32.55
     34.9430	   43.00	   33.79	 -517.42	   32.48
     34.9764	   35.00	   33.71	 -525.34	   32.40
     35.0099	   32.00	   33.63	 -528.27	   32.33
     35.0433	   30.00	   33.56	 -530.19	   32.26
     35.0767	   32.00	   33.49	 -528.12	   32.18
     35.1101	   27.00	   33.42	 -533.05	   32.11
     35.1436	   31.00	   33.35	 -528.98	   32.04
     35.1770	   18.00	   33.28	 -541.91	   31.97
     35.2104	   24.00	   33.21	 -535.85	   31.89
     35.2438	   33.00	   33.15	 -526.78	   31.82
     35.2773	   23.00	   33.09	 -536.72	   31.75
     35.3107	   35.00	   33.03	 -524.66	   31.68
     35.3441	   29.00	   32.97	 -530.61	   31.61
     35.3775	   21.00	   32.92	 -538.55	   31.53
     35.4109	   43.00	   32.87	 -516.50	   31.46
     35.4444	   25.00	   32.82	 -534.45	   31.39
     35.4778	   20.00	   32.77	 -539.41	   31.32
     35.5112	   20.00	   32.73	 -539.36	   31.25
     35.5446	   30.00	   32.69	 -529.32	   31.18
     35.5781	   31.00	   32.66	 -528.29	   31.11
     35.6115	   32.00	   32.63	 -527.26	   31.04
     35.6449	   21.00	   32.60	 -538.23	   30.97
     35.6783	   28.00	   32.57	 -531.21	   30.90
     35.7117	   30.00	   32.56	 -529.19	   30.83
     35.7452	   30.00	   32.54	 -529.18	   30.76
     35.7786	   34.00	   32.54	 -525.17	   30.69
     35.8120	   25.00	   32.54	 -534.17	   30.62
     35.8454	   32.00	   32.55	 -527.18	   30.55
     35.8789	   29.00	   32.56	 -530.20	   30.48
     35.9123	   27.00	   32.59	 -532.22	   30.41
     35.9457	   21.00	   32.63	 -538.26	   30.34
     35.9791	   21.00	   32.68	 -538.31	   30.27
     36.0125	   21.00	   33.64	 -539.27	   30.20
     36.0460	   34.00	   33.73	 -526.36	   30.13
     36.0794	   23.00	   33.84	 -537.47	   30.06
     36.1128	   21.00	   34.41	 -540.05	   29.99
     36.1462	   28.00	   34.57	 -533.21	   29.93
     36.1797	   16.00	   34.76	 -545.40	   29.86
     36.2131	   23.00	   34.99	 -538.62	   29.79
     36.2465	   23.00	   35.25	 -538.88	   29.72
     36.2799	   22.00	   35.55	 -540.18	   29.65
     36.3133	   25.00	   35.91	 -537.55	   29.59
     36.3468	   34.00	   36.34	 -528.97	   29.52
     36.3802	   43.00	   36.85	 -520.48	   29.45
     36.4136	   44.00	   37.45	 -520.09	   29.38
     36.4470	   42.00	   38.18	 -522.81	   29.32
     36.4805	   38.00	   39.07	 -527.70	   29.25
     36.5139	   44.00	   40.15	 -522.78	   29.18
     36.5473	   37.00	   41.27	 -530.90	   29.12
     36.5807	   41.00	   42.95	 -528.58	   29.05
     36.6142	   51.00	   45.08	 -520.71	   28.98
     36.6476	   43.00	   47.69	 -531.32	   28.92
     36.6810	   66.00	   51.20	 -511.84	   28.85
     36.7144	   62.00	   55.74	 -520.37	   28.78
     36.7478	   54.00	   61.55	 -534.19	   28.72
     36.7813	   95.00	   68.89	 -500.52	   28.65
     36.8147	   90.00	   77.77	 -514.41	   28.59
     36.8481	   98.00	   87.70	 -516.33	   28.52
     36.8815	  100.00	   97.24	 -523.88	   28.46
     36.9150	  116.00	  104.15	 -514.78	   28.39
     36.9484	  119.00	  106.57	 -514.20	   28.33
     36.9818	  133.00	  104.25	 -497.88	   28.26
     37.0152	  126.00	   98.19	 -498.82	   28.20
     37.0486	  109.00	   89.74	 -507.37	   28.13
     37.0821	  104.00	   80.37	 -503.00	   28.07
     37.1155	   63.00	   71.42	 -535.05	   28.00
     37.1489	   77.00	   63.68	 -513.31	   27.94
     37.1823	   48.00	   57.37	 -536.00	   27.87
     37.2158	   54.00	   52.38	 -525.01	   27.81
     37.2492	   55.00	   48.48	 -520.11	   27.75
     37.2826	   44.00	   45.44	 -528.07	   27.68
     37.3160	   49.00	   43.06	 -520.69	   27.62
     37.3494	   43.00	   41.17	 -524.81	   27.55
     37.3829	   34.00	   39.67	 -532.30	   27.49
     37.4163	   23.00	   38.45	 -542.08	   27.43
     37.4497	   27.00	   37.45	 -537.08	   27.36
     37.4831	   31.00	   36.63	 -532.26	   27.30
     37.5166	   31.00	   35.93	 -531.57	   27.24
     37.5500	   32.00	   35.35	 -529.98	   27.18
     37.5834	   36.00	   34.86	 -525.49	   27.11
     37.6168	   34.00	   34.44	 -527.07	   27.05
     37.6502	   24.00	   34.08	 -536.71	   26.99
     37.6837	   27.00	   33.77	 -533.40	   26.93
     37.7171	   29.00	   33.50	 -531.13	   26.87
     37.7505	   28.00	   33.27	 -531.90	   26.80
     37.7839	   30.00	   33.07	 -529.70	   26.74
     37.8174	   24.00	   32.90	 -535.53	   26.68
     37.8508	   24.00	   32.76	 -535.39	   26.62
     37.8842	   27.00	   32.63	 -532.27	   26.56
     37.9176	   28.00	   32.53	 -531.16	   26.50
     37.9510	   25.00	   32.45	 -534.08	   26.43
     37.9845	   32.00	   32.38	 -527.01	   26.37
     38.0179	   30.00	   32.33	 -528.96	   26.31
     38.0513	   29.00	   32.29	 -529.92	   26.25
     38.0847	   29.00	   32.26	 -529.90	   26.19
     38.1182	   22.00	   32.25	 -536.88	   26.13
     38.1516	   23.00	   32.25	 -535.89	   26.07
     38.1850	   18.00	   32.27	 -540.90	   26.01
     38.2184	   34.00	   32.29	 -524.92	   25.95
     38.2519	   24.00	   32.33	 -534.96	   25.89
     38.2853	   32.00	   32.38	 -527.01	   25.83
     38.3187	   30.00	   32.44	 -529.07	   25.77
     38.3521	   38.00	   32.51	 -521.14	   25.71
     38.3855	   31.00	   32.59	 -528.22	   25.65
     38.4190	   31.00	   32.69	 -528.32	   25.59
     38.4524	   31.00	   32.79	 -528.43	   25.53
     38.4858	   28.00	   32.91	 -531.55	   25.47
     38.5192	   25.00	   33.05	 -534.68	   25.42
     38.5527	   28.00	   33.20	 -531.83	   25.36
     38.5861	   30.00	   33.53	 -530.16	   25.30
     38.6195	   21.00	   33.71	 -539.35	   25.24
     38.6529	   41.00	   33.91	 -519.54	   25.18
     38.6863	   29.00	   34.21	 -531.84	   25.12
     38.7198	   23.00	   34.45	 -538.08	   25.07
     38.7532	   32.00	   34.70	 -529.33	   25.01
     38.7866	   29.00	   34.98	 -532.61	   24.95
     38.8200	   29.00	   35.28	 -532.91	   24.89
     38.8535	   37.00	   35.60	 -525.23	   24.83
     38.8869	   36.00	   35.95	 -526.58	   24.78
     38.9203	   32.00	   36.32	 -530.96	   24.72
     38.9537	   37.00	   36.73	 -526.36	   24.66
     38.9872	   49.00	   37.17	 -514.80	   24.61
     39.0206	   44.00	   37.65	 -520.28	   24.55
     39.0540	   30.00	   38.16	 -534.80	   24.49
     39.0874	   54.00	   38.72	 -511.35	   24.44
     39.1208	   36.00	   39.33	 -529.96	   24.38
     39.1543	   42.00	   39.98	 -524.62	   24.32
     39.1877	   46.00	   40.70	 -521.33	   24.27
     39.2211	   56.00	   41.47	 -512.10	   24.21
     39.2545	   56.00	   42.32	 -512.95	   24.15
     39.2880	   37.00	   43.24	 -532.87	   24.10
     39.3214	   38.00	   44.25	 -532.88	   24.04
     39.3548	   59.00	   45.35	 -512.98	   23.99
     39.3882	   64.00	   46.56	 -509.19	   23.93
     39.4216	   45.00	   47.89	 -529.52	   23.88
     39.4551	   56.00	   49.35	 -519.98	   23.82
     39.4885	   55.00	   50.97	 -522.60	   23.76
     39.5219	   70.00	   52.76	 -509.39	   23.71
     39.5553	   56.00	   54.75	 -525.38	   23.65
     39.5888	   47.00	   56.97	 -536.60	   23.60
     39.6222	   50.00	   59.45	 -536.08	   23.55
     39.6556	   48.00	   62.23	 -540.86	   23.49
     39.6890	   60.00	   65.37	 -532.00	   23.44
     39.7224	   65.00	   68.91	 -530.55	   23.38
     39.7559	   49.00	   72.95	 -550.58	   23.33
     39.7893	   57.00	   77.56	 -547.19	   23.27
     39.8227	   59.00	   82.86	 -550.49	   23.22
     39.8561	   66.00	   88.98	 -549.62	   23.17
     39.8896	   98.00	   96.11	 -524.74	   23.11
     39.9230	  102.00	  104.47	 -529.10	   23.06
     39.9564	  109.00	  114.35	 -531.98	   23.01
     39.9898	   96.00	  126.14	 -556.77	   22.95
     40.0233	  122.00	  140.36	 -545.00	   22.90
     40.0567	  129.00	  157.71	 -555.35	   22.85
     40.0901	  179.00	  179.13	 -526.76	   22.79
     40.1235	  198.00	  205.84	 -534.47	   22.74
     40.1569	  211.00	  239.46	 -555.09	   22.69
     40.1904	  252.00	  282.06	 -556.69	   22.63
     40.2238	  310.00	  336.13	 -552.76	   22.58
     40.2572	  391.00	  404.43	 -540.06	   22.53
     40.2906	  451.00	  489.34	 -564.97	   22.48
     40.3241	  610.00	  591.27	 -507.90	   22.43
     40.3575	  676.00	  705.61	 -556.24	   22.37
     40.3909	  762.00	  818.76	 -583.40	   22.32
     40.4243	  908.00	  908.26	 -526.89	   22.27
     40.4577	  887.00	  952.58	 -592.21	   22.22
     40.4912	  899.00	  944.62	 -572.26	   22.17
     40.5246	  820.00	  892.14	 -598.77	   22.12
     40.5580	  757.00	  807.68	 -577.32	   22.06
     40.5914	  687.00	  704.71	 -544.34	   22.01
     40.6249	  622.00	  597.65	 -502.28	   21.96
     40.6583	  446.00	  498.48	 -579.12	   21.91
     40.6917	  440.00	  413.51	 -500.14	   21.86
     40.7251	  351.00	  343.96	 -519.59	   21.81
     40.7585	  297.00	  288.35	 -517.98	   21.76
     40.7920	  252.00	  244.32	 -518.95	   21.71
     40.8254	  200.00	  209.48	 -536.12	   21.66
     40.8588	  194.00	  181.79	 -514.42	   21.61
     40.8922	  156.00	  159.59	 -530.22	   21.56
     40.9257	  130.00	  141.62	 -538.25	   21.51
     40.9591	  101.00	  126.90	 -552.53	   21.46
     40.9925	  102.00	  114.72	 -539.35	   21.41
     41.0259	   82.00	  104.53	 -549.16	   21.36
     41.0593	   82.00	   95.92	 -540.55	   21.31
     41.0928	   89.00	   88.58	 -526.21	   21.26
     41.1262	   83.00	   82.28	 -525.91	   21.21
     41.1596	   63.00	   76.83	 -540.46	   21.16
     41.1930	   63.00	   72.08	 -535.72	   21.11
     41.2265	   57.00	   67.93	 -537.56	   21.07
     41.2599	   47.00	   64.28	 -543.91	   21.02
     41.2933	   57.00	   61.05	 -530.68	   20.97
     41.3267	   61.00	   58.12	 -523.75	   20.92
     41.3602	   48.00	   55.57	 -534.20	   20.87
     41.3936	   49.00	   53.29	 -530.92	   20.82
     41.4270	   38.00	   51.21	 -539.84	   20.78
     41.4604	   59.00	   49.37	 -517.00	   20.73
     41.4938	   36.00	   47.71	 -538.34	   20.68
     41.5273	   44.00	   46.21	 -528.85	   20.63
     41.5607	   45.00	   44.86	 -526.49	   20.58
     41.5941	   45.00	   43.63	 -525.26	   20.54
     41.6275	   42.00	   42.52	 -527.15	   20.49
     41.6610	   38.00	   41.51	 -530.14	   20.44
     41.6944	   31.00	   40.59	 -536.22	   20.40
     41.7278	   32.00	   39.76	 -534.39	   20.35
     41.7612	   39.00	   39.01	 -526.64	   20.30
     41.7946	   31.00	   38.34	 -533.97	   20.25
     41.8281	   28.00	   37.73	 -536.36	   20.21
     41.8615	   21.00	   37.18	 -542.82	   20.16
     41.8949	   34.00	   36.70	 -529.33	   20.11
     41.9283	   41.00	   36.28	 -521.91	   20.07
     41.9618	   39.00	   35.92	 -523.55	   20.02
     41.9952	   39.00	   35.61	 -523.24	   19.98
     42.0286	   46.00	   35.35	 -515.99	   19.93
     42.0620	   39.00	   35.16	 -522.79	   19.88
     42.0954	   34.00	   35.02	 -527.65	   19.84
     42.1289	   30.00	   34.94	 -531.57	   19.79
     42.1623	   43.00	   34.93	 -518.56	   19.75
     42.1957	   39.00	   34.98	 -522.61	   19.70
     42.2291	   46.00	   35.10	 -515.73	   19.66
     42.2626	   31.00	   35.30	 -530.93	   19.61
     42.2960	   42.00	   35.59	 -520.22	   19.57
     42.3294	   36.00	   35.98	 -526.61	   19.52
     42.3628	   30.00	   36.48	 -533.11	   19.48
     42.3963	   39.00	   37.10	 -524.74	   19.43
     42.4297	   29.00	   37.88	 -535.52	   19.39
     42.4631	   44.00	   38.84	 -521.47	   19.34
     42.4965	   58.00	   40.01	 -508.64	   19.30
     42.5299	   52.00	   41.44	 -516.07	   19.25
     42.5634	   48.00	   43.19	 -521.82	   19.21
     42.5968	   52.00	   45.34	 -519.97	   19.17
     42.6302	   46.00	   47.99	 -528.62	   19.12
     42.6636	   50.00	   51.28	 -527.91	   19.08
     42.6971	   58.00	   55.39	 -524.02	   19.03
     42.7305	   79.00	   60.56	 -508.20	   18.99
     42.7639	   76.00	   67.10	 -517.73	   18.95
     42.7973	   82.00	   75.37	 -520.00	   18.90
     42.8307	  117.00	   85.79	 -495.43	   18.86
     42.8642	   99.00	   98.79	 -526.42	   18.82
     42.8976	  161.00	  114.57	 -480.21	   18.77
     42.9310	  181.00	  132.87	 -478.50	   18.73
     42.9644	  194.00	  152.28	 -484.91	   18.69
     42.9979	  185.00	  169.93	 -511.56	   18.65
     43.0313	  193.00	  182.11	 -515.75	   18.60
     43.0647	  208.00	  186.23	 -504.86	   18.56
     43.0981	  207.00	  182.23	 -501.86	   18.52
     43.1315	  186.00	  171.75	 -512.38	   18.48
     43.1650	  231.00	  156.72	 -452.35	   18.43
     43.1984	  177.00	  139.11	 -488.75	   18.39
     43.2318	  185.00	  121.12	 -462.75	   18.35
     43.2652	  117.00	  104.49	 -514.12	   18.31
     43.2987	  126.00	   90.16	 -490.79	   18.27
     43.3321	  108.00	   78.31	 -496.94	   18.23
     43.3655	   90.00	   68.72	 -505.35	   18.18
     43.3989	   68.00	   61.03	 -519.66	   18.14
     43.4324	   78.00	   54.86	 -503.49	   18.10
     43.4658	   57.00	   49.90	 -519.53	   18.06
     43.4992	   65.00	   45.87	 -507.50	   18.02
     43.5326	   55.00	   42.57	 -514.20	   17.98
     43.5660	   37.00	   39.83	 -529.47	   17.94
     43.5995	   38.00	   37.55	 -526.18	   17.90
     43.6329	   45.00	   35.61	 -517.24	   17.86
     43.6663	   47.00	   33.96	 -513.59	   17.82
     43.6997	   27.00	   32.53	 -532.16	   17.77
     43.7332	   43.00	   31.29	 -514.92	   17.73
     43.7666	   33.00	   30.20	 -523.84	   17.69
     43.8000	   37.00	   29.25	 -518.88	   17.65
     43.8334	   34.00	   28.40	 -521.03	   17.61
     43.8668	   29.00	   27.64	 -525.27	   17.57
     43.9003	   23.00	   26.96	 -530.59	   17.54
     43.9337	   28.00	   26.35	 -524.98	   17.50
     43.9671	   30.00	   25.79	 -522.42	   17.46
     44.0005	   21.00	   25.28	 -530.92	   17.42
     44.0340	   30.00	   24.82	 -521.45	   17.38
     44.0674	   33.00	   24.40	 -518.03	   17.34
     44.1008	   29.00	   24.01	 -521.64	   17.30
     44.1342	   29.00	   23.65	 -521.28	   17.26
     44.1676	   33.00	   23.46	 -517.10	   17.22
     44.2011	   23.00	   23.15	 -526.79	   17.18
     44.2345	   28.00	   22.87	 -521.50	   17.14
     44.2679	   41.00	   22.60	 -508.23	   17.11
     44.3013	   19.00	   22.42	 -530.05	   17.07
     44.3348	   18.00	   22.18	 -530.82	   17.03
     44.3682	   20.00	   21.96	 -528.59	   16.99
     44.4016	   22.00	   21.75	 -526.38	   16.95
     44.4350	   29.00	   21.55	 -519.18	   16.91
     44.4684	   24.00	   21.36	 -524.00	   16.88
     44.5019	   33.00	   21.18	 -514.82	   16.84
     44.5353	   24.00	   21.01	 -523.65	   16.80
     44.5687	   28.00	   21.21	 -519.84	   16.76
     44.6021	   22.00	   21.06	 -525.69	   16.73
     44.6356	   24.00	   20.91	 -523.55	   16.69
     44.6690	   29.00	   20.78	 -518.41	   16.65
     44.7024	   23.00	   20.82	 -524.46	   16.61
     44.7358	   23.00	   20.70	 -524.33	   16.58
     44.7692	   28.00	   20.59	 -519.22	   16.54
     44.8027	   18.00	   20.47	 -529.11	   16.50
     44.8361	   22.00	   20.37	 -525.00	   16.47
     44.8695	   32.00	   20.26	 -514.90	   16.43
     44.9029	   29.00	   19.28	 -516.91	   16.39
     44.9364	   21.00	   19.20	 -524.83	   16.36
     44.9698	   21.00	   19.12	 -524.75	   16.32
     45.0032	   29.00	   18.61	 -516.24	   16.28
     45.0366	   25.00	   18.54	 -520.17	   16.25
     45.0701	   19.00	   18.48	 -526.11	   16.21
     45.1035	   21.00	   18.42	 -524.05	   16.18
     45.1369	   11.00	   18.36	 -533.99	   16.14
     45.1703	   23.00	   18.31	 -521.94	   16.10
     45.2037	   18.00	   19.09	 -527.72	   16.07
     45.2372	   22.00	   19.05	 -523.68	   16.03
     45.2706	   20.00	   19.02	 -525.65	   16.00
     45.3040	   18.00	   19.39	 -528.03	   15.96
     45.3374	   22.00	   19.37	 -524.00	   15.93
     45.3709	   21.00	   19.35	 -524.98	   15.89
     45.4043	   23.00	   19.33	 -522.96	   15.86
     45.4377	   23.00	   19.31	 -522.94	   15.82
     45.4711	   15.00	   19.29	 -530.92	   15.79
     45.5045	   14.00	   19.28	 -531.91	   15.75
     45.5380	   23.00	   19.27	 -522.90	   15.72
     45.5714	   18.00	   19.26	 -527.89	   15.68
     45.6048	   15.00	   19.25	 -530.89	   15.65
     45.6382	   19.00	   19.25	 -526.88	   15.62
     45.6717	   25.00	   19.25	 -520.88	   15.58
     45.7051	   21.00	   19.25	 -524.88	   15.55
     45.7385	   19.00	   19.25	 -526.88	   15.51
     45.7719	   24.00	   19.25	 -521.89	   15.48
     45.8053	   15.00	   19.26	 -530.89	   15.45
     45.8388	   12.00	   19.27	 -533.90	   15.41
     45.8722	   16.00	   19.28	 -529.91	   15.38
     45.9056	   14.00	   19.30	 -531.93	   15.35
     45.9390	   21.00	   19.31	 -524.95	   15.31
     45.9725	   15.00	   19.33	 -530.96	   15.28
     46.0059	   21.00	   19.35	 -524.99	   15.25
     46.0393	   19.00	   19.38	 -527.01	   15.21
     46.0727	   22.00	   19.41	 -524.04	   15.18
     46.1062	   29.00	   19.44	 -517.07	   15.15
     46.1396	   16.00	   19.47	 -530.10	   15.11
     46.1730	   22.00	   19.51	 -524.14	   15.08
     46.2064	   14.00	   19.54	 -532.18	   15.05
     46.2398	   20.00	   19.59	 -526.22	   15.02
     46.2733	   17.00	   19.63	 -529.26	   14.98
     46.3067	   23.00	   19.68	 -523.31	   14.95
     46.3401	   22.00	   19.73	 -524.36	   14.92
     46.3735	   18.00	   19.79	 -528.42	   14.89
     46.4070	   19.00	   19.85	 -527.48	   14.86
     46.4404	   12.00	   19.91	 -534.54	   14.82
     46.4738	   22.00	   19.98	 -524.61	   14.79
     46.5072	   22.00	   20.05	 -524.68	   14.76
     46.5406	   22.00	   20.13	 -524.76	   14.73
     46.5741	   30.00	   20.21	 -516.84	   14.70
     46.6075	   16.00	   20.29	 -530.93	   14.67
     46.6409	   27.00	   20.39	 -520.02	   14.63
     46.6743	   14.00	   20.48	 -533.11	   14.60
     46.7078	   22.00	   20.58	 -525.22	   14.57
     46.7412	   29.00	   20.69	 -518.32	   14.54
     46.7746	   21.00	   20.80	 -526.44	   14.51
     46.8080	   28.00	   20.92	 -519.56	   14.48
     46.8414	   22.00	   21.05	 -525.68	   14.45
     46.8749	   30.00	   21.19	 -517.82	   14.42
     46.9083	   32.00	   21.33	 -515.96	   14.39
     46.9417	   17.00	   21.48	 -531.11	   14.36
     46.9751	   32.00	   21.76	 -516.39	   14.33
     47.0086	   28.00	   21.93	 -520.56	   14.30
     47.0420	   31.00	   22.11	 -517.74	   14.27
     47.0754	   23.00	   22.30	 -525.93	   14.24
     47.1088	   21.00	   22.56	 -528.19	   14.21
     47.1423	   28.00	   22.77	 -521.40	   14.18
     47.1757	   23.00	   22.99	 -526.62	   14.15
     47.2091	   36.00	   23.23	 -513.86	   14.12
     47.2425	   25.00	   23.48	 -525.11	   14.09
     47.2759	   30.00	   23.75	 -520.38	   14.06
     47.3094	   30.00	   24.03	 -520.66	   14.03
     47.3428	   28.00	   24.33	 -522.97	   14.00
     47.3762	   34.00	   24.65	 -517.28	   13.97
     47.4096	   37.00	   24.99	 -514.62	   13.94
     47.4431	   27.00	   25.35	 -524.99	   13.91
     47.4765	   37.00	   25.74	 -515.37	   13.88
     47.5099	   28.00	   25.98	 -524.61	   13.85
     47.5433	   35.00	   26.42	 -518.05	   13.83
     47.5767	   49.00	   26.89	 -504.52	   13.80
     47.6102	   35.00	   27.39	 -519.03	   13.77
     47.6436	   36.00	   27.85	 -518.48	   13.74
     47.6770	   33.00	   28.43	 -522.06	   13.71
     47.7104	   36.00	   29.05	 -519.68	   13.68
     47.7439	   43.00	   29.72	 -513.36	   13.66
     47.7773	   37.00	   30.45	 -520.08	   13.63
     47.8107	   55.00	   31.23	 -502.86	   13.60
     47.8441	   38.00	   32.08	 -520.71	   13.57
     47.8775	   48.00	   33.00	 -511.63	   13.54
     47.9110	   43.00	   34.00	 -517.64	   13.52
     47.9444	   45.00	   35.10	 -516.73	   13.49
     47.9778	   45.00	   36.30	 -517.93	   13.46
     48.0112	   50.00	   37.62	 -514.26	   13.43
     48.0447	   64.00	   39.08	 -501.71	   13.41
     48.0781	   54.00	   40.70	 -513.33	   13.38
     48.1115	   51.00	   42.49	 -518.13	   13.35
     48.1449	   45.00	   44.51	 -526.14	   13.32
     48.1783	   60.00	   46.77	 -513.40	   13.30
     48.2118	   62.00	   49.33	 -513.96	   13.27
     48.2452	   60.00	   52.25	 -518.88	   13.24
     48.2786	   63.00	   55.60	 -519.23	   13.22
     48.3120	   52.00	   59.48	 -534.11	   13.19
     48.3455	   88.00	   64.00	 -502.64	   13.16
     48.3789	  100.00	   69.33	 -495.97	   13.14
     48.4123	   75.00	   75.66	 -527.29	   13.11
     48.4457	   83.00	   83.20	 -526.84	   13.09
     48.4792	  109.00	   92.25	 -509.89	   13.06
     48.5126	  119.00	  103.11	 -510.74	   13.03
     48.5460	  137.00	  116.06	 -505.69	   13.01
     48.5794	  165.00	  131.28	 -492.91	   12.98
     48.6128	  152.00	  148.62	 -523.25	   12.96
     48.6463	  203.00	  167.33	 -490.96	   12.93
     48.6797	  210.00	  185.86	 -502.49	   12.90
     48.7131	  264.00	  202.13	 -464.76	   12.88
     48.7465	  266.00	  214.56	 -475.20	   12.85
     48.7800	  262.00	  223.04	 -487.67	   12.83
     48.8134	  280.00	  228.74	 -475.37	   12.80
     48.8468	  277.00	  233.23	 -482.86	   12.78
     48.8802	  304.00	  238.05	 -460.68	   12.75
     48.9136	  294.00	  244.91	 -477.54	   12.73
     48.9471	  317.00	  255.62	 -465.25	   12.70
     48.9805	  319.00	  271.62	 -479.25	   12.68
     49.0139	  358.00	  293.34	 -461.97	   12.65
     49.0473	  400.00	  319.63	 -446.26	   12.63
     49.0808	  409.00	  347.33	 -464.96	   12.60
     49.1142	  498.00	  371.55	 -400.18	   12.58
     49.1476	  451.00	  387.43	 -463.06	   12.56
     49.1810	  453.00	  392.68	 -466.31	   12.53
     49.2144	  484.00	  388.30	 -430.93	   12.51
     49.2479	  488.00	  376.82	 -415.45	   12.48
     49.2813	  466.00	  360.74	 -421.37	   12.46
     49.3147	  431.00	  342.58	 -438.21	   12.44
     49.3481	  420.00	  325.37	 -432.00	   12.41
     49.3816	  411.00	  312.20	 -427.83	   12.39
     49.4150	  408.00	  305.47	 -424.10	   12.36
     49.4484	  364.00	  306.72	 -469.35	   12.34
     49.4818	  384.00	  317.00	 -459.63	   12.32
     49.5153	  390.00	  337.12	 -473.75	   12.29
     49.5487	  441.00	  367.88	 -453.52	   12.27
     49.5821	  479.00	  409.93	 -457.57	   12.25
     49.6155	  525.00	  463.15	 -464.79	   12.22
     49.6489	  533.00	  525.71	 -519.35	   12.20
     49.6824	  599.00	  592.51	 -520.14	   12.18
     49.7158	  683.00	  654.37	 -498.00	   12.16
     49.7492	  686.00	  699.75	 -540.38	   12.13
     49.7826	  678.00	  719.82	 -568.45	   12.11
     49.8161	  680.00	  712.87	 -559.50	   12.09
     49.8495	  735.00	  683.15	 -474.78	   12.06
     49.8829	  636.00	  636.30	 -526.93	   12.04
     49.9163	  614.00	  577.14	 -489.78	   12.02
     49.9497	  537.00	  511.03	 -500.66	   12.00
     49.9832	  445.00	  444.04	 -525.67	   11.98
     50.0166	  393.00	  381.36	 -515.00	   11.95
     50.0500	  345.00	  326.08	 -507.71	   11.93
     50.0834	  292.00	  279.10	 -513.73	   11.91
     50.1169	  246.00	  240.05	 -520.69	   11.89
     50.1503	  244.00	  207.93	 -490.56	   11.87
     50.1837	  194.00	  181.60	 -514.23	   11.84
     50.2171	  178.00	  159.98	 -508.61	   11.82
     50.2505	  124.00	  142.15	 -544.78	   11.80
     50.2840	  129.00	  127.36	 -525.00	   11.78
     50.3174	  133.00	  115.01	 -508.64	   11.76
     50.3508	   95.00	  104.60	 -536.23	   11.74
     50.3842	   75.00	   95.77	 -547.41	   11.72
     50.4177	   83.00	   88.23	 -531.86	   11.69
     50.4511	   81.00	   81.73	 -527.37	   11.67
     50.4845	   74.00	   76.11	 -528.75	   11.65
     50.5179	   43.00	   71.22	 -554.86	   11.63
     50.5513	   70.00	   66.95	 -523.58	   11.61
     50.5848	   75.00	   63.20	 -514.84	   11.59
     50.6182	   61.00	   59.91	 -525.54	   11.57
     50.6516	   52.00	   57.01	 -531.65	   11.55
     50.6850	   64.00	   54.46	 -517.09	   11.53
     50.7185	   51.00	   52.22	 -527.85	   11.51
     50.7519	   43.00	   50.25	 -533.88	   11.49
     50.7853	   44.00	   48.53	 -531.16	   11.47
     50.8187	   38.00	   47.04	 -535.67	   11.45
     50.8521	   44.00	   45.76	 -528.40	   11.43
     50.8856	   42.00	   44.69	 -529.33	   11.41
     50.9190	   52.00	   43.83	 -518.46	   11.39
     50.9524	   43.00	   43.15	 -526.79	   11.37
     50.9858	   50.00	   42.68	 -519.32	   11.35
     51.0193	   55.00	   42.43	 -514.06	   11.33
     51.0527	   47.00	   42.39	 -522.03	   11.31
     51.0861	   37.00	   42.61	 -532.24	   11.29
     51.1195	   52.00	   43.11	 -517.74	   11.27
     51.1530	   46.00	   43.94	 -524.57	   11.25
     51.1864	   37.00	   45.16	 -534.79	   11.23
     51.2198	   30.00	   46.84	 -543.47	   11.21
     51.2532	   56.00	   49.09	 -519.72	   11.19
     51.2866	   38.00	   52.02	 -540.65	   11.17
     51.3201	   51.00	   55.78	 -531.42	   11.15
     51.3535	   50.00	   60.55	 -537.18	   11.14
     51.3869	   83.00	   66.47	 -510.10	   11.12
     51.4203	   87.00	   73.65	 -513.29	   11.10
     51.4538	   86.00	   82.07	 -522.70	   11.08
     51.4872	   74.00	   91.37	 -544.00	   11.06
     51.5206	  115.00	  100.71	 -512.34	   11.04
     51.5540	  106.00	  108.78	 -529.41	   11.02
     51.5874	  122.00	  114.13	 -518.76	   11.01
     51.6209	  143.00	  115.89	 -499.52	   10.99
     51.6543	  117.00	  114.14	 -523.77	   10.97
     51.6877	  108.00	  109.55	 -528.18	   10.95
     51.7211	  118.00	  102.84	 -511.47	   10.93
     51.7546	  112.00	   94.59	 -509.22	   10.92
     51.7880	   94.00	   85.50	 -518.13	   10.90
     51.8214	   68.00	   76.34	 -534.97	   10.88
     51.8548	   78.00	   67.78	 -516.41	   10.86
     51.8883	   61.00	   60.18	 -525.81	   10.84
     51.9217	   48.00	   53.68	 -532.31	   10.83
     51.9551	   49.00	   48.22	 -525.86	   10.81
     51.9885	   58.00	   43.69	 -512.32	   10.79
     52.0219	   42.00	   39.92	 -524.56	   10.78
     52.0554	   27.00	   36.80	 -536.43	   10.76
     52.0888	   25.00	   34.18	 -535.82	   10.74
     52.1222	   35.00	   31.99	 -523.62	   10.72
     52.1556	   28.00	   30.12	 -528.75	   10.71
     52.1891	   32.00	   28.53	 -523.16	   10.69
     52.2225	   31.00	   27.16	 -522.79	   10.67
     52.2559	   37.00	   25.96	 -515.59	   10.66
     52.2893	   41.00	   25.20	 -510.83	   10.64
     52.3227	   22.00	   24.28	 -528.91	   10.62
     52.3562	   32.00	   23.46	 -518.09	   10.61
     52.3896	   30.00	   22.73	 -519.36	   10.59
     52.4230	   21.00	   22.22	 -527.85	   10.57
     52.4564	   35.00	   21.62	 -513.26	   10.56
     52.4899	   21.00	   21.09	 -526.72	   10.54
     52.5233	   23.00	   20.60	 -524.23	   10.52
     52.5567	   24.00	   20.15	 -522.78	   10.51
     52.5901	   16.00	   19.74	 -530.37	   10.49
     52.6235	   30.00	   19.36	 -515.99	   10.48
     52.6570	   16.00	   19.17	 -529.80	   10.46
     52.6904	   17.00	   18.85	 -528.48	   10.44
     52.7238	   21.00	   18.55	 -524.18	   10.43
     52.7572	   21.00	   18.27	 -523.90	   10.41
     52.7907	   20.00	   18.09	 -524.72	   10.40
     52.8241	   12.00	   17.84	 -532.48	   10.38
     52.8575	   20.00	   17.62	 -524.25	   10.37
     52.8909	   17.00	   17.40	 -527.03	   10.35
     52.9244	   17.00	   17.20	 -526.83	   10.34
     52.9578	   12.00	   17.01	 -531.64	   10.32
     52.9912	   24.00	   16.83	 -519.47	   10.31
     53.0246	   20.00	   16.66	 -523.30	   10.29
     53.0580	   19.00	   16.50	 -524.14	   10.28
     53.0915	   19.00	   16.35	 -523.99	   10.26
     53.1249	   28.00	   16.21	 -514.84	   10.25
     53.1583	   20.00	   16.07	 -522.71	   10.23
     53.1917	   20.00	   15.94	 -522.58	   10.22
     53.2252	   23.00	   15.82	 -519.45	   10.20
     53.2586	   23.00	   15.70	 -519.34	   10.19
     53.2920	   21.00	   15.59	 -521.23	   10.17
     53.3254	   19.00	   15.34	 -522.97	   10.16
     53.3588	   18.00	   15.24	 -523.87	   10.14
     53.3923	   22.00	   15.15	 -519.78	   10.13
     53.4257	   17.00	   14.98	 -524.61	   10.12
     53.4591	   23.00	   14.90	 -518.53	   10.10
     53.4925	   16.00	   14.82	 -525.45	   10.09
     53.5260	   10.00	   14.74	 -531.37	   10.07
     53.5594	   12.00	   14.67	 -529.30	   10.06
     53.5928	   12.00	   14.60	 -529.23	   10.05
     53.6262	   10.00	   14.54	 -531.17	   10.03
     53.6596	   11.00	   14.47	 -530.11	   10.02
     53.6931	   23.00	   14.42	 -518.05	   10.00
     53.7265	   14.00	   14.01	 -526.64	    9.99
     53.7599	   17.00	   13.96	 -523.59	    9.98
     53.7933	   21.00	   13.92	 -519.55	    9.96
     53.8268	   17.00	   13.88	 -523.51	    9.95
     53.8602	    6.00	   13.66	 -534.30	    9.94
     53.8936	   16.00	   13.63	 -524.26	    9.92
     53.9270	   20.00	   13.60	 -520.23	    9.91
     53.9604	   19.00	   13.57	 -521.20	    9.90
     53.9939	   18.00	   13.54	 -522.18	    9.88
     54.0273	   15.00	   13.52	 -525.15	    9.87
     54.0607	   19.00	   13.50	 -521.13	    9.86
     54.0941	   15.00	   13.48	 -525.11	    9.85
     54.1276	   10.00	   13.46	 -530.10	    9.83
     54.1610	   17.00	   13.45	 -523.08	    9.82
     54.1944	   15.00	   13.44	 -525.07	    9.81
     54.2278	   14.00	   13.43	 -526.06	    9.79
     54.2612	   22.00	   13.42	 -518.06	    9.78
     54.2947	   25.00	   13.42	 -515.05	    9.77
     54.3281	    9.00	   13.42	 -531.05	    9.76
     54.3615	   24.00	   12.60	 -515.23	    9.74
     54.3949	   18.00	   12.61	 -521.25	    9.73
     54.4284	   24.00	   12.63	 -515.26	    9.72
     54.4618	   11.00	   12.65	 -528.29	    9.71
     54.4952	    6.00	   12.27	 -532.90	    9.70
     54.5286	   12.00	   12.30	 -526.93	    9.68
     54.5621	   17.00	   12.33	 -521.97	    9.67
     54.5955	   19.00	   12.37	 -520.00	    9.66
     54.6289	   28.00	   12.41	 -511.04	    9.65
     54.6623	   12.00	   12.45	 -527.09	    9.64
     54.6957	   18.00	   12.50	 -521.13	    9.63
     54.7292	   15.00	   12.55	 -524.18	    9.61
     54.7626	   19.00	   12.61	 -520.24	    9.60
     54.7960	   17.00	   12.75	 -522.38	    9.59
     54.8294	   16.00	   12.82	 -523.45	    9.58
     54.8629	   23.00	   12.88	 -516.52	    9.57
     54.8963	   15.00	   12.96	 -524.59	    9.56
     54.9297	   15.00	   13.04	 -524.67	    9.55
     54.9631	   20.00	   13.16	 -519.80	    9.53
     54.9965	   14.00	   13.26	 -525.89	    9.52
     55.0300	   19.00	   13.36	 -520.99	    9.51
     55.0634	   25.00	   13.46	 -515.10	    9.50
     55.0968	   27.00	   13.58	 -513.21	    9.49
     55.1302	   18.00	   13.71	 -522.34	    9.48
     55.1637	   22.00	   13.93	 -518.56	    9.47
     55.1971	   25.00	   14.07	 -515.71	    9.46
     55.2305	   19.00	   14.23	 -521.86	    9.45
     55.2639	   16.00	   14.38	 -525.02	    9.44
     55.2973	   16.00	   14.54	 -525.17	    9.43
     55.3308	   29.00	   14.73	 -512.36	    9.42
     55.3642	   24.00	   14.88	 -517.52	    9.41
     55.3976	   24.00	   15.04	 -517.67	    9.40
     55.4310	   23.00	   15.19	 -518.82	    9.39
     55.4645	   27.00	   15.35	 -514.98	    9.38
     55.4979	   16.00	   15.52	 -526.16	    9.37
     55.5313	   29.00	   15.71	 -513.34	    9.36
     55.5647	   21.00	   15.90	 -521.54	    9.35
     55.5982	   25.00	   16.12	 -517.75	    9.34
     55.6316	   20.00	   16.35	 -522.99	    9.33
     55.6650	   27.00	   16.61	 -516.24	    9.32
     55.6984	   21.00	   16.89	 -522.53	    9.31
     55.7318	   18.00	   17.20	 -525.83	    9.30
     55.7653	   28.00	   17.53	 -516.16	    9.29
     55.7987	   22.00	   17.89	 -522.53	    9.28
     55.8321	   24.00	   18.29	 -520.92	    9.27
     55.8655	   21.00	   18.71	 -524.34	    9.26
     55.8990	   25.00	   19.17	 -520.81	    9.25
     55.9324	   23.00	   19.68	 -523.31	    9.24
     55.9658	   17.00	   20.23	 -529.86	    9.23
     55.9992	   23.00	   20.82	 -524.46	    9.22
     56.0326	   14.00	   21.48	 -534.11	    9.21
     56.0661	   19.00	   22.20	 -529.83	    9.20
     56.0995	   29.00	   22.98	 -520.62	    9.19
     56.1329	   23.00	   23.85	 -527.48	    9.19
     56.1663	   34.00	   24.81	 -517.44	    9.18
     56.1998	   23.00	   25.87	 -529.51	    9.17
     56.2332	   24.00	   26.94	 -529.57	    9.16
     56.2666	   30.00	   28.26	 -524.89	    9.15
     56.3000	   27.00	   29.74	 -529.37	    9.14
     56.3334	   31.00	   31.40	 -527.03	    9.13
     56.3669	   32.00	   33.22	 -527.85	    9.12
     56.4003	   38.00	   35.36	 -523.99	    9.12
     56.4337	   25.00	   37.80	 -539.43	    9.11
     56.4671	   50.00	   40.61	 -517.24	    9.10
     56.5006	   47.00	   43.86	 -523.49	    9.09
     56.5340	   52.00	   47.64	 -522.27	    9.08
     56.5674	   59.00	   52.06	 -519.70	    9.07
     56.6008	   60.00	   57.29	 -523.92	    9.07
     56.6343	   68.00	   63.48	 -522.11	    9.06
     56.6677	   69.00	   70.85	 -528.48	    9.05
     56.7011	   84.00	   79.66	 -522.29	    9.04
     56.7345	  104.00	   90.19	 -512.82	    9.03
     56.7679	  100.00	  102.74	 -529.37	    9.03
     56.8014	  123.00	  117.56	 -521.20	    9.02
     56.8348	  121.00	  134.78	 -540.42	    9.01
     56.8682	  161.00	  154.20	 -519.83	    9.00
     56.9016	  171.00	  175.03	 -530.66	    9.00
     56.9351	  219.00	  195.71	 -503.34	    8.99
     56.9685	  207.00	  214.01	 -533.64	    8.98
     57.0019	  240.00	  227.72	 -514.35	    8.97
     57.0353	  280.00	  235.63	 -482.26	    8.97
     57.0687	  262.00	  238.04	 -502.67	    8.96
     57.1022	  255.00	  236.25	 -507.89	    8.95
     57.1356	  255.00	  231.62	 -503.25	    8.94
     57.1690	  225.00	  225.16	 -526.79	    8.94
     57.2024	  248.00	  217.86	 -496.49	    8.93
     57.2359	  244.00	  210.72	 -493.35	    8.92
     57.2693	  235.00	  204.55	 -496.18	    8.92
     57.3027	  213.00	  199.44	 -513.07	    8.91
     57.3361	  173.00	  194.68	 -548.31	    8.90
     57.3695	  219.00	  189.12	 -496.75	    8.90
     57.4030	  193.00	  181.89	 -515.52	    8.89
     57.4364	  165.00	  172.80	 -534.43	    8.88
     57.4698	  176.00	  162.22	 -512.85	    8.88
     57.5032	  165.00	  150.60	 -512.23	    8.87
     57.5367	  127.00	  138.23	 -537.86	    8.86
     57.5701	  129.00	  125.42	 -523.06	    8.86
     57.6035	  124.00	  112.65	 -515.28	    8.85
     57.6369	  126.00	  100.45	 -501.08	    8.84
     57.6703	  112.00	   89.29	 -503.92	    8.84
     57.7038	   81.00	   79.41	 -525.05	    8.83
     57.7372	   61.00	   70.87	 -536.50	    8.82
     57.7706	   66.00	   63.58	 -524.21	    8.82
     57.8040	   68.00	   57.40	 -516.03	    8.81
     57.8375	   68.00	   52.17	 -510.81	    8.81
     57.8709	   71.00	   47.75	 -503.38	    8.80
     57.9043	   55.00	   43.98	 -515.62	    8.79
     57.9377	   39.00	   40.77	 -528.41	    8.79
     57.9712	   42.00	   38.02	 -522.66	    8.78
     58.0046	   42.00	   35.65	 -520.29	    8.78
     58.0380	   34.00	   33.60	 -526.23	    8.77
     58.0714	   30.00	   31.82	 -528.45	    8.76
     58.1048	   46.00	   30.25	 -510.89	    8.76
     58.1383	   37.00	   28.89	 -518.52	    8.75
     58.1717	   25.00	   27.68	 -529.31	    8.75
     58.2051	   29.00	   26.62	 -524.25	    8.74
     58.2385	   25.00	   25.68	 -527.31	    8.74
     58.2720	   22.00	   24.85	 -529.48	    8.73
     58.3054	   29.00	   24.12	 -521.75	    8.73
     58.3388	   30.00	   23.47	 -520.10	    8.72
     58.3722	   33.00	   22.90	 -516.53	    8.72
     58.4056	   31.00	   22.40	 -518.03	    8.71
     58.4391	   30.00	   21.97	 -518.60	    8.71
     58.4725	   31.00	   21.59	 -517.22	    8.70
     58.5059	   22.00	   21.27	 -525.91	    8.70
     58.5393	   21.00	   21.01	 -526.64	    8.69
     58.5728	   15.00	   20.79	 -532.43	    8.69
     58.6062	   28.00	   20.63	 -519.26	    8.68
     58.6396	   30.00	   20.51	 -517.15	    8.68
     58.6730	   17.00	   20.45	 -530.08	    8.67
     58.7064	   25.00	   20.43	 -522.06	    8.67
     58.7399	   28.00	   20.47	 -519.10	    8.66
     58.7733	   32.00	   20.55	 -515.19	    8.66
     58.8067	   25.00	   20.70	 -522.33	    8.65
     58.8401	   24.00	   20.90	 -523.54	    8.65
     58.8736	   27.00	   21.18	 -520.81	    8.64
     58.9070	   22.00	   21.52	 -526.15	    8.64
     58.9404	   22.00	   21.95	 -526.58	    8.63
     58.9738	   21.00	   22.47	 -528.10	    8.63
     59.0073	   31.00	   23.10	 -518.73	    8.63
     59.0407	   19.00	   23.85	 -531.49	    8.62
     59.0741	   24.00	   24.75	 -527.39	    8.62
     59.1075	   30.00	   25.83	 -522.46	    8.61
     59.1409	   31.00	   27.11	 -522.74	    8.61
     59.1744	   29.00	   28.64	 -526.27	    8.61
     59.2078	   48.00	   30.47	 -509.10	    8.60
     59.2412	   30.00	   32.66	 -529.29	    8.60
     59.2746	   39.00	   35.28	 -522.91	    8.59
     59.3081	   39.00	   38.41	 -526.04	    8.59
     59.3415	   41.00	   42.13	 -527.76	    8.59
     59.3749	   38.00	   46.52	 -535.15	    8.58
     59.4083	   45.00	   51.61	 -533.25	    8.58
     59.4417	   43.00	   57.38	 -541.02	    8.57
     59.4752	   68.00	   63.64	 -522.28	    8.57
     59.5086	   82.00	   70.03	 -514.66	    8.57
     59.5420	   66.00	   75.98	 -536.61	    8.56
     59.5754	   71.00	   80.90	 -536.53	    8.56
     59.6089	   70.00	   84.42	 -541.05	    8.56
     59.6423	   87.00	   86.53	 -526.17	    8.55
     59.6757	   94.00	   87.58	 -520.21	    8.55
     59.7091	   96.00	   87.95	 -518.58	    8.55
     59.7425	   99.00	   87.97	 -515.60	    8.54
     59.7760	   96.00	   87.85	 -518.49	    8.54
     59.8094	   89.00	   87.78	 -525.41	    8.54
     59.8428	  113.00	   87.85	 -501.48	    8.53
     59.8762	   84.00	   87.96	 -530.59	    8.53
     59.9097	   95.00	   87.76	 -519.39	    8.53
     59.9431	  106.00	   86.80	 -507.43	    8.53
     59.9765	   78.00	   84.77	 -533.40	    8.52
     60.0099	  100.00	   81.67	 -508.30	    8.52
     60.0434	   87.00	   77.70	 -517.33	    8.52
     60.0768	   88.00	   73.10	 -511.73	    8.51
     60.1102	   81.00	   68.03	 -513.66	    8.51
     60.1436	   81.00	   62.63	 -508.26	    8.51
     60.1770	   69.00	   57.09	 -514.72	    8.51
     60.2105	   65.00	   51.67	 -513.30	    8.50
     60.2439	   48.00	   46.60	 -525.23	    8.50
     60.2773	   55.00	   42.02	 -513.65	    8.50
     60.3107	   55.00	   38.01	 -509.64	    8.50
     60.3442	   42.00	   34.54	 -519.17	    8.49
     60.3776	   35.00	   31.58	 -523.21	    8.49
     60.4110	   32.00	   29.06	 -523.69	    8.49
     60.4444	   43.00	   26.91	 -510.54	    8.49
     60.4778	   37.00	   25.08	 -514.71	    8.48
     60.5113	   24.00	   23.81	 -526.44	    8.48
     60.5447	   24.00	   22.46	 -525.10	    8.48
     60.5781	   36.00	   21.30	 -511.93	    8.48
     60.6115	   29.00	   20.29	 -517.92	    8.48
     60.6450	   25.00	   19.40	 -521.04	    8.47
     60.6784	   28.00	   18.77	 -517.40	    8.47
     60.7118	   19.00	   18.09	 -525.72	    8.47
     60.7452	   21.00	   17.48	 -523.11	    8.47
     60.7786	   15.00	   16.93	 -528.56	    8.47
     60.8121	   19.00	   16.44	 -524.08	    8.46
     60.8455	   12.00	   16.00	 -530.64	    8.46
     60.8789	   20.00	   15.61	 -522.24	    8.46
     60.9123	   20.00	   15.25	 -521.88	    8.46
     60.9458	   16.00	   14.92	 -525.55	    8.46
     60.9792	   16.00	   14.62	 -525.25	    8.45
     61.0126	   19.00	   14.35	 -521.98	    8.45
     61.0460	   22.00	   14.10	 -518.73	    8.45
     61.0794	   16.00	   13.87	 -524.50	    8.45
     61.1129	   15.00	   13.65	 -525.29	    8.45
     61.1463	   24.00	   13.46	 -516.09	    8.45
     61.1797	   14.00	   13.28	 -525.91	    8.45
     61.2131	   18.00	   13.11	 -521.74	    8.44
     61.2466	   16.00	   12.96	 -523.59	    8.44
     61.2800	   14.00	   12.81	 -525.44	    8.44
     61.3134	   12.00	   12.68	 -527.31	    8.44
     61.3468	   25.00	   12.55	 -514.18	    8.44
     61.3803	    9.00	   12.44	 -530.07	    8.44
     61.4137	   18.00	   12.33	 -520.96	    8.44
     61.4471	   15.00	   12.23	 -523.86	    8.44
     61.4805	   11.00	   12.13	 -527.76	    8.43
     61.5139	   11.00	   12.04	 -527.68	    8.43
     61.5474	   16.00	   11.96	 -522.59	    8.43
     61.5808	   14.00	   11.89	 -524.52	    8.43
     61.6142	   22.00	   11.81	 -516.45	    8.43
     61.6476	   17.00	   11.75	 -521.38	    8.43
     61.6811	   22.00	   11.68	 -516.32	    8.43
     61.7145	   16.00	   11.63	 -522.26	    8.43
     61.7479	   10.00	   11.29	 -527.92	    8.43
     61.7813	   21.00	   11.24	 -516.87	    8.43
     61.8147	   14.00	   11.20	 -523.83	    8.43
     61.8482	   10.00	   11.16	 -527.79	    8.43
     61.8816	    6.00	   11.12	 -531.75	    8.43
     61.9150	   14.00	   10.95	 -523.58	    8.42
     61.9484	   11.00	   10.92	 -526.55	    8.42
     61.9819	    9.00	   10.90	 -528.53	    8.42
     62.0153	   14.00	   10.98	 -523.61	    8.42
     62.0487	   14.00	   10.96	 -523.59	    8.42
     62.0821	   14.00	   10.94	 -523.57	    8.42
     62.1155	   16.00	   10.93	 -521.56	    8.42
     62.1490	   14.00	   10.76	 -523.39	    8.42
     62.1824	   12.00	   10.81	 -525.44	    8.42
     62.2158	    7.00	   10.81	 -530.44	    8.42
     62.2492	   15.00	   10.81	 -522.44	    8.42
     62.2827	   10.00	   10.73	 -527.36	    8.42
     62.3161	   16.00	   10.78	 -521.41	    8.42
     62.3495	   12.00	   10.79	 -525.42	    8.42
     62.3829	    9.00	   10.80	 -528.44	    8.42
     62.4164	    9.00	   10.82	 -528.45	    8.42
     62.4498	   21.00	   10.85	 -516.48	    8.42
     62.4832	   17.00	   10.87	 -520.50	    8.42
     62.5166	    9.00	   10.92	 -528.55	    8.42
     62.5500	    7.00	   10.96	 -530.59	    8.42
     62.5835	   14.00	   11.01	 -523.64	    8.42
     62.6169	   14.00	   11.06	 -523.69	    8.42
     62.6503	    9.00	   11.12	 -528.75	    8.42
     62.6837	   12.00	   11.19	 -525.82	    8.42
     62.7172	   11.00	   11.27	 -526.90	    8.42
     62.7506	    6.00	   11.36	 -532.00	    8.42
     62.7840	   16.00	   11.47	 -522.10	    8.42
     62.8174	   12.00	   11.59	 -526.22	    8.42
     62.8508	   12.00	   11.72	 -526.35	    8.42
     62.8843	   23.00	   11.86	 -515.49	    8.42
     62.9177	   15.00	   11.99	 -523.62	    8.42
     62.9511	   18.00	   12.11	 -520.74	    8.42
     62.9845	   16.00	   12.20	 -522.83	    8.43
     63.0180	   12.00	   12.26	 -526.89	    8.43
     63.0514	   19.00	   12.30	 -519.93	    8.43
     63.0848	    8.00	   12.31	 -530.94	    8.43
     63.1182	   19.00	   12.30	 -519.93	    8.43
     63.1516	   20.00	   12.28	 -518.91	    8.43
     63.1851	   15.00	   12.25	 -523.88	    8.43
     63.2185	   11.00	   12.22	 -527.85	    8.43
     63.2519	   15.00	   12.18	 -523.81	    8.43
     63.2853	   15.00	   12.15	 -523.79	    8.43
     63.3188	   18.00	   12.14	 -520.77	    8.43
     63.3522	   14.00	   12.13	 -524.76	    8.43
     63.3856	   17.00	   12.14	 -521.77	    8.43
     63.4190	   17.00	   12.16	 -521.79	    8.44
     63.4524	   11.00	   12.19	 -527.83	    8.44
     63.4859	   10.00	   12.24	 -528.87	    8.44
     63.5193	   12.00	   12.30	 -526.93	    8.44
     63.5527	   14.00	   12.36	 -525.00	    8.44
     63.5861	   15.00	   12.44	 -524.07	    8.44
     63.6196	   11.00	   12.53	 -528.16	    8.44
     63.6530	   14.00	   12.62	 -525.25	    8.44
     63.6864	    9.00	   12.73	 -530.36	    8.44
     63.7198	   14.00	   12.84	 -525.47	    8.45
     63.7533	   12.00	   12.96	 -527.59	    8.45
     63.7867	   17.00	   13.09	 -522.73	    8.45
     63.8201	   16.00	   13.24	 -523.87	    8.45
     63.8535	   19.00	   13.39	 -521.02	    8.45
     63.8869	   15.00	   13.55	 -525.19	    8.45
     63.9204	   18.00	   13.73	 -522.36	    8.45
     63.9538	   18.00	   13.92	 -522.55	    8.46
     63.9872	   18.00	   14.12	 -522.75	    8.46
     64.0206	   11.00	   14.34	 -529.97	    8.46
     64.0541	   17.00	   14.57	 -524.20	    8.46
     64.0875	   11.00	   14.82	 -530.45	    8.46
     64.1209	    7.00	   15.08	 -534.72	    8.46
     64.1543	   21.00	   15.37	 -521.00	    8.46
     64.1877	   17.00	   15.68	 -525.31	    8.47
     64.2212	   23.00	   16.02	 -519.65	    8.47
     64.2546	   20.00	   16.38	 -523.01	    8.47
     64.2880	   12.00	   16.77	 -531.40	    8.47
     64.3214	   14.00	   17.19	 -529.83	    8.47
     64.3549	   20.00	   17.65	 -524.29	    8.47
     64.3883	   21.00	   18.07	 -523.70	    8.48
     64.4217	   16.00	   18.61	 -529.25	    8.48
     64.4551	   15.00	   19.21	 -530.85	    8.48
     64.4885	   15.00	   19.87	 -531.50	    8.48
     64.5220	   18.00	   20.59	 -529.22	    8.48
     64.5554	   24.00	   21.34	 -523.97	    8.49
     64.5888	   23.00	   22.22	 -525.85	    8.49
     64.6222	   18.00	   23.19	 -531.82	    8.49
     64.6557	   22.00	   24.27	 -528.91	    8.49
     64.6891	   36.00	   25.49	 -516.12	    8.49
     64.7225	   25.00	   26.84	 -528.47	    8.50
     64.7559	   28.00	   28.29	 -526.92	    8.50
     64.7894	   37.00	   30.02	 -519.65	    8.50
     64.8228	   34.00	   31.98	 -524.61	    8.50
     64.8562	   45.00	   34.23	 -515.86	    8.50
     64.8896	   52.00	   36.81	 -511.44	    8.51
     64.9230	   38.00	   39.75	 -528.38	    8.51
     64.9565	   39.00	   43.20	 -530.83	    8.51
     64.9899	   56.00	   47.23	 -517.86	    8.51
     65.0233	   50.00	   51.94	 -528.57	    8.52
     65.0567	   62.00	   57.47	 -522.10	    8.52
     65.0901	   62.00	   63.96	 -528.59	    8.52
     65.1236	   83.00	   71.59	 -515.22	    8.52
     65.1570	   96.00	   80.51	 -511.14	    8.53
     65.1904	   90.00	   90.88	 -527.52	    8.53
     65.2238	   87.00	  102.77	 -542.40	    8.53
     65.2573	  112.00	  116.07	 -530.70	    8.53
     65.2907	  138.00	  130.43	 -519.06	    8.54
     65.3241	  132.00	  145.08	 -539.71	    8.54
     65.3575	  148.00	  158.84	 -537.47	    8.54
     65.3910	  154.00	  170.23	 -542.87	    8.54
     65.4244	  153.00	  177.94	 -551.57	    8.55
     65.4578	  171.00	  181.29	 -536.92	    8.55
     65.4912	  164.00	  180.43	 -543.06	    8.55
     65.5246	  164.00	  176.10	 -538.73	    8.55
     65.5581	  154.00	  169.08	 -541.71	    8.56
     65.5915	  161.00	  159.93	 -525.56	    8.56
     65.6249	  165.00	  149.07	 -510.71	    8.56
     65.6583	  148.00	  136.98	 -515.61	    8.56
     65.6918	  138.00	  124.30	 -512.93	    8.57
     65.7252	  112.00	  111.74	 -526.37	    8.57
     65.7586	  100.00	   99.90	 -526.53	    8.57
     65.7920	   82.00	   89.17	 -533.80	    8.58
     65.8254	   89.00	   79.69	 -517.33	    8.58
     65.8589	   60.00	   71.49	 -538.13	    8.58
     65.8923	   61.00	   64.48	 -530.11	    8.58
     65.9257	   63.00	   58.52	 -522.15	    8.59
     65.9591	   54.00	   53.48	 -526.11	    8.59
     65.9926	   57.00	   49.23	 -518.86	    8.59
     66.0260	   69.00	   45.64	 -503.27	    8.60
     66.0594	   49.00	   42.63	 -520.26	    8.60
     66.0928	   45.00	   40.09	 -521.73	    8.60
     66.1263	   47.00	   37.97	 -517.60	    8.61
     66.1597	   33.00	   36.21	 -529.84	    8.61
     66.1931	   39.00	   34.75	 -522.38	    8.61
     66.2265	   32.00	   33.57	 -528.20	    8.61
     66.2599	   24.00	   32.64	 -535.27	    8.62
     66.2934	   23.00	   31.93	 -535.56	    8.62
     66.3268	   30.00	   31.44	 -528.07	    8.62
     66.3602	   38.00	   31.16	 -519.79	    8.63
     66.3936	   31.00	   31.08	 -526.71	    8.63
     66.4271	   34.00	   31.22	 -523.85	    8.63
     66.4605	   34.00	   31.58	 -524.21	    8.64
     66.4939	   42.00	   32.17	 -516.81	    8.64
     66.5273	   39.00	   33.04	 -520.67	    8.64
     66.5607	   35.00	   34.44	 -526.07	    8.65
     66.5942	   35.00	   35.93	 -527.56	    8.65
     66.6276	   33.00	   37.81	 -531.44	    8.65
     66.6610	   41.00	   40.12	 -525.75	    8.66
     66.6944	   51.00	   42.91	 -518.55	    8.66
     66.7279	   48.00	   46.25	 -524.88	    8.66
     66.7613	   59.00	   50.26	 -517.89	    8.67
     66.7947	   42.00	   54.69	 -539.33	    8.67
     66.8281	   58.00	   59.57	 -528.21	    8.67
     66.8615	   64.00	   64.68	 -527.31	    8.68
     66.8950	   72.00	   69.66	 -524.29	    8.68
     66.9284	   62.00	   74.06	 -538.69	    8.68
     66.9618	   73.00	   77.45	 -531.08	    8.69
     66.9952	   86.00	   79.58	 -520.21	    8.69
     67.0287	   79.00	   80.46	 -528.09	    8.70
     67.0621	   81.00	   80.31	 -525.94	    8.70
     67.0955	   75.00	   79.40	 -531.03	    8.70
     67.1289	   68.00	   77.93	 -536.56	    8.71
     67.1624	   86.00	   76.00	 -516.64	    8.71
     67.1958	   81.00	   73.67	 -519.31	    8.71
     67.2292	   75.00	   71.00	 -522.63	    8.72
     67.2626	   94.00	   68.04	 -500.68	    8.72
     67.2960	   79.00	   64.86	 -512.49	    8.72
     67.3295	   68.00	   61.50	 -520.13	    8.73
     67.3629	   70.00	   58.14	 -514.77	    8.73
     67.3963	   59.00	   54.66	 -522.29	    8.74
     67.4297	   61.00	   51.24	 -516.87	    8.74
     67.4632	   60.00	   47.92	 -514.55	    8.74
     67.4966	   47.00	   44.71	 -524.34	    8.75
     67.5300	   55.00	   41.61	 -513.24	    8.75
     67.5634	   51.00	   38.68	 -514.31	    8.75
     67.5968	   44.00	   35.87	 -518.51	    8.76
     67.6303	   34.00	   33.28	 -525.91	    8.76
     67.6637	   34.00	   30.93	 -523.56	    8.77
     67.6971	   28.00	   28.84	 -527.47	    8.77
     67.7305	   39.00	   26.99	 -514.62	    8.77
     67.7640	   24.00	   25.38	 -528.01	    8.78
     67.7974	   17.00	   23.97	 -533.60	    8.78
     67.8308	   30.00	   22.75	 -519.38	    8.79
     67.8642	   21.00	   21.67	 -527.31	    8.79
     67.8976	   31.00	   20.74	 -516.37	    8.79
     67.9311	   21.00	   19.92	 -525.55	    8.80
     67.9645	   27.00	   19.19	 -518.83	    8.80
     67.9979	   25.00	   18.55	 -520.19	    8.80
     68.0313	   21.00	   17.99	 -523.62	    8.81
     68.0648	   21.00	   17.48	 -523.11	    8.81
     68.0982	   20.00	   17.03	 -523.66	    8.82
     68.1316	   21.00	   16.62	 -522.25	    8.82
     68.1650	   20.00	   16.25	 -522.88	    8.83
     68.1984	   14.00	   15.92	 -528.55	    8.83
     68.2319	   14.00	   15.62	 -528.25	    8.83
     68.2653	   17.00	   15.35	 -524.98	    8.84
     68.2987	   16.00	   15.10	 -525.73	    8.84
     68.3321	   14.00	   14.87	 -527.51	    8.85
     68.3656	   18.00	   14.67	 -523.30	    8.85
     68.3990	   21.00	   14.48	 -520.11	    8.85
     68.4324	   17.00	   14.30	 -523.94	    8.86
     68.4658	   16.00	   14.15	 -524.78	    8.86
     68.4993	   14.00	   14.00	 -526.63	    8.87
     68.5327	   17.00	   13.87	 -523.50	    8.87
     68.5661	   12.00	   13.74	 -528.38	    8.87
     68.5995	   10.00	   13.63	 -530.26	    8.88
     68.6329	   17.00	   13.53	 -523.16	    8.88
     68.6664	   20.00	   13.43	 -520.07	    8.89
     68.6998	   16.00	   13.35	 -523.98	    8.89
     68.7332	    6.00	   13.27	 -533.90	    8.90
     68.7666	   14.00	   13.20	 -525.83	    8.90
     68.8000	   17.00	   13.13	 -522.76	    8.90
     68.8335	   12.00	   13.07	 -527.70	    8.91
     68.8669	   15.00	   13.02	 -524.65	    8.91
     68.9003	   12.00	   12.97	 -527.60	    8.92
     68.9337	   14.00	   12.93	 -525.56	    8.92
     68.9672	   15.00	   12.89	 -524.52	    8.93
     69.0006	   15.00	   12.86	 -524.49	    8.93
     69.0340	    4.00	   12.83	 -535.46	    8.93
     69.0674	   10.00	   12.81	 -529.44	    8.94
     69.1009	    8.00	   12.84	 -531.47	    8.94
     69.1343	   19.00	   12.83	 -520.46	    8.95
     69.1677	   10.00	   12.82	 -529.45	    8.95
     69.2011	   14.00	   12.81	 -525.44	    8.96
     69.2345	   15.00	   12.81	 -524.44	    8.96
     69.2680	   19.00	   12.81	 -520.44	    8.96
     69.3014	   14.00	   12.84	 -525.47	    8.97
     69.3348	   20.00	   12.85	 -519.48	    8.97
     69.3682	   14.00	   12.87	 -525.50	    8.98
     69.4017	   12.00	   12.89	 -527.52	    8.98
     69.4351	   10.00	   12.91	 -529.54	    8.99
     69.4685	   19.00	   12.93	 -520.57	    8.99
     69.5019	   16.00	   12.96	 -523.60	    9.00
     69.5354	   12.00	   13.00	 -527.63	    9.00
     69.5688	   16.00	   13.04	 -523.67	    9.00
     69.6022	   15.00	   13.08	 -524.71	    9.01
     69.6356	   16.00	   13.13	 -523.76	    9.01
     69.6690	   14.00	   13.18	 -525.81	    9.02
     69.7025	    9.00	   13.24	 -530.87	    9.02
     69.7359	    9.00	   13.30	 -530.93	    9.03
     69.7693	   17.00	   13.37	 -523.00	    9.03
     69.8027	   14.00	   13.44	 -526.07	    9.04
     69.8362	   25.00	   13.52	 -515.15	    9.04
     69.8696	    9.00	   13.61	 -531.24	    9.04
     69.9030	   14.00	   13.70	 -526.33	    9.05
     69.9364	   17.00	   13.79	 -523.43	    9.05
     69.9698	   21.00	   13.90	 -519.53	    9.06
     70.0033	   20.00	   14.01	 -520.64	    9.06
     70.0367	   15.00	   14.13	 -525.76	    9.07
     70.0701	   12.00	   14.26	 -528.89	    9.07
     70.1035	   17.00	   14.40	 -524.03	    9.08
     70.1370	   12.00	   14.55	 -529.18	    9.08
     70.1704	   12.00	   14.70	 -529.34	    9.09
     70.2038	   19.00	   14.87	 -522.50	    9.09
     70.2372	   19.00	   15.05	 -522.69	    9.09
     70.2706	   14.00	   15.25	 -527.88	    9.10
     70.3041	   16.00	   15.46	 -526.09	    9.10
     70.3375	   17.00	   15.68	 -525.31	    9.11
     70.3709	   20.00	   15.63	 -522.26	    9.11
     70.4043	   19.00	   15.89	 -523.52	    9.12
     70.4378	   12.00	   16.17	 -530.81	    9.12
     70.4712	   21.00	   16.48	 -522.11	    9.13
     70.5046	   10.00	   16.81	 -533.44	    9.13
     70.5380	   18.00	   17.16	 -525.79	    9.14
     70.5714	   14.00	   17.40	 -530.03	    9.14
     70.6049	   12.00	   17.82	 -532.45	    9.15
     70.6383	   17.00	   18.28	 -527.91	    9.15
     70.6717	   15.00	   18.77	 -530.40	    9.15
     70.7051	   11.00	   19.31	 -534.94	    9.16
     70.7386	   12.00	   19.90	 -534.53	    9.16
     70.7720	   20.00	   20.55	 -527.18	    9.17
     70.8054	   16.00	   21.26	 -531.89	    9.17
     70.8388	   21.00	   22.04	 -527.67	    9.18
     70.8723	   25.00	   22.91	 -524.54	    9.18
     70.9057	   29.00	   23.87	 -521.50	    9.19
     70.9391	   28.00	   24.94	 -523.57	    9.19
     70.9725	   32.00	   26.14	 -520.77	    9.20
     71.0059	   24.00	   27.48	 -530.11	    9.20
     71.0394	   22.00	   29.00	 -533.63	    9.20
     71.0728	   33.00	   30.71	 -524.34	    9.21
     71.1062	   38.00	   32.66	 -521.29	    9.21
     71.1396	   33.00	   34.88	 -528.51	    9.22
     71.1730	   33.00	   37.42	 -531.06	    9.22
     71.2065	   38.00	   40.35	 -528.99	    9.23
     71.2399	   51.00	   43.73	 -519.36	    9.23
     71.2733	   49.00	   47.63	 -525.26	    9.24
     71.3067	   61.00	   52.14	 -517.78	    9.24
     71.3402	   51.00	   57.36	 -532.99	    9.25
     71.3736	   58.00	   63.38	 -532.01	    9.25
     71.4070	   58.00	   70.27	 -538.91	    9.26
     71.4404	   82.00	   78.09	 -522.72	    9.26
     71.4739	   95.00	   86.79	 -518.43	    9.26
     71.5073	  110.00	   96.22	 -512.86	    9.27
     71.5407	   84.00	  106.04	 -548.67	    9.27
     71.5741	  109.00	  115.67	 -533.31	    9.28
     71.6075	  105.00	  124.36	 -546.00	    9.28
     71.6410	  121.00	  131.31	 -536.94	    9.29
     71.6744	   98.00	  135.89	 -564.52	    9.29
     71.7078	  137.00	  137.86	 -527.49	    9.30
     71.7412	  122.00	  137.42	 -542.05	    9.30
     71.7747	  131.00	  135.01	 -530.65	    9.31
     71.8081	  123.00	  131.10	 -534.73	    9.31
     71.8415	  109.00	  125.99	 -543.63	    9.32
     71.8749	  101.00	  119.91	 -545.55	    9.32
     71.9084	  101.00	  113.07	 -538.70	    9.32
     71.9418	  100.00	  105.77	 -532.40	    9.33
     71.9752	   91.00	   98.29	 -533.92	    9.33
     72.0086	   91.00	   91.25	 -526.88	    9.34
     72.0420	   86.00	   84.86	 -525.49	    9.34
     72.0755	   87.00	   79.33	 -518.96	    9.35
     72.1089	   81.00	   74.78	 -520.42	    9.35
     72.1423	   79.00	   71.26	 -518.89	    9.36
     72.1757	   63.00	   68.69	 -532.32	    9.36
     72.2092	   59.00	   67.16	 -534.79	    9.37
     72.2426	   64.00	   66.56	 -529.19	    9.37
     72.2760	   68.00	   66.82	 -525.45	    9.38
     72.3094	   60.00	   67.80	 -534.43	    9.38
     72.3428	   68.00	   69.41	 -528.04	    9.38
     72.3763	   56.00	   71.39	 -542.02	    9.39
     72.4097	   63.00	   73.42	 -537.05	    9.39
     72.4431	   62.00	   75.13	 -539.76	    9.40
     72.4765	   59.00	   76.17	 -543.80	    9.40
     72.5100	   73.00	   76.29	 -529.92	    9.41
     72.5434	   57.00	   75.49	 -545.12	    9.41
     72.5768	   62.00	   73.85	 -538.49	    9.42
     72.6102	   64.00	   71.56	 -534.19	    9.42
     72.6436	   69.00	   68.76	 -526.39	    9.43
     72.6771	   45.00	   65.55	 -547.18	    9.43
     72.7105	   54.00	   62.00	 -534.63	    9.43
     72.7439	   51.00	   58.18	 -533.82	    9.44
     72.7773	   38.00	   54.23	 -542.86	    9.44
     72.8108	   42.00	   50.29	 -534.92	    9.45
     72.8442	   43.00	   46.50	 -530.14	    9.45
     72.8776	   49.00	   42.98	 -520.61	    9.46
     72.9110	   36.00	   39.77	 -530.40	    9.46
     72.9445	   41.00	   36.91	 -522.54	    9.47
     72.9779	   29.00	   34.39	 -532.02	    9.47
     73.0113	   28.00	   32.18	 -530.81	    9.47
     73.0447	   34.00	   30.25	 -522.89	    9.48
     73.0781	   19.00	   28.58	 -536.21	    9.48
     73.1116	   24.00	   27.12	 -529.76	    9.49
     73.1450	   24.00	   26.00	 -528.63	    9.49
     73.1784	   11.00	   24.90	 -540.53	    9.50
     73.2118	   28.00	   23.94	 -522.58	    9.50
     73.2453	   22.00	   23.11	 -527.74	    9.51
     73.2787	   23.00	   22.39	 -526.02	    9.51
     73.3121	   16.00	   21.86	 -532.49	    9.51
     73.3455	   21.00	   21.32	 -526.95	    9.52
     73.3789	   24.00	   20.93	 -523.56	    9.52
     73.4124	   21.00	   20.53	 -526.16	    9.53
     73.4458	   24.00	   20.35	 -522.98	    9.53
     73.4792	   16.00	   20.08	 -530.71	    9.54
     73.5126	   10.00	   19.91	 -536.55	    9.54
     73.5461	   19.00	   19.76	 -527.39	    9.54
     73.5795	   18.00	   19.65	 -528.29	    9.55
     73.6129	   22.00	   19.61	 -524.24	    9.55
     73.6463	   28.00	   19.62	 -518.25	    9.56
     73.6797	   19.00	   19.76	 -527.39	    9.56
     73.7132	   19.00	   19.90	 -527.53	    9.57
     73.7466	   21.00	   20.10	 -525.73	    9.57
     73.7800	   29.00	   20.38	 -518.02	    9.57
     73.8134	   20.00	   20.75	 -527.39	    9.58
     73.8469	   19.00	   21.22	 -528.85	    9.58
     73.8803	   19.00	   21.80	 -529.43	    9.59
     73.9137	   28.00	   22.77	 -521.40	    9.59
     73.9471	   21.00	   23.62	 -529.25	    9.60
     73.9805	   30.00	   24.62	 -521.25	    9.60
     74.0140	   31.00	   25.79	 -521.42	    9.60
     74.0474	   28.00	   27.14	 -525.77	    9.61
     74.0808	   18.00	   28.67	 -537.30	    9.61
     74.1142	   25.00	   30.35	 -531.98	    9.62
     74.1477	   34.00	   32.27	 -524.90	    9.62
     74.1811	   27.00	   34.05	 -533.68	    9.62
     74.2145	   42.00	   35.72	 -520.35	    9.63
     74.2479	   34.00	   37.11	 -529.74	    9.63
     74.2813	   36.00	   38.10	 -528.73	    9.64
     74.3148	   31.00	   38.60	 -534.23	    9.64
     74.3482	   38.00	   38.62	 -527.25	    9.64
     74.3816	   35.00	   38.21	 -529.84	    9.65
     74.4150	   38.00	   37.47	 -526.10	    9.65
     74.4485	   41.00	   36.46	 -522.10	    9.66
     74.4819	   20.00	   35.25	 -541.88	    9.66
     74.5153	   32.00	   33.84	 -528.48	    9.66
     74.5487	   24.00	   32.29	 -534.93	    9.67
     74.5822	   32.00	   30.65	 -525.29	    9.67
     74.6156	   28.00	   28.99	 -527.62	    9.68
     74.6490	   23.00	   27.37	 -531.00	    9.68
     74.6824	   16.00	   25.84	 -536.47	    9.68
     74.7158	   27.00	   24.44	 -524.08	    9.69
     74.7493	   28.00	   23.19	 -521.82	    9.69
     74.7827	   16.00	   22.08	 -532.71	    9.70
     74.8161	   21.00	   21.11	 -526.74	    9.70
     74.8495	   22.00	   20.26	 -524.89	    9.70
     74.8830	   18.00	   19.52	 -528.15	    9.71
     74.9164	   20.00	   18.88	 -525.51	    9.71
     74.9498	   12.00	   18.32	 -532.95	    9.72
     74.9832	   15.00	   17.83	 -529.46	    9.72
     75.0166	   15.00	   17.41	 -529.04	    9.72
     75.0501	   17.00	   17.04	 -526.67	    9.73
     75.0835	   22.00	   16.71	 -521.34	    9.73
     75.1169	   16.00	   16.43	 -527.06	    9.73
     75.1503	   17.00	   16.18	 -525.81	    9.74
     75.1838	   22.00	   15.96	 -520.59	    9.74
     75.2172	   11.00	   15.76	 -531.39	    9.75
     75.2506	   22.00	   15.59	 -520.22	    9.75
     75.2840	   18.00	   15.51	 -524.15	    9.75
     75.3175	   11.00	   15.38	 -531.01	    9.76
     75.3509	   16.00	   15.26	 -525.90	    9.76
     75.3843	   18.00	   15.16	 -523.79	    9.76
     75.4177	   14.00	   15.07	 -527.70	    9.77
     75.4511	   20.00	   15.00	 -521.63	    9.77
     75.4846	   18.00	   14.93	 -523.56	    9.77
     75.5180	   16.00	   14.91	 -525.54	    9.78
     75.5514	    9.00	   14.86	 -532.49	    9.78
     75.5848	   15.00	   14.82	 -526.45	    9.79
     75.6183	   17.00	   14.79	 -524.42	    9.79
     75.6517	   18.00	   14.76	 -523.40	    9.79
     75.6851	   14.00	   14.75	 -527.38	    9.80
     75.7185	   29.00	   14.73	 -512.37	    9.80
     75.7519	   18.00	   14.73	 -523.36	    9.80
     75.7854	   15.00	   14.73	 -526.36	    9.81
     75.8188	   27.00	   14.73	 -514.37	    9.81
     75.8522	   15.00	   14.75	 -526.38	    9.81
     75.8856	   12.00	   14.76	 -529.39	    9.82
     75.9191	   15.00	   14.78	 -526.42	    9.82
     75.9525	   16.00	   14.81	 -525.44	    9.82
     75.9859	    8.00	   14.84	 -533.47	    9.83
     76.0193	   16.00	   14.88	 -525.51	    9.83
     76.0527	   28.00	   14.92	 -513.55	    9.83
     76.0862	    8.00	   14.97	 -533.60	    9.84
     76.1196	   12.00	   15.02	 -529.65	    9.84
     76.1530	   16.00	   15.07	 -525.70	    9.84
     76.1864	   11.00	   15.13	 -530.76	    9.85
     76.2199	   17.00	   15.20	 -524.83	    9.85
     76.2533	   16.00	   15.27	 -525.90	    9.85
     76.2867	   15.00	   15.34	 -526.98	    9.85
     76.3201	   19.00	   15.43	 -523.06	    9.86
     76.3535	   14.00	   15.51	 -528.14	    9.86
     76.3870	   22.00	   15.60	 -520.24	    9.86
     76.4204	   19.00	   15.70	 -523.33	    9.87
     76.4538	   24.00	   15.81	 -518.44	    9.87
     76.4872	   15.00	   15.92	 -527.55	    9.87
     76.5207	   29.00	   16.03	 -513.66	    9.88
     76.5541	   14.00	   16.16	 -528.79	    9.88
     76.5875	   21.00	   16.29	 -521.92	    9.88
     76.6209	   19.00	   16.42	 -524.06	    9.88
     76.6544	   12.00	   16.57	 -531.20	    9.89
     76.6878	   16.00	   16.72	 -527.36	    9.89
     76.7212	   19.00	   16.89	 -524.52	    9.89
     76.7546	   20.00	   17.06	 -523.69	    9.90
     76.7880	   14.00	   17.24	 -529.87	    9.90
     76.8215	   22.00	   17.20	 -521.83	    9.90
     76.8549	   23.00	   17.40	 -521.04	    9.90
     76.8883	    8.00	   17.62	 -536.25	    9.91
     76.9217	   17.00	   17.85	 -527.48	    9.91
     76.9552	   18.00	   18.09	 -526.73	    9.91
     76.9886	   16.00	   18.35	 -528.98	    9.92
     77.0220	   14.00	   18.51	 -531.14	    9.92
     77.0554	   18.00	   18.80	 -527.43	    9.92
     77.0888	   12.00	   19.10	 -533.73	    9.92
     77.1223	   17.00	   19.43	 -529.06	    9.93
     77.1557	   20.00	   19.77	 -526.40	    9.93
     77.1891	   18.00	   20.14	 -528.77	    9.93
     77.2225	   37.00	   20.53	 -510.16	    9.93
     77.2560	   27.00	   20.95	 -520.58	    9.94
     77.2894	   24.00	   21.39	 -524.02	    9.94
     77.3228	   21.00	   21.87	 -527.50	    9.94
     77.3562	   27.00	   22.37	 -522.01	    9.94
     77.3896	   22.00	   22.92	 -527.55	    9.95
     77.4231	   25.00	   23.50	 -525.13	    9.95
     77.4565	   20.00	   24.13	 -530.76	    9.95
     77.4899	   28.00	   24.80	 -523.44	    9.95
     77.5233	   23.00	   25.53	 -529.17	    9.96
     77.5568	   29.00	   26.32	 -523.96	    9.96
     77.5902	   24.00	   27.18	 -529.81	    9.96
     77.6236	   23.00	   28.10	 -531.73	    9.96
     77.6570	   33.00	   29.01	 -522.64	    9.96
     77.6905	   33.00	   30.11	 -523.74	    9.97
     77.7239	   25.00	   31.31	 -532.94	    9.97
     77.7573	   34.00	   32.63	 -525.26	    9.97
     77.7907	   28.00	   34.08	 -532.71	    9.97
     77.8241	   41.00	   35.68	 -521.32	    9.98
     77.8576	   44.00	   37.40	 -520.04	    9.98
     77.8910	   28.00	   39.37	 -538.01	    9.98
     77.9244	   45.00	   41.57	 -523.20	    9.98
     77.9578	   43.00	   44.02	 -527.65	    9.98
     77.9912	   37.00	   46.76	 -536.39	    9.98
     78.0247	   59.00	   49.85	 -517.48	    9.99
     78.0581	   43.00	   53.33	 -536.97	    9.99
     78.0915	   50.00	   57.27	 -533.90	    9.99
     78.1249	   64.00	   61.72	 -524.35	    9.99
     78.1584	   63.00	   66.75	 -530.38	    9.99
     78.1918	   71.00	   72.44	 -528.07	   10.00
     78.2252	   72.00	   78.84	 -533.47	   10.00
     78.2586	   78.00	   86.01	 -534.64	   10.00
     78.2921	   90.00	   93.96	 -530.60	   10.00
     78.3255	  101.00	  102.66	 -528.29	   10.00
     78.3589	  103.00	  111.99	 -535.62	   10.00
     78.3923	  112.00	  121.75	 -536.38	   10.01
     78.4257	  125.00	  131.69	 -533.32	   10.01
     78.4592	  148.00	  141.49	 -520.12	   10.01
     78.4926	  140.00	  150.88	 -537.51	   10.01
     78.5260	  164.00	  159.68	 -522.31	   10.01
     78.5594	  162.00	  167.78	 -532.41	   10.01
     78.5929	  166.00	  175.11	 -535.74	   10.02
     78.6263	  190.00	  181.61	 -518.24	   10.02
     78.6597	  186.00	  187.16	 -527.79	   10.02
     78.6931	  177.00	  191.60	 -541.23	   10.02
     78.7265	  172.00	  194.77	 -549.40	   10.02
     78.7600	  216.00	  196.59	 -507.22	   10.02
     78.7934	  217.00	  197.03	 -506.66	   10.02
     78.8268	  204.00	  196.20	 -518.83	   10.02
     78.8602	  219.00	  194.35	 -501.98	   10.03
     78.8937	  211.00	  191.82	 -507.45	   10.03
     78.9271	  196.00	  189.03	 -519.66	   10.03
     78.9605	  204.00	  186.35	 -508.99	   10.03
     78.9939	  176.00	  184.10	 -534.73	   10.03
     79.0274	  181.00	  182.46	 -528.09	   10.03
     79.0608	  166.00	  181.56	 -542.19	   10.03
     79.0942	  179.00	  181.42	 -529.06	   10.03
     79.1276	  183.00	  181.99	 -525.62	   10.03
     79.1610	  175.00	  183.03	 -534.66	   10.04
     79.1945	  169.00	  184.18	 -541.82	   10.04
     79.2279	  152.00	  184.95	 -559.58	   10.04
     79.2613	  173.00	  184.77	 -538.40	   10.04
     79.2947	  171.00	  183.23	 -538.86	   10.04
     79.3282	  167.00	  180.15	 -539.78	   10.04
     79.3616	  183.00	  175.60	 -519.24	   10.04
     79.3950	  162.00	  169.87	 -534.50	   10.04
     79.4284	  146.00	  163.25	 -543.88	   10.04
     79.4618	  145.00	  155.96	 -537.60	   10.04
     79.4953	  137.00	  148.12	 -537.75	   10.04
     79.5287	  132.00	  139.75	 -534.38	   10.04
     79.5621	  124.00	  131.03	 -533.66	   10.04
     79.5955	   98.00	  122.08	 -550.72	   10.04
     79.6290	  112.00	  113.14	 -527.77	   10.04
     79.6624	  113.00	  104.45	 -518.08	   10.05
     79.6958	   75.00	   96.33	 -547.96	   10.05
     79.7292	   95.00	   88.70	 -520.33	   10.05
     79.7626	   90.00	   81.79	 -518.42	   10.05
     79.7961	   79.00	   75.59	 -523.22	   10.05
     79.8295	   70.00	   70.09	 -526.72	   10.05
     79.8629	   65.00	   65.25	 -526.88	   10.05
     79.8963	   50.00	   61.00	 -537.63	   10.05
     79.9298	   57.00	   57.35	 -526.98	   10.05
     79.9632	   54.00	   54.12	 -526.75	   10.05
     79.9966	   44.00	   51.32	 -533.95	   10.05
     80.0300	   43.00	   48.91	 -532.54	   10.05
     80.0634	   45.00	   46.84	 -528.47	   10.05
     80.0969	   42.00	   45.09	 -529.72	   10.05
     80.1303	   65.00	   43.62	 -505.25	   10.05
     80.1637	   37.00	   42.42	 -532.05	   10.05
     80.1971	   36.00	   41.47	 -532.10	   10.05
     80.2306	   39.00	   40.77	 -528.40	   10.05
     80.2640	   33.00	   40.30	 -533.93	   10.05
     80.2974	   39.00	   40.07	 -527.70	   10.05
     80.3308	   46.00	   40.08	 -520.71	   10.05
     80.3643	   34.00	   40.33	 -532.96	   10.05
     80.3977	   45.00	   40.84	 -522.47	   10.05
     80.4311	   39.00	   41.60	 -529.23	   10.05
     80.4645	   34.00	   42.61	 -535.24	   10.05
     80.4979	   30.00	   43.85	 -540.49	   10.05
     80.5314	   34.00	   45.31	 -537.94	   10.05
     80.5648	   38.00	   46.90	 -535.54	   10.04
     80.5982	   47.00	   48.55	 -528.18	   10.04
     80.6316	   51.00	   50.11	 -525.74	   10.04
     80.6651	   42.00	   51.44	 -536.07	   10.04
     80.6985	   58.00	   52.39	 -521.02	   10.04
     80.7319	   63.00	   52.87	 -516.50	   10.04
     80.7653	   39.00	   52.83	 -540.46	   10.04
     80.7987	   47.00	   52.32	 -531.95	   10.04
     80.8322	   54.00	   51.40	 -524.04	   10.04
     80.8656	   48.00	   50.18	 -528.81	   10.04
     80.8990	   47.00	   48.71	 -528.34	   10.04
     80.9324	   41.00	   47.03	 -532.66	   10.04
     80.9659	   39.00	   45.18	 -532.81	   10.04
     80.9993	   41.00	   43.17	 -528.80	   10.03
     81.0327	   31.00	   41.05	 -536.68	   10.03
     81.0661	   29.00	   38.89	 -536.52	   10.03
     81.0995	   39.00	   36.74	 -524.37	   10.03
     81.1330	   35.00	   34.68	 -526.31	   10.03
     81.1664	   33.00	   32.74	 -526.37	   10.03
     81.1998	   36.00	   30.95	 -521.58	   10.03
     81.2332	   37.00	   29.32	 -518.95	   10.03
     81.2667	   32.00	   27.85	 -522.48	   10.03
     81.3001	   16.00	   26.54	 -537.17	   10.02
     81.3335	   24.00	   25.36	 -528.00	   10.02
     81.3669	   27.00	   24.32	 -523.95	   10.02
     81.4004	   19.00	   23.38	 -531.01	   10.02
     81.4338	   18.00	   22.55	 -531.18	   10.02
     81.4672	   24.00	   21.80	 -524.43	   10.02
     81.5006	   25.00	   21.13	 -522.76	   10.02
     81.5340	   27.00	   20.53	 -520.16	   10.01
     81.5675	   20.00	   19.98	 -526.61	   10.01
     81.6009	   14.00	   19.49	 -532.12	   10.01
     81.6343	   22.00	   19.08	 -523.71	   10.01
     81.6677	   20.00	   18.67	 -525.30	   10.01
     81.7012	   18.00	   18.30	 -526.93	   10.00
     81.7346	   11.00	   17.95	 -533.58	   10.00
     81.7680	   19.00	   17.64	 -525.27	   10.00
     81.8014	   25.00	   17.35	 -518.98	   10.00
     81.8348	   29.00	   17.08	 -514.71	   10.00
     81.8683	   19.00	   16.83	 -524.47	   10.00
     81.9017	   16.00	   16.62	 -527.25	    9.99
     81.9351	   16.00	   16.43	 -527.06	    9.99
     81.9685	   18.00	   16.23	 -524.86	    9.99
     82.0020	   14.00	   16.04	 -528.68	    9.99
     82.0354	   14.00	   15.87	 -528.50	    9.98
     82.0688	   16.00	   15.71	 -526.34	    9.98
     82.1022	   18.00	   15.56	 -524.19	    9.98
     82.1356	   12.00	   15.42	 -530.05	    9.98
     82.1691	   17.00	   15.29	 -524.92	    9.97
     82.2025	   15.00	   15.18	 -526.81	    9.97
     82.2359	   19.00	   15.06	 -522.70	    9.97
     82.2693	   18.00	   14.96	 -523.59	    9.97
     82.3028	   17.00	   14.86	 -524.49	    9.96
     82.3362	   11.00	   14.77	 -530.40	    9.96
     82.3696	   10.00	   14.68	 -531.32	    9.96
     82.4030	   12.00	   14.61	 -529.24	    9.96
     82.4364	   24.00	   14.53	 -517.17	    9.95
     82.4699	    6.00	   14.47	 -535.10	    9.95
     82.5033	   21.00	   14.41	 -520.04	    9.95
     82.5367	   12.00	   14.36	 -528.99	    9.95
     82.5701	   10.00	   14.32	 -530.95	    9.94
     82.6036	   15.00	   14.28	 -525.91	    9.94
     82.6370	   12.00	   14.25	 -528.88	    9.94
     82.6704	   11.00	   14.23	 -529.86	    9.93
     82.7038	   27.00	   14.22	 -513.85	    9.93
     82.7373	   15.00	   14.21	 -525.85	    9.93
     82.7707	   12.00	   14.22	 -528.85	    9.92
     82.8041	   11.00	   14.23	 -529.87	    9.92
     82.8375	   14.00	   14.26	 -526.89	    9.92
     82.8709	   15.00	   14.29	 -525.92	    9.91
     82.9044	   15.00	   14.33	 -525.96	    9.91
     82.9378	   12.00	   14.38	 -529.01	    9.91
     82.9712	    9.00	   14.43	 -532.06	    9.90
     83.0046	   15.00	   14.48	 -526.11	    9.90
     83.0381	   11.00	   14.52	 -530.16	    9.90
     83.0715	   11.00	   14.56	 -530.19	    9.89
     83.1049	   24.00	   14.57	 -517.21	    9.89
     83.1383	   12.00	   14.58	 -529.21	    9.89
     83.1717	    8.00	   14.56	 -533.20	    9.88
     83.2052	    6.00	   14.54	 -535.17	    9.88
     83.2386	   12.00	   14.51	 -529.14	    9.87
     83.2720	    9.00	   14.47	 -532.10	    9.87
     83.3054	   16.00	   14.42	 -525.05	    9.87
     83.3389	   20.00	   14.37	 -521.00	    9.86
     83.3723	   12.00	   14.32	 -528.95	    9.86
     83.4057	    8.00	   14.27	 -532.90	    9.85
     83.4391	   10.00	   14.21	 -530.84	    9.85
     83.4725	   14.00	   14.16	 -526.79	    9.85
     83.5060	   14.00	   14.12	 -526.75	    9.84
     83.5394	   10.00	   14.08	 -530.71	    9.84
     83.5728	   12.00	   14.05	 -528.68	    9.83
     83.6062	   10.00	   14.03	 -530.66	    9.83
     83.6397	    6.00	   14.02	 -534.65	    9.82
     83.6731	   15.00	   14.01	 -525.64	    9.82
     83.7065	   11.00	   14.02	 -529.65	    9.82
     83.7399	   12.00	   14.03	 -528.66	    9.81
     83.7734	   18.00	   14.05	 -522.68	    9.81
     83.8068	   17.00	   14.08	 -523.71	    9.80
     83.8402	   15.00	   14.11	 -525.74	    9.80
     83.8736	   16.00	   14.02	 -524.65	    9.79
     83.9070	   12.00	   14.07	 -528.70	    9.79
     83.9405	    9.00	   14.13	 -531.76	    9.78
     83.9739	    9.00	   14.20	 -531.83	    9.78
     84.0073	   14.00	   14.28	 -526.91	    9.77
     84.0407	   16.00	   14.27	 -524.90	    9.77
     84.0742	   12.00	   14.37	 -529.00	    9.76
     84.1076	    8.00	   14.42	 -533.05	    9.76
     84.1410	   14.00	   14.55	 -527.18	    9.75
     84.1744	   12.00	   14.69	 -529.32	    9.75
     84.2078	   14.00	   14.70	 -527.33	    9.74
     84.2413	    9.00	   14.88	 -532.51	    9.74
     84.2747	   16.00	   15.02	 -525.65	    9.73
     84.3081	    8.00	   15.24	 -533.87	    9.72
     84.3415	   15.00	   15.48	 -527.11	    9.72
     84.3750	   12.00	   15.74	 -530.37	    9.71
     84.4084	   14.00	   16.03	 -528.66	    9.71
     84.4418	   18.00	   16.28	 -524.91	    9.70
     84.4752	   20.00	   16.64	 -523.27	    9.70
     84.5086	   14.00	   17.04	 -529.67	    9.69
     84.5421	   14.00	   17.48	 -530.11	    9.69
     84.5755	   25.00	   17.97	 -519.60	    9.68
     84.6089	   15.00	   18.52	 -530.15	    9.67
     84.6423	   18.00	   19.14	 -527.77	    9.67
     84.6758	   16.00	   19.83	 -530.46	    9.66
     84.7092	   14.00	   20.34	 -532.97	    9.66
     84.7426	   16.00	   21.21	 -531.85	    9.65
     84.7760	   28.00	   22.20	 -520.83	    9.64
     84.8094	   34.00	   23.32	 -515.95	    9.64
     84.8429	   25.00	   24.58	 -526.21	    9.63
     84.8763	   22.00	   26.00	 -530.63	    9.62
     84.9097	   24.00	   27.60	 -530.24	    9.62
     84.9431	   27.00	   29.28	 -528.91	    9.61
     84.9766	   34.00	   31.31	 -523.94	    9.60
     85.0100	   38.00	   33.57	 -522.20	    9.60
     85.0434	   36.00	   36.07	 -526.70	    9.59
     85.0768	   39.00	   38.78	 -526.41	    9.59
     85.1103	   46.00	   41.67	 -522.30	    9.58
     85.1437	   42.00	   44.66	 -529.29	    9.57
     85.1771	   45.00	   47.65	 -529.28	    9.56
     85.2105	   44.00	   50.47	 -533.11	    9.56
     85.2439	   44.00	   52.97	 -535.60	    9.55
     85.2774	   58.00	   54.96	 -523.60	    9.54
     85.3108	   47.00	   56.33	 -535.97	    9.54
     85.3442	   73.00	   57.03	 -510.66	    9.53
     85.3776	   58.00	   57.07	 -525.70	    9.52
     85.4111	   42.00	   56.55	 -541.18	    9.52
     85.4445	   44.00	   55.57	 -538.20	    9.51
     85.4779	   51.00	   54.23	 -529.86	    9.50
     85.5113	   46.00	   52.60	 -533.23	    9.49
     85.5447	   47.00	   50.71	 -530.34	    9.49
     85.5782	   50.00	   48.58	 -525.21	    9.48
     85.6116	   47.00	   46.25	 -525.88	    9.47
     85.6450	   42.00	   43.78	 -528.41	    9.46
     85.6784	   35.00	   41.23	 -532.87	    9.46
     85.7119	   28.00	   38.69	 -537.33	    9.45
     85.7453	   35.00	   36.24	 -527.87	    9.44
     85.7787	   45.00	   33.91	 -515.54	    9.43
     85.8121	   23.00	   31.75	 -535.39	    9.42
     85.8456	   21.00	   29.79	 -535.42	    9.42
     85.8790	   15.00	   28.02	 -539.65	    9.41
     85.9124	   18.00	   26.43	 -535.06	    9.40
     85.9458	   23.00	   25.18	 -528.82	    9.39
     85.9792	   17.00	   23.94	 -533.57	    9.38
     86.0127	   29.00	   22.84	 -520.47	    9.38
     86.0461	   17.00	   21.86	 -531.50	    9.37
     86.0795	   21.00	   21.01	 -526.64	    9.36
     86.1129	   14.00	   20.31	 -532.94	    9.35
     86.1464	   27.00	   19.64	 -519.28	    9.34
     86.1798	   23.00	   18.99	 -522.62	    9.33
     86.2132	   20.00	   18.48	 -525.11	    9.32
     86.2466	   15.00	   18.12	 -529.75	    9.32
     86.2800	   22.00	   17.73	 -522.36	    9.31
     86.3135	   25.00	   17.40	 -519.03	    9.30
     86.3469	   18.00	   17.11	 -525.74	    9.29
     86.3803	   18.00	   16.89	 -525.52	    9.28
     86.4137	   11.00	   16.69	 -532.32	    9.27
     86.4472	    9.00	   16.49	 -534.12	    9.26
     86.4806	   18.00	   16.36	 -524.99	    9.25
     86.5140	   10.00	   16.26	 -532.90	    9.24
     86.5474	   10.00	   16.30	 -532.93	    9.24
     86.5808	   16.00	   16.28	 -526.91	    9.23
     86.6143	   18.00	   16.29	 -524.92	    9.22
     86.6477	   15.00	   16.34	 -527.97	    9.21
     86.6811	   11.00	   16.42	 -532.05	    9.20
     86.7145	   14.00	   16.54	 -529.17	    9.19
     86.7480	   10.00	   16.71	 -533.34	    9.18
     86.7814	   10.00	   16.92	 -533.55	    9.17
     86.8148	   12.00	   17.23	 -531.86	    9.16
     86.8482	   14.00	   17.54	 -530.18	    9.15
     86.8816	    9.00	   17.92	 -535.55	    9.14
     86.9151	   29.00	   18.36	 -515.99	    9.13
     86.9485	   20.00	   18.87	 -525.51	    9.12
     86.9819	   22.00	   19.47	 -524.10	    9.11
     87.0153	   11.00	   20.14	 -535.77	    9.10
     87.0488	   22.00	   20.91	 -525.54	    9.09
     87.0822	   14.00	   21.76	 -534.39	    9.08
     87.1156	   22.00	   22.70	 -527.33	    9.07
     87.1490	   25.00	   23.71	 -525.34	    9.06
     87.1824	   25.00	   24.78	 -526.41	    9.05
     87.2159	   21.00	   25.86	 -531.50	    9.04
     87.2493	   29.00	   26.93	 -524.56	    9.03
     87.2827	   31.00	   27.93	 -523.56	    9.02
     87.3161	   29.00	   28.82	 -526.45	    9.01
     87.3496	   45.00	   29.56	 -511.19	    9.00
     87.3830	   27.00	   30.13	 -529.76	    8.99
     87.4164	   19.00	   30.54	 -538.17	    8.97
     87.4498	   27.00	   30.81	 -530.44	    8.96
     87.4833	   42.00	   30.96	 -515.59	    8.95
     87.5167	   38.00	   31.00	 -519.64	    8.94
     87.5501	   32.00	   30.94	 -525.57	    8.93
     87.5835	   22.00	   30.75	 -535.38	    8.92
     87.6169	   20.00	   30.43	 -537.06	    8.91
     87.6504	   29.00	   29.95	 -527.58	    8.90
     87.6838	   23.00	   29.32	 -532.95	    8.89
     87.7172	   32.00	   28.55	 -523.18	    8.87
     87.7506	   36.00	   27.69	 -518.32	    8.86
     87.7841	   22.00	   26.76	 -531.39	    8.85
     87.8175	   18.00	   25.81	 -534.44	    8.84
     87.8509	   29.00	   24.85	 -522.48	    8.83
     87.8843	   12.00	   23.97	 -538.60	    8.82
     87.9177	   25.00	   23.04	 -524.67	    8.80
     87.9512	   24.00	   22.14	 -524.77	    8.79
     87.9846	   29.00	   21.27	 -518.90	    8.78
     88.0180	   23.00	   20.42	 -524.06	    8.77
     88.0514	   12.00	   19.62	 -534.25	    8.76
     88.0849	   18.00	   18.86	 -527.49	    8.74
     88.1183	   24.00	   18.15	 -520.78	    8.73
     88.1517	   15.00	   17.50	 -529.13	    8.72
     88.1851	   22.00	   16.95	 -521.58	    8.71
     88.2186	   18.00	   16.40	 -525.03	    8.70
     88.2520	   17.00	   15.91	 -525.54	    8.68
     88.2854	   20.00	   15.47	 -522.10	    8.67
     88.3188	   19.00	   15.07	 -522.71	    8.66
     88.3522	   10.00	   14.72	 -531.35	    8.65
     88.3857	   11.00	   14.40	 -530.03	    8.63
     88.4191	   24.00	   14.11	 -516.74	    8.62
     88.4525	   15.00	   13.85	 -525.49	    8.61
     88.4859	   14.00	   13.63	 -526.26	    8.59
     88.5193	   15.00	   13.42	 -525.06	    8.58
     88.5528	    7.00	   13.23	 -532.87	    8.57
     88.5862	    7.00	   13.07	 -532.70	    8.56
     88.6196	   15.00	   12.91	 -524.54	    8.54
     88.6530	   12.00	   12.77	 -527.40	    8.53
     88.6865	   17.00	   12.64	 -522.28	    8.52
     88.7199	   14.00	   12.53	 -525.16	    8.50
     88.7533	   14.00	   12.43	 -525.06	    8.49
     88.7867	    9.00	   12.33	 -529.97	    8.47
     88.8202	    8.00	   12.25	 -530.88	    8.46
     88.8536	   15.00	   12.17	 -523.80	    8.45
     88.8870	   15.00	   12.10	 -523.73	    8.43
     88.9204	    7.00	   12.04	 -531.67	    8.42
     88.9538	    9.00	   11.98	 -529.62	    8.41
     88.9873	   15.00	   11.93	 -523.57	    8.39
     89.0207	   18.00	   11.89	 -520.52	    8.38
     89.0541	   10.00	   11.85	 -528.48	    8.36
     89.0875	   14.00	   11.82	 -524.45	    8.35
     89.1210	   16.00	   11.79	 -522.42	    8.34
     89.1544	   10.00	   11.76	 -528.39	    8.32
     89.1878	   12.00	   11.74	 -526.37	    8.31
     89.2212	   16.00	   11.72	 -522.36	    8.29
     89.2546	    7.00	   11.71	 -531.34	    8.28
     89.2881	   12.00	   11.70	 -526.33	    8.26
     89.3215	   11.00	   11.70	 -527.33	    8.25
     89.3549	    8.00	   11.70	 -530.33	    8.23
     89.3883	   15.00	   11.70	 -523.33	    8.22
     89.4218	   19.00	   11.70	 -519.34	    8.20
     89.4552	   14.00	   11.71	 -524.35	    8.19
     89.4886	   10.00	   11.73	 -528.36	    8.17
     89.5220	    9.00	   11.74	 -529.37	    8.16
     89.5555	   21.00	   11.76	 -517.40	    8.14
     89.5889	    8.00	   11.79	 -530.42	    8.13
     89.6223	   12.00	   11.81	 -526.45	    8.11
     89.6557	   16.00	   11.85	 -522.48	    8.10
     89.6891	   11.00	   11.88	 -527.51	    8.08
     89.7226	    7.00	   11.92	 -531.55	    8.07
     89.7560	   16.00	   11.96	 -522.59	    8.05
     89.7894	   12.00	   12.01	 -526.64	    8.04
     89.8228	   14.00	   12.06	 -524.69	    8.02
     89.8563	   10.00	   12.12	 -528.75	    8.00
     89.8897	   17.00	   12.18	 -521.81	    7.99
     89.9231	   12.00	   12.24	 -526.87	    7.97
     89.9565	   18.00	   12.31	 -520.95	    7.96
     89.9899	   12.00	   12.39	 -527.02	    7.94
     90.0234	    9.00	   12.47	 -530.10	    7.92
     90.0568	   14.00	   12.56	 -525.19	    7.91
     90.0902	    8.00	   12.65	 -531.28	    7.89
     90.1236	   18.00	   12.75	 -521.38	    7.87
     90.1571	    9.00	   12.86	 -530.49	    7.86
     90.1905	    9.00	   12.97	 -530.60	    7.84
     90.2239	   15.00	   13.09	 -524.72	    7.82
     90.2573	   23.00	   13.22	 -516.85	    7.81
     90.2907	   12.00	   13.36	 -527.99	    7.79
     90.3242	    9.00	   13.51	 -531.14	    7.77
     90.3576	   10.00	   13.67	 -530.30	    7.76
     90.3910	   11.00	   13.84	 -529.47	    7.74
     90.4244	   19.00	   14.02	 -521.65	    7.72
     90.4579	   16.00	   14.21	 -524.84	    7.71
     90.4913	    8.00	   14.42	 -533.05	    7.69
     90.5247	   12.00	   14.64	 -529.27	    7.67
     90.5581	   17.00	   14.87	 -524.51	    7.65
     90.5915	   20.00	   15.13	 -521.76	    7.64
     90.6250	   15.00	   15.40	 -527.03	    7.62
     90.6584	   20.00	   15.69	 -522.32	    7.60
     90.6918	   16.00	   16.00	 -526.64	    7.58
     90.7252	   19.00	   16.34	 -523.97	    7.57
     90.7587	   19.00	   16.70	 -524.34	    7.55
     90.7921	   16.00	   17.10	 -527.73	    7.53
     90.8255	   17.00	   17.52	 -527.15	    7.51
     90.8589	   15.00	   17.98	 -529.61	    7.49
     90.8923	   16.00	   18.47	 -529.10	    7.48
     90.9258	   17.00	   19.01	 -528.64	    7.46
     90.9592	   20.00	   19.48	 -526.11	    7.44
     90.9926	   23.00	   20.12	 -523.75	    7.42
     91.0260	   20.00	   20.81	 -527.44	    7.40
     91.0595	   18.00	   21.57	 -530.20	    7.38
     91.0929	   18.00	   22.40	 -531.03	    7.37
     91.1263	   19.00	   23.31	 -530.94	    7.35
     91.1597	   20.00	   24.31	 -530.94	    7.33
     91.1932	   24.00	   25.42	 -528.05	    7.31
     91.2266	   23.00	   26.58	 -530.21	    7.29
     91.2600	   25.00	   27.93	 -529.56	    7.27
     91.2934	   23.00	   29.42	 -533.05	    7.25
     91.3268	   39.00	   31.08	 -518.71	    7.23
     91.3603	   39.00	   32.93	 -520.56	    7.21
     91.3937	   41.00	   34.98	 -520.61	    7.19
     91.4271	   35.00	   37.26	 -528.89	    7.17
     91.4605	   38.00	   39.80	 -528.43	    7.16
     91.4940	   52.00	   42.62	 -517.25	    7.14
     91.5274	   49.00	   45.75	 -523.39	    7.12
     91.5608	   56.00	   49.21	 -519.85	    7.10
     91.5942	   57.00	   53.02	 -522.65	    7.08
     91.6276	   70.00	   57.16	 -513.79	    7.06
     91.6611	   55.00	   61.63	 -533.26	    7.04
     91.6945	   69.00	   66.37	 -524.00	    7.02
     91.7279	   88.00	   71.30	 -509.93	    7.00
     91.7613	   68.00	   76.31	 -534.94	    6.98
     91.7948	   69.00	   81.22	 -538.85	    6.96
     91.8282	   81.00	   85.86	 -531.50	    6.94
     91.8616	   76.00	   90.05	 -540.68	    6.91
     91.8950	   89.00	   93.62	 -531.25	    6.89
     91.9285	   64.00	   96.48	 -559.11	    6.87
     91.9619	   96.00	   98.59	 -529.22	    6.85
     91.9953	  102.00	   99.97	 -524.60	    6.83
     92.0287	   96.00	  100.71	 -531.34	    6.81
     92.0621	  100.00	  101.07	 -527.71	    6.79
     92.0956	   87.00	  100.78	 -540.41	    6.77
     92.1290	   83.00	  100.10	 -543.73	    6.75
     92.1624	   98.00	   99.09	 -527.72	    6.73
     92.1958	   94.00	   97.82	 -530.45	    6.71
     92.2293	   99.00	   96.34	 -523.97	    6.68
     92.2627	   96.00	   94.72	 -525.35	    6.66
     92.2961	   94.00	   93.01	 -525.64	    6.64
     92.3295	   90.00	   91.26	 -527.89	    6.62
     92.3629	   81.00	   89.59	 -535.22	    6.60
     92.3964	   78.00	   87.81	 -536.44	    6.58
     92.4298	   72.00	   85.99	 -540.62	    6.55
     92.4632	   69.00	   84.07	 -541.71	    6.53
     92.4966	   71.00	   82.03	 -537.66	    6.51
     92.5301	   88.00	   79.80	 -518.44	    6.49
     92.5635	   68.00	   77.40	 -536.03	    6.47
     92.5969	   72.00	   74.84	 -529.47	    6.44
     92.6303	   65.00	   72.16	 -533.79	    6.42
     92.6637	   66.00	   69.42	 -530.05	    6.40
     92.6972	   47.00	   66.65	 -546.29	    6.38
     92.7306	   64.00	   63.90	 -526.53	    6.35
     92.7640	   55.00	   61.16	 -532.79	    6.33
     92.7974	   47.00	   58.57	 -538.20	    6.31
     92.8309	   42.00	   55.85	 -540.49	    6.28
     92.8643	   33.00	   53.15	 -546.78	    6.26
     92.8977	   43.00	   50.47	 -534.10	    6.24
     92.9311	   39.00	   47.85	 -535.48	    6.22
     92.9645	   45.00	   45.32	 -526.96	    6.19
     92.9980	   49.00	   42.92	 -520.55	    6.17
     93.0314	   35.00	   40.67	 -532.30	    6.15
     93.0648	   47.00	   38.59	 -518.23	    6.12
     93.0982	   36.00	   36.74	 -527.37	    6.10
     93.1317	   43.00	   35.04	 -518.67	    6.07
     93.1651	   38.00	   33.53	 -522.17	    6.05
     93.1985	   43.00	   32.21	 -515.84	    6.03
     93.2319	   45.00	   31.07	 -512.70	    6.00
     93.2654	   43.00	   30.09	 -513.72	    5.98
     93.2988	   28.00	   29.28	 -527.91	    5.95
     93.3322	   29.00	   28.62	 -526.25	    5.93
     93.3656	   28.00	   28.09	 -526.72	    5.91
     93.3990	   36.00	   27.73	 -518.36	    5.88
     93.4325	   39.00	   27.48	 -515.12	    5.86
     93.4659	   31.00	   27.40	 -523.03	    5.83
     93.4993	   32.00	   27.46	 -522.09	    5.81
     93.5327	   30.00	   27.65	 -524.29	    5.78
     93.5662	   31.00	   27.99	 -523.62	    5.76
     93.5996	   28.00	   28.47	 -527.10	    5.73
     93.6330	   21.00	   29.08	 -534.71	    5.71
     93.6664	   33.00	   29.82	 -523.45	    5.68
     93.6998	   25.00	   30.67	 -532.30	    5.66
     93.7333	   33.00	   31.63	 -525.26	    5.63
     93.7667	   39.00	   32.64	 -520.28	    5.61
     93.8001	   39.00	   33.68	 -521.32	    5.58
     93.8335	   30.00	   34.70	 -531.33	    5.56
     93.8670	   21.00	   35.63	 -541.26	    5.53
     93.9004	   28.00	   36.42	 -535.05	    5.51
     93.9338	   32.00	   37.04	 -531.67	    5.48
     93.9672	   30.00	   37.46	 -534.09	    5.45
     94.0006	   37.00	   37.67	 -527.31	    5.43
     94.0341	   36.00	   37.71	 -528.34	    5.40
     94.0675	   41.00	   37.58	 -523.21	    5.38
     94.1009	   25.00	   37.32	 -538.95	    5.35
     94.1343	   24.00	   36.93	 -539.56	    5.32
     94.1678	   38.00	   36.41	 -525.05	    5.30
     94.2012	   29.00	   35.77	 -533.41	    5.27
     94.2346	   27.00	   34.99	 -534.63	    5.24
     94.2680	   34.00	   34.07	 -526.70	    5.22
     94.3015	   28.00	   33.02	 -531.65	    5.19
     94.3349	   24.00	   31.86	 -534.50	    5.16
     94.3683	   37.00	   30.63	 -520.26	    5.14
     94.4017	   29.00	   29.35	 -526.99	    5.11
     94.4351	   22.00	   28.09	 -532.72	    5.08
     94.4686	   28.00	   26.82	 -525.45	    5.06
     94.5020	   25.00	   25.59	 -527.22	    5.03
     94.5354	   37.00	   24.40	 -514.03	    5.00
     94.5688	   30.00	   23.25	 -519.89	    4.97
     94.6022	   25.00	   22.16	 -523.79	    4.95
     94.6357	   27.00	   21.12	 -520.75	    4.92
     94.6691	   21.00	   20.13	 -525.76	    4.89
     94.7025	   21.00	   19.20	 -524.83	    4.86
     94.7359	   19.00	   18.34	 -525.97	    4.83
     94.7694	   17.00	   17.53	 -527.16	    4.81
     94.8028	   19.00	   16.78	 -524.41	    4.78
     94.8362	   24.00	   16.09	 -518.72	    4.75
     94.8696	   18.00	   15.46	 -524.09	    4.72
     94.9031	   20.00	   14.88	 -521.51	    4.69
     94.9365	   21.00	   14.35	 -519.98	    4.66
     94.9699	   15.00	   13.87	 -525.50	    4.64
     95.0033	   17.00	   13.43	 -523.06	    4.61
     95.0367	   14.00	   13.02	 -525.65	    4.58
     95.0702	   12.00	   12.65	 -527.28	    4.55
     95.1036	   15.00	   12.31	 -523.94	    4.52
     95.1370	   21.00	   12.00	 -517.63	    4.49
     95.1704	   21.00	   11.72	 -517.35	    4.46
     95.2039	    8.00	   11.45	 -530.08	    4.43
     95.2373	   18.00	   11.21	 -519.84	    4.40
     95.2707	   16.00	   10.99	 -521.62	    4.37
     95.3041	   19.00	   10.78	 -518.41	    4.34
     95.3375	   10.00	   10.59	 -527.22	    4.31
     95.3710	   19.00	   10.41	 -518.04	    4.28
     95.4044	   19.00	   10.25	 -517.88	    4.25
     95.4378	   11.00	   10.09	 -525.72	    4.22
     95.4712	   19.00	    9.95	 -517.58	    4.19
     95.5047	   10.00	    9.82	 -526.45	    4.16
     95.5381	   19.00	    9.70	 -517.33	    4.13
     95.5715	   15.00	    9.59	 -521.22	    4.10
     95.6049	   16.00	    9.48	 -520.11	    4.07
     95.6384	   11.00	    9.38	 -525.02	    4.04
     95.6718	   10.00	    9.30	 -525.93	    4.01
     95.7052	   18.00	    9.21	 -517.85	    3.98
     95.7386	   21.00	    9.14	 -514.77	    3.95
     95.7720	   10.00	    9.07	 -525.70	    3.92
     95.8055	   16.00	    9.01	 -519.64	    3.89
     95.8389	   17.00	    8.95	 -518.58	    3.86
     95.8723	   16.00	    8.90	 -519.53	    3.83
     95.9057	   10.00	    8.85	 -525.48	    3.80
     95.9392	   14.00	    8.81	 -521.44	    3.76
     95.9726	   16.00	    8.78	 -519.41	    3.73
     96.0060	    6.00	    8.75	 -529.38	    3.70
     96.0394	   11.00	    8.72	 -524.35	    3.67
     96.0728	    9.00	    8.70	 -526.33	    3.64
     96.1063	   18.00	    8.69	 -517.32	    3.61
     96.1397	   11.00	    8.68	 -524.31	    3.57
     96.1731	   14.00	    8.67	 -521.30	    3.54
     96.2065	   10.00	    8.67	 -525.31	    3.51
     96.2400	   11.00	    8.68	 -524.31	    3.48
     96.2734	   11.00	    8.69	 -524.32	    3.44
     96.3068	    9.00	    8.71	 -526.34	    3.41
     96.3402	   11.00	    8.73	 -524.36	    3.38
     96.3736	   16.00	    8.76	 -519.39	    3.35
     96.4071	   12.00	    8.79	 -523.42	    3.31
     96.4405	   10.00	    8.83	 -525.46	    3.28
     96.4739	    5.00	    8.87	 -530.50	    3.25
     96.5073	   11.00	    8.92	 -524.56	    3.21
     96.5408	   16.00	    8.98	 -519.61	    3.18
     96.5742	   19.00	    9.05	 -516.68	    3.15
     96.6076	   19.00	    9.12	 -516.75	    3.11
     96.6410	    9.00	    9.20	 -526.83	    3.08
     96.6745	   12.00	    9.29	 -523.92	    3.05
     96.7079	   15.00	    9.39	 -521.02	    3.01
     96.7413	    7.00	    9.49	 -529.12	    2.98
     96.7747	   11.00	    9.61	 -525.24	    2.95
     96.8081	   17.00	    9.74	 -519.37	    2.91
     96.8416	   23.00	    9.87	 -513.51	    2.88
     96.8750	   21.00	   10.02	 -515.66	    2.84
     96.9084	   16.00	   10.19	 -520.82	    2.81
     96.9418	   18.00	   10.36	 -518.99	    2.78
     96.9753	   11.00	   10.55	 -526.19	    2.74
     97.0087	   18.00	   10.76	 -519.39	    2.71
     97.0421	   23.00	   10.99	 -514.62	    2.67
     97.0755	   14.00	   11.23	 -523.86	    2.64
     97.1089	    8.00	   11.49	 -530.12	    2.60
     97.1424	   22.00	   11.78	 -516.41	    2.57
     97.1758	   21.00	   12.08	 -517.72	    2.53
     97.2092	   23.00	   12.42	 -516.05	    2.50
     97.2426	   19.00	   12.78	 -520.41	    2.46
     97.2761	   15.00	   13.17	 -524.81	    2.43
     97.3095	   17.00	   13.60	 -523.23	    2.39
     97.3429	   19.00	   14.07	 -521.70	    2.35
     97.3763	   21.00	   14.57	 -520.20	    2.32
     97.4097	   22.00	   15.12	 -519.75	    2.28
     97.4432	   24.00	   15.72	 -518.35	    2.25
     97.4766	   22.00	   16.38	 -521.01	    2.21
     97.5100	   28.00	   17.10	 -515.73	    2.18
     97.5434	   20.00	   17.88	 -524.52	    2.14
     97.5769	    9.00	   18.75	 -536.38	    2.10
     97.6103	   23.00	   19.69	 -523.33	    2.07
     97.6437	   20.00	   20.74	 -527.37	    2.03
     97.6771	   35.00	   21.88	 -513.52	    1.99
     97.7105	   32.00	   23.15	 -517.78	    1.96
     97.7440	   32.00	   24.55	 -519.18	    1.92
     97.7774	   24.00	   26.09	 -528.72	    1.88
     97.8108	   37.00	   27.79	 -517.42	    1.85
     97.8442	   24.00	   29.66	 -532.29	    1.81
     97.8777	   31.00	   31.57	 -527.20	    1.77
     97.9111	   45.00	   33.85	 -515.48	    1.73
     97.9445	   48.00	   36.35	 -514.98	    1.70
     97.9779	   45.00	   39.09	 -520.72	    1.66
     98.0114	   61.00	   42.07	 -507.70	    1.62
     98.0448	   48.00	   45.24	 -523.87	    1.58
     98.0782	   60.00	   48.68	 -515.31	    1.54
     98.1116	   49.00	   52.31	 -529.94	    1.51
     98.1450	   70.00	   56.07	 -512.70	    1.47
     98.1785	   78.00	   59.79	 -508.43	    1.43
     98.2119	   49.00	   63.55	 -541.18	    1.39
     98.2453	   69.00	   67.12	 -524.75	    1.35
     98.2787	   68.00	   70.37	 -529.00	    1.31
     98.3122	   82.00	   73.17	 -517.81	    1.28
     98.3456	   63.00	   75.41	 -539.05	    1.24
     98.3790	   71.00	   77.09	 -532.72	    1.20
     98.4124	   76.00	   78.18	 -528.81	    1.16
     98.4458	   84.00	   78.73	 -521.36	    1.12
     98.4793	   64.00	   78.95	 -541.59	    1.08
     98.5127	   87.00	   78.62	 -518.25	    1.04
     98.5461	   92.00	   78.13	 -512.76	    1.00
     98.5795	   74.00	   77.46	 -530.09	    0.96
     98.6130	   71.00	   76.65	 -532.28	    0.92
     98.6464	   74.00	   75.73	 -528.36	    0.88
     98.6798	   74.00	   74.72	 -527.36	    0.84
     98.7132	   70.00	   73.66	 -530.29	    0.80
     98.7467	   91.00	   72.58	 -508.21	    0.76
     98.7801	   61.00	   71.52	 -537.15	    0.72
     98.8135	   85.00	   70.61	 -512.25	    0.68
     98.8469	   76.00	   69.74	 -520.38	    0.64
     98.8803	   72.00	   69.11	 -523.74	    0.60
     98.9138	   82.00	   68.67	 -513.31	    0.56
     98.9472	   74.00	   68.43	 -521.06	    0.52
     98.9806	   64.00	   68.34	 -530.97	    0.48
     99.0140	   76.00	   68.33	 -518.97	    0.44
     99.0474	   85.00	   68.32	 -509.96	    0.40
     99.0809	   71.00	   68.35	 -523.98	    0.36
     99.1143	   81.00	   68.05	 -513.68	    0.32
     99.1477	   70.00	   67.48	 -524.12	    0.27
     99.1811	   59.00	   66.62	 -534.25	    0.23
     99.2146	   56.00	   65.45	 -536.08	    0.19
     99.2480	   55.00	   64.00	 -535.63	    0.15
     99.2814	   63.00	   62.33	 -525.96	    0.11
     99.3148	   65.00	   60.48	 -522.11	    0.07
     99.3483	   60.00	   58.50	 -525.13	    0.02
     99.3817	   60.00	   56.43	 -523.06	    0.00
     99.4151	   38.00	   54.36	 -542.99	    0.00
     99.4485	   64.00	   52.13	 -514.77	    0.00
     99.4819	   62.00	   49.82	 -514.45	    0.00
     99.5154	   61.00	   47.43	 -513.06	    0.00
     99.5488	   70.00	   44.97	 -501.60	    0.00
     99.5822	   54.00	   42.48	 -515.11	    0.00
     99.6156	   65.00	   39.99	 -501.62	    0.00
     99.6491	   50.00	   37.53	 -514.17	    0.00
     99.6825	   42.00	   35.15	 -519.79	    0.00
     99.7159	   34.00	   32.88	 -525.51	    0.00
     99.7493	   36.00	   30.73	 -521.37	    0.00
     99.7827	   49.00	   28.73	 -506.36	    0.00
     99.8162	   37.00	   26.86	 -516.50	    0.00
     99.8496	   31.00	   25.15	 -520.78	    0.00
     99.8830	   34.00	   23.58	 -516.21	    0.00
     99.9164	   41.00	   22.14	 -507.78	    0.00
     99.9499	   37.00	   20.84	 -510.47	    0.00
     99.9833	   28.00	   19.95	 -518.58	    0.00
     15.9818	        	        	        	        	       0	(  0  1  0)	  0  1 :  1
     16.0212	        	        	        	        	       0	(  0  1  0)	  0  2 :  1
     27.8134	        	        	        	        	       0	(  1  1  0)	  0  1 :  1
     27.8830	        	        	        	        	       0	(  1  1  0)	  0  2 :  1
     28.8088	        	        	        	        	       0	(  0  1  1)	  0  1 :  1
     28.8810	        	        	        	        	       0	(  0  1  1)	  0  2 :  1
     32.2133	        	        	        	        	       0	(  0  2  0)	  0  1 :  1
     32.2945	        	        	        	        	       0	(  0  2  0)	  0  2 :  1
     36.9228	        	        	        	        	       0	(  1  1  1)	  0  1 :  1
     37.0168	        	        	        	        	       0	(  1  1  1)	  0  2 :  1
     40.4417	        	        	        	        	       0	(  0  2  1)	  0  1 :  1
     40.5454	        	        	        	        	       0	(  0  2  1)	  0  2 :  1
     43.0359	        	        	        	        	       0	(  1  2  0)	  0  1 :  1
     43.0359	        	        	        	        	       0	(  2  1  0)	  0  1 :  1
     43.1469	        	        	        	        	       0	(  1  2  0)	  0  2 :  1
     43.1469	        	        	        	        	       0	(  2  1  0)	  0  2 :  1
     48.7275	        	        	        	        	       0	(  0  0  2)	  0  1 :  1
     48.8550	        	        	        	        	       0	(  0  0  2)	  0  2 :  1
     49.1412	        	        	        	        	       0	(  0  3  0)	  0  1 :  1
     49.2699	        	        	        	        	       0	(  0  3  0)	  0  2 :  1
     49.7617	        	        	        	        	       0	(  1  2  1)	  0  1 :  1
     49.7617	        	        	        	        	       0	(  2  1  1)	  0  1 :  1
     49.8923	        	        	        	        	       0	(  1  2  1)	  0  2 :  1
     49.8923	        	        	        	        	       0	(  2  1  1)	  0  2 :  1
     51.5901	        	        	        	        	       0	(  0  1  2)	  0  1 :  1
     51.7262	        	        	        	        	       0	(  0  1  2)	  0  2 :  1
     55.3014	        	        	        	        	       0	(  0  3  1)	  0  1 :  1
     55.4489	        	        	        	        	       0	(  0  3  1)	  0  2 :  1
     57.0041	        	        	        	        	       0	(  1  1  2)	  0  1 :  1
     57.1570	        	        	        	        	       0	(  1  1  2)	  0  2 :  1
     57.3751	        	        	        	        	       0	(  2  2  0)	  0  1 :  1
     57.5292	        	        	        	        	       0	(  2  2  0)	  0  2 :  1
     59.5868	        	        	        	        	       0	(  0  2  2)	  0  1 :  1
     59.7481	        	        	        	        	       0	(  0  2  2)	  0  2 :  1
     59.9477	        	        	        	        	       0	(  3  1  0)	  0  1 :  1
     59.9477	        	        	        	        	       0	(  1  3  0)	  0  1 :  1
     60.1101	        	        	        	        	       0	(  3  1  0)	  0  2 :  1
     60.1101	        	        	        	        	       0	(  1  3  0)	  0  2 :  1
     62.9851	        	        	        	        	       0	(  2  2  1)	  0  1 :  1
     63.1577	        	        	        	        	       0	(  2  2  1)	  0  2 :  1
     65.4252	        	        	        	        	       0	(  1  3  1)	  0  1 :  1
     65.4252	        	        	        	        	       0	(  3  1  1)	  0  1 :  1
     65.6061	        	        	        	        	       0	(  1  3  1)	  0  2 :  1
     65.6061	        	        	        	        	       0	(  3  1  1)	  0  2 :  1
     66.9703	        	        	        	        	       0	(  1  2  2)	  0  1 :  1
     66.9703	        	        	        	        	       0	(  2  1  2)	  0  1 :  1
     67.1566	        	        	        	        	       0	(  1  2  2)	  0  2 :  1
     67.1566	        	        	        	        	       0	(  2  1  2)	  0  2 :  1
     67.3086	        	        	        	        	       0	(  0  4  0)	  0  1 :  1
     67.4961	        	        	        	        	       0	(  0  4  0)	  0  2 :  1
     71.6670	        	        	        	        	       0	(  0  3  2)	  0  1 :  1
     71.8704	        	        	        	        	       0	(  0  3  2)	  0  2 :  1
     72.4898	        	        	        	        	       0	(  0  4  1)	  0  1 :  1
     72.6963	        	        	        	        	       0	(  0  4  1)	  0  2 :  1
     74.2900	        	        	        	        	       0	(  2  3  0)	  0  1 :  1
     74.2900	        	        	        	        	       0	(  3  2  0)	  0  1 :  1
     74.5035	        	        	        	        	       0	(  2  3  0)	  0  2 :  1
     74.5035	        	        	        	        	       0	(  3  2  0)	  0  2 :  1
     78.4893	        	        	        	        	       0	(  2  2  2)	  0  1 :  1
     78.6520	        	        	        	        	       0	(  0  1  3)	  0  1 :  1
     78.7195	        	        	        	        	       0	(  2  2  2)	  0  2 :  1
     78.8072	        	        	        	        	       0	(  1  4  0)	  0  1 :  1
     78.8072	        	        	        	        	       0	(  4  1  0)	  0  1 :  1
     78.8828	        	        	        	        	       0	(  0  1  3)	  0  2 :  1
     79.0387	        	        	        	        	       0	(  1  4  0)	  0  2 :  1
     79.0387	        	        	        	        	       0	(  4  1  0)	  0  2 :  1
     79.2870	        	        	        	        	       0	(  2  3  1)	  0  1 :  1
     79.2870	        	        	        	        	       0	(  3  2  1)	  0  1 :  1
     79.5205	        	        	        	        	       0	(  3  2  1)	  0  2 :  1
     79.5205	        	        	        	        	       0	(  2  3  1)	  0  2 :  1
     80.7220	        	        	        	        	       0	(  1  3  2)	  0  1 :  1
     80.7220	        	        	        	        	       0	(  3  1  2)	  0  1 :  1
     80.9615	        	        	        	        	       0	(  1  3  2)	  0  2 :  1
     80.9615	        	        	        	        	       0	(  3  1  2)	  0  2 :  1
     83.1010	        	        	        	        	       0	(  1  1  3)	  0  1 :  1
     83.3508	        	        	        	        	       0	(  1  1  3)	  0  2 :  1
     83.7284	        	        	        	        	       0	(  1  4  1)	  0  1 :  1
     83.7284	        	        	        	        	       0	(  4  1  1)	  0  1 :  1
     83.9809	        	        	        	        	       0	(  1  4  1)	  0  2 :  1
     83.9809	        	        	        	        	       0	(  4  1  1)	  0  2 :  1
     85.3082	        	        	        	        	       0	(  0  2  3)	  0  1 :  1
     85.5678	        	        	        	        	       0	(  0  2  3)	  0  2 :  1
     87.3486	        	        	        	        	       0	(  0  4  2)	  0  1 :  1
     87.6178	        	        	        	        	       0	(  0  4  2)	  0  2 :  1
     87.6605	        	        	        	        	       0	(  0  5  0)	  0  1 :  1
     87.9311	        	        	        	        	       0	(  0  5  0)	  0  2 :  1
     91.9003	        	        	        	        	       0	(  2  1  3)	  0  1 :  1
     91.9003	        	        	        	        	       0	(  1  2  3)	  0  1 :  1
     92.0525	        	        	        	        	       0	(  3  3  0)	  0  1 :  1
     92.1917	        	        	        	        	       0	(  1  2  3)	  0  2 :  1
     92.1917	        	        	        	        	       0	(  2  1  3)	  0  2 :  1
     92.3447	        	        	        	        	       0	(  3  3  0)	  0  2 :  1
     92.5238	        	        	        	        	       0	(  0  5  1)	  0  1 :  1
     92.8185	        	        	        	        	       0	(  0  5  1)	  0  2 :  1
     93.9389	        	        	        	        	       0	(  2  3  2)	  0  1 :  1
     93.9389	        	        	        	        	       0	(  3  2  2)	  0  1 :  1
     94.2410	        	        	        	        	       0	(  2  3  2)	  0  2 :  1
     94.2410	        	        	        	        	       0	(  3  2  2)	  0  2 :  1
     94.2513	        	        	        	        	       0	(  2  4  0)	  0  1 :  1
     94.2513	        	        	        	        	       0	(  4  2  0)	  0  1 :  1
     94.5550	        	        	        	        	       0	(  2  4  0)	  0  2 :  1
     94.5550	        	        	        	        	       0	(  4  2  0)	  0  2 :  1
     96.3032	        	        	        	        	       0	(  0  3  3)	  0  1 :  1
     96.6181	        	        	        	        	       0	(  0  3  3)	  0  2 :  1
     96.9304	        	        	        	        	       0	(  3  3  1)	  0  1 :  1
     97.2488	        	        	        	        	       0	(  3  3  1)	  0  2 :  1
     98.3559	        	        	        	        	       0	(  1  4  2)	  0  1 :  1
     98.3559	        	        	        	        	       0	(  4  1  2)	  0  1 :  1
     98.6824	        	        	        	        	       0	(  1  4  2)	  0  2 :  1
     98.6824	        	        	        	        	       0	(  4  1  2)	  0  2 :  1
     99.1475	        	        	        	        	       0	(  2  4  1)	  0  1 :  1
     99.1475	        	        	        	        	       0	(  4  2  1)	  0  1 :  1
     99.4786	        	        	        	        	       0	(  2  4  1)	  0  2 :  1
     99.4786	        	        	        	        	       0	(  4  2  1)	  0  2 :  1
    100.8985	        	        	        	        	       0	(  1  5  0)	  0  1 :  1
    100.8985	        	        	        	        	       0	(  5  1  0)	  0  1 :  1
    101.2401	        	        	        	        	       0	(  1  5  0)	  0  2 :  1
    101.2401	        	        	        	        	       0	(  5  1  0)	  0  2 :  1
    102.9867	        	        	        	        	       0	(  2  2  3)	  0  1 :  1
    103.3413	        	        	        	        	       0	(  2  2  3)	  0  2 :  1
    105.2502	        	        	        	        	       0	(  1  3  3)	  0  1 :  1
    105.2502	        	        	        	        	       0	(  3  1  3)	  0  1 :  1
    105.6196	        	        	        	        	       0	(  1  3  3)	  0  2 :  1
    105.6196	        	        	        	        	       0	(  3  1  3)	  0  2 :  1
    105.8969	        	        	        	        	       0	(  1  5  1)	  0  1 :  1
    105.8969	        	        	        	        	       0	(  5  1  1)	  0  1 :  1
    106.2707	        	        	        	        	       0	(  1  5  1)	  0  2 :  1
    106.2707	        	        	        	        	       0	(  5  1  1)	  0  2 :  1
    107.3712	        	        	        	        	       0	(  0  5  2)	  0  1 :  1
    107.7551	        	        	        	        	       0	(  0  5  2)	  0  2 :  1
    111.0305	        	        	        	        	       0	(  0  0  4)	  0  1 :  1
    111.4415	        	        	        	        	       0	(  0  0  4)	  0  2 :  1
    112.0350	        	        	        	        	       0	(  3  3  2)	  0  1 :  1
    112.2070	        	        	        	        	       0	(  0  4  3)	  0  1 :  1
    112.3714	        	        	        	        	       0	(  0  6  0)	  0  1 :  1
    112.4538	        	        	        	        	       0	(  3  3  2)	  0  2 :  1
    112.6272	        	        	        	        	       0	(  0  4  3)	  0  2 :  1
    112.7929	        	        	        	        	       0	(  0  6  0)	  0  2 :  1
    113.4014	        	        	        	        	       0	(  0  1  4)	  0  1 :  1
    113.8313	        	        	        	        	       0	(  0  1  4)	  0  2 :  1
    114.4234	        	        	        	        	       0	(  2  4  2)	  0  1 :  1
    114.4234	        	        	        	        	       0	(  4  2  2)	  0  1 :  1
    114.7660	        	        	        	        	       0	(  3  4  0)	  0  1 :  1
    114.7660	        	        	        	        	       0	(  4  3  0)	  0  1 :  1
    114.8619	        	        	        	        	       0	(  2  4  2)	  0  2 :  1
    114.8619	        	        	        	        	       0	(  4  2  2)	  0  2 :  1
    115.2073	        	        	        	        	       0	(  3  4  0)	  0  2 :  1
    115.2073	        	        	        	        	       0	(  4  3  0)	  0  2 :  1
    117.7382	        	        	        	        	       0	(  0  6  1)	  0  1 :  1
    118.2060	        	        	        	        	       0	(  0  6  1)	  0  2 :  1
    118.2797	        	        	        	        	       0	(  1  1  4)	  0  1 :  1
    118.7525	        	        	        	        	       0	(  1  1  4)	  0  2 :  1
    119.5290	        	        	        	        	       0	(  2  3  3)	  0  1 :  1
    119.5290	        	        	        	        	       0	(  3  2  3)	  0  1 :  1
    119.7039	        	        	        	        	       0	(  2  5  0)	  0  1 :  1
    119.7039	        	        	        	        	       0	(  5  2  0)	  0  1 :  1
    120.0138	        	        	        	        	       0	(  2  3  3)	  0  2 :  1
    120.0138	        	        	        	        	       0	(  3  2  3)	  0  2 :  1
    120.1905	        	        	        	        	       0	(  2  5  0)	  0  2 :  1
    120.1905	        	        	        	        	       0	(  5  2  0)	  0  2 :  1
    120.2474	        	        	        	        	       0	(  3  4  1)	  0  1 :  1
    120.2474	        	        	        	        	       0	(  4  3  1)	  0  1 :  1
    120.7394	        	        	        	        	       0	(  3  4  1)	  0  2 :  1
    120.7394	        	        	        	        	       0	(  4  3  1)	  0  2 :  1
    120.8023	        	        	        	        	       0	(  0  2  4)	  0  1 :  1
    121.2999	        	        	        	        	       0	(  0  2  4)	  0  2 :  1
    121.8963	        	        	        	        	       0	(  1  5  2)	  0  1 :  1
    121.8963	        	        	        	        	       0	(  5  1  2)	  0  1 :  1
    122.4052	        	        	        	        	       0	(  1  5  2)	  0  2 :  1
    122.4052	        	        	        	        	       0	(  5  1  2)	  0  2 :  1
    124.7129	        	        	        	        	       0	(  1  4  3)	  0  1 :  1
    124.7129	        	        	        	        	       0	(  4  1  3)	  0  1 :  1
    125.2529	        	        	        	        	       0	(  1  4  3)	  0  2 :  1
    125.2529	        	        	        	        	       0	(  4  1  3)	  0  2 :  1
    125.4741	        	        	        	        	       0	(  2  5  1)	  0  1 :  1
    125.4741	        	        	        	        	       0	(  5  2  1)	  0  1 :  1
    126.0231	        	        	        	        	       0	(  2  5  1)	  0  2 :  1
    126.0231	        	        	        	        	       0	(  5  2  1)	  0  2 :  1
