ZnO hexagonal   Chi2:  1.9928  CELL:    3.24991   3.24991   5.20644   90.0000   90.0000  120.0000   SPGR: P 63 m c               TEMP:      0.00
  1   3291     1.54060     1.54439     0.00000    -0.05476     0.00000    0
    58     0     1
       0.00000      30.00000
 2Theta	Yobs	Ycal	Yobs-Ycal	Backg	Posr	(hkl)	K
     20.0231	  139.00	  141.91	 -601.00	  132.94
     20.0565	  122.00	  141.80	 -601.00	  132.83
     20.0900	  138.00	  141.69	 -601.00	  132.72
     20.1234	  164.00	  141.58	 -601.00	  132.60
     20.1568	  115.00	  141.47	 -601.00	  132.49
     20.1902	  132.00	  141.36	 -601.00	  132.38
     20.2236	  152.00	  141.25	 -601.00	  132.27
     20.2571	  123.00	  141.14	 -601.00	  132.16
     20.2905	  121.00	  141.02	 -601.00	  132.05
     20.3239	  139.00	  140.91	 -601.00	  131.94
     20.3573	  127.00	  140.80	 -601.00	  131.83
     20.3908	  143.00	  140.69	 -601.00	  131.72
     20.4242	  146.00	  140.58	 -601.00	  131.61
     20.4576	  141.00	  140.47	 -601.00	  131.50
     20.4910	  102.00	  140.36	 -601.00	  131.39
     20.5245	  139.00	  140.25	 -601.00	  131.28
     20.5579	  126.00	  140.14	 -601.00	  131.17
     20.5913	  114.00	  140.03	 -601.00	  131.06
     20.6247	  145.00	  139.92	 -601.00	  130.95
     20.6581	  145.00	  139.81	 -601.00	  130.84
     20.6916	  126.00	  139.70	 -601.00	  130.73
     20.7250	  133.00	  139.59	 -601.00	  130.62
     20.7584	  127.00	  139.48	 -601.00	  130.51
     20.7918	  113.00	  139.37	 -601.00	  130.40
     20.8253	  136.00	  139.26	 -601.00	  130.29
     20.8587	  112.00	  139.15	 -601.00	  130.18
     20.8921	  145.00	  139.04	 -601.00	  130.07
     20.9255	  124.00	  138.94	 -601.00	  129.96
     20.9589	  128.00	  138.83	 -601.00	  129.85
     20.9924	  116.00	  138.72	 -601.00	  129.74
     21.0258	  126.00	  138.61	 -601.00	  129.63
     21.0592	  150.00	  138.50	 -601.00	  129.52
     21.0926	  124.00	  138.39	 -601.00	  129.42
     21.1261	  141.00	  138.28	 -601.00	  129.31
     21.1595	  118.00	  138.17	 -601.00	  129.20
     21.1929	  129.00	  138.06	 -601.00	  129.09
     21.2263	  123.00	  137.96	 -601.00	  128.98
     21.2597	  110.00	  137.85	 -601.00	  128.87
     21.2932	  129.00	  137.74	 -601.00	  128.76
     21.3266	  155.00	  137.63	 -601.00	  128.66
     21.3600	  137.00	  137.52	 -601.00	  128.55
     21.3934	  137.00	  137.42	 -601.00	  128.44
     21.4269	  145.00	  137.31	 -601.00	  128.33
     21.4603	  126.00	  137.20	 -601.00	  128.22
     21.4937	  139.00	  137.09	 -601.00	  128.12
     21.5271	  135.00	  136.98	 -601.00	  128.01
     21.5605	  129.00	  136.88	 -601.00	  127.90
     21.5940	  125.00	  136.77	 -601.00	  127.79
     21.6274	  121.00	  136.66	 -601.00	  127.69
     21.6608	  118.00	  136.55	 -601.00	  127.58
     21.6942	  141.00	  136.45	 -601.00	  127.47
     21.7277	  119.00	  136.34	 -601.00	  127.36
     21.7611	  119.00	  136.23	 -601.00	  127.26
     21.7945	  156.00	  136.13	 -601.00	  127.15
     21.8279	  117.00	  136.02	 -601.00	  127.04
     21.8614	  130.00	  135.91	 -601.00	  126.94
     21.8948	  110.00	  135.81	 -601.00	  126.83
     21.9282	  138.00	  135.70	 -601.00	  126.72
     21.9616	  130.00	  135.59	 -601.00	  126.62
     21.9950	  123.00	  135.49	 -601.00	  126.51
     22.0285	  122.00	  135.38	 -601.00	  126.40
     22.0619	  148.00	  135.27	 -601.00	  126.30
     22.0953	  139.00	  135.17	 -601.00	  126.19
     22.1287	  124.00	  135.06	 -601.00	  126.09
     22.1622	  122.00	  134.95	 -601.00	  125.98
     22.1956	  127.00	  134.85	 -601.00	  125.87
     22.2290	  131.00	  134.74	 -601.00	  125.77
     22.2624	  135.00	  134.64	 -601.00	  125.66
     22.2958	  116.00	  134.53	 -601.00	  125.56
     22.3293	  124.00	  134.43	 -601.00	  125.45
     22.3627	  128.00	  134.32	 -601.00	  125.34
     22.3961	  135.00	  134.21	 -601.00	  125.24
     22.4295	  133.00	  134.11	 -601.00	  125.13
     22.4630	  141.00	  134.00	 -601.00	  125.03
     22.4964	  124.00	  133.90	 -601.00	  124.92
     22.5298	  117.00	  133.79	 -601.00	  124.82
     22.5632	  137.00	  133.69	 -601.00	  124.71
     22.5966	  121.00	  133.58	 -601.00	  124.61
     22.6301	  103.00	  133.48	 -601.00	  124.50
     22.6635	  130.00	  133.37	 -601.00	  124.40
     22.6969	  127.00	  133.27	 -601.00	  124.29
     22.7303	  125.00	  133.16	 -601.00	  124.19
     22.7638	  132.00	  133.06	 -601.00	  124.08
     22.7972	  116.00	  132.96	 -601.00	  123.98
     22.8306	  138.00	  132.85	 -601.00	  123.88
     22.8640	  125.00	  132.75	 -601.00	  123.77
     22.8974	  124.00	  132.64	 -601.00	  123.67
     22.9309	  116.00	  132.54	 -601.00	  123.56
     22.9643	  140.00	  132.43	 -601.00	  123.46
     22.9977	  126.00	  132.33	 -601.00	  123.36
     23.0311	  103.00	  132.23	 -601.00	  123.25
     23.0646	  118.00	  132.12	 -601.00	  123.15
     23.0980	  111.00	  132.02	 -601.00	  123.04
     23.1314	  122.00	  131.92	 -601.00	  122.94
     23.1648	  126.00	  131.81	 -601.00	  122.84
     23.1983	  131.00	  131.71	 -601.00	  122.73
     23.2317	  119.00	  131.60	 -601.00	  122.63
     23.2651	  130.00	  131.50	 -601.00	  122.53
     23.2985	  132.00	  131.40	 -601.00	  122.42
     23.3319	  125.00	  131.30	 -601.00	  122.32
     23.3654	  105.00	  131.19	 -601.00	  122.22
     23.3988	  113.00	  131.09	 -601.00	  122.11
     23.4322	  114.00	  130.99	 -601.00	  122.01
     23.4656	  106.00	  130.88	 -601.00	  121.91
     23.4991	  115.00	  130.78	 -601.00	  121.81
     23.5325	  114.00	  130.68	 -601.00	  121.70
     23.5659	  138.00	  130.58	 -601.00	  121.60
     23.5993	  113.00	  130.47	 -601.00	  121.50
     23.6327	  113.00	  130.37	 -601.00	  121.40
     23.6662	  112.00	  130.27	 -601.00	  121.29
     23.6996	  118.00	  130.17	 -601.00	  121.19
     23.7330	  141.00	  130.06	 -601.00	  121.09
     23.7664	  139.00	  129.96	 -601.00	  120.99
     23.7999	  116.00	  129.86	 -601.00	  120.89
     23.8333	  140.00	  129.76	 -601.00	  120.78
     23.8667	  133.00	  129.66	 -601.00	  120.68
     23.9001	  105.00	  129.55	 -601.00	  120.58
     23.9335	  115.00	  129.45	 -601.00	  120.48
     23.9670	  111.00	  129.35	 -601.00	  120.38
     24.0004	  108.00	  129.25	 -601.00	  120.28
     24.0338	  135.00	  129.15	 -601.00	  120.17
     24.0672	  135.00	  129.05	 -601.00	  120.07
     24.1007	  129.00	  128.95	 -601.00	  119.97
     24.1341	   99.00	  128.85	 -601.00	  119.87
     24.1675	  130.00	  128.74	 -601.00	  119.77
     24.2009	  112.00	  128.64	 -601.00	  119.67
     24.2344	  129.00	  128.54	 -601.00	  119.57
     24.2678	  116.00	  128.44	 -601.00	  119.47
     24.3012	  126.00	  128.34	 -601.00	  119.37
     24.3346	  127.00	  128.24	 -601.00	  119.27
     24.3680	  111.00	  128.14	 -601.00	  119.16
     24.4015	  127.00	  128.04	 -601.00	  119.06
     24.4349	  121.00	  127.94	 -601.00	  118.96
     24.4683	  110.00	  127.84	 -601.00	  118.86
     24.5017	  114.00	  127.74	 -601.00	  118.76
     24.5352	  117.00	  127.64	 -601.00	  118.66
     24.5686	  119.00	  127.54	 -601.00	  118.56
     24.6020	  116.00	  127.44	 -601.00	  118.46
     24.6354	  102.00	  127.34	 -601.00	  118.36
     24.6688	  131.00	  127.24	 -601.00	  118.26
     24.7023	  139.00	  127.14	 -601.00	  118.16
     24.7357	  125.00	  127.04	 -601.00	  118.06
     24.7691	  140.00	  126.94	 -601.00	  117.96
     24.8025	  114.00	  126.84	 -601.00	  117.86
     24.8360	  125.00	  126.74	 -601.00	  117.77
     24.8694	  115.00	  126.64	 -601.00	  117.67
     24.9028	  115.00	  126.54	 -601.00	  117.57
     24.9362	  124.00	  126.44	 -601.00	  117.47
     24.9696	  141.00	  126.34	 -601.00	  117.37
     25.0031	  104.00	  126.24	 -601.00	  117.27
     25.0365	  139.00	  126.15	 -601.00	  117.17
     25.0699	  113.00	  126.05	 -601.00	  117.07
     25.1033	  112.00	  125.95	 -601.00	  116.97
     25.1368	  128.00	  125.85	 -601.00	  116.87
     25.1702	  119.00	  125.75	 -601.00	  116.78
     25.2036	  111.00	  125.65	 -601.00	  116.68
     25.2370	  123.00	  125.55	 -601.00	  116.58
     25.2705	  117.00	  125.46	 -601.00	  116.48
     25.3039	  111.00	  125.36	 -601.00	  116.38
     25.3373	  135.00	  125.26	 -601.00	  116.28
     25.3707	  123.00	  125.16	 -601.00	  116.19
     25.4041	  115.00	  125.06	 -601.00	  116.09
     25.4376	  115.00	  124.97	 -601.00	  115.99
     25.4710	  105.00	  124.87	 -601.00	  115.89
     25.5044	  123.00	  124.77	 -601.00	  115.79
     25.5378	  106.00	  124.67	 -601.00	  115.70
     25.5713	  142.00	  124.57	 -601.00	  115.60
     25.6047	  106.00	  124.48	 -601.00	  115.50
     25.6381	  106.00	  124.38	 -601.00	  115.40
     25.6715	  101.00	  124.28	 -601.00	  115.31
     25.7049	  126.00	  124.18	 -601.00	  115.21
     25.7384	  117.00	  124.09	 -601.00	  115.11
     25.7718	  130.00	  123.99	 -601.00	  115.01
     25.8052	  117.00	  123.89	 -601.00	  114.92
     25.8386	  108.00	  123.80	 -601.00	  114.82
     25.8721	  108.00	  123.70	 -601.00	  114.72
     25.9055	  111.00	  123.60	 -601.00	  114.63
     25.9389	  110.00	  123.51	 -601.00	  114.53
     25.9723	   89.00	  123.41	 -601.00	  114.43
     26.0057	  110.00	  123.31	 -601.00	  114.34
     26.0392	  113.00	  123.22	 -601.00	  114.24
     26.0726	  116.00	  123.12	 -601.00	  114.14
     26.1060	  117.00	  123.02	 -601.00	  114.05
     26.1394	  113.00	  122.93	 -601.00	  113.95
     26.1729	  125.00	  122.83	 -601.00	  113.86
     26.2063	  125.00	  122.73	 -601.00	  113.76
     26.2397	  123.00	  122.64	 -601.00	  113.66
     26.2731	  112.00	  122.54	 -601.00	  113.57
     26.3065	  103.00	  122.45	 -601.00	  113.47
     26.3400	   95.00	  122.35	 -601.00	  113.38
     26.3734	  119.00	  122.26	 -601.00	  113.28
     26.4068	  139.00	  122.16	 -601.00	  113.18
     26.4402	  122.00	  122.06	 -601.00	  113.09
     26.4737	  116.00	  121.97	 -601.00	  112.99
     26.5071	  105.00	  121.87	 -601.00	  112.90
     26.5405	  112.00	  121.78	 -601.00	  112.80
     26.5739	   84.00	  121.68	 -601.00	  112.71
     26.6074	  116.00	  121.59	 -601.00	  112.61
     26.6408	  114.00	  121.49	 -601.00	  112.52
     26.6742	  108.00	  121.40	 -601.00	  112.42
     26.7076	  131.00	  121.30	 -601.00	  112.33
     26.7410	  108.00	  121.21	 -601.00	  112.23
     26.7745	   97.00	  121.11	 -601.00	  112.14
     26.8079	   98.00	  121.02	 -601.00	  112.04
     26.8413	  115.00	  120.92	 -601.00	  111.95
     26.8747	  132.00	  120.83	 -601.00	  111.85
     26.9082	  114.00	  120.74	 -601.00	  111.76
     26.9416	  112.00	  120.64	 -601.00	  111.67
     26.9750	  101.00	  120.55	 -601.00	  111.57
     27.0084	  123.00	  120.45	 -601.00	  111.48
     27.0418	  126.00	  120.36	 -601.00	  111.38
     27.0753	  123.00	  120.26	 -601.00	  111.29
     27.1087	  121.00	  120.17	 -601.00	  111.20
     27.1421	  113.00	  120.08	 -601.00	  111.10
     27.1755	  101.00	  119.98	 -601.00	  111.01
     27.2090	  130.00	  119.89	 -601.00	  110.91
     27.2424	  105.00	  119.80	 -601.00	  110.82
     27.2758	  105.00	  119.70	 -601.00	  110.73
     27.3092	  121.00	  119.61	 -601.00	  110.63
     27.3426	  118.00	  119.52	 -601.00	  110.54
     27.3761	  115.00	  119.42	 -601.00	  110.45
     27.4095	  115.00	  119.33	 -601.00	  110.35
     27.4429	  127.00	  119.24	 -601.00	  110.26
     27.4763	  112.00	  119.14	 -601.00	  110.17
     27.5098	   91.00	  119.05	 -601.00	  110.07
     27.5432	   98.00	  118.96	 -601.00	  109.98
     27.5766	  104.00	  118.86	 -601.00	  109.89
     27.6100	  142.00	  118.77	 -601.00	  109.80
     27.6434	   90.00	  118.68	 -601.00	  109.70
     27.6769	   96.00	  118.59	 -601.00	  109.61
     27.7103	  127.00	  118.49	 -601.00	  109.52
     27.7437	  108.00	  118.40	 -601.00	  109.43
     27.7771	   98.00	  118.31	 -601.00	  109.33
     27.8106	  116.00	  118.22	 -601.00	  109.24
     27.8440	  117.00	  118.12	 -601.00	  109.15
     27.8774	  106.00	  118.03	 -601.00	  109.06
     27.9108	  126.00	  117.94	 -601.00	  108.96
     27.9443	  101.00	  117.85	 -601.00	  108.87
     27.9777	  112.00	  117.76	 -601.00	  108.78
     28.0111	  115.00	  117.66	 -601.00	  108.69
     28.0445	  115.00	  117.57	 -601.00	  108.60
     28.0779	   98.00	  117.48	 -601.00	  108.51
     28.1114	  101.00	  117.39	 -601.00	  108.41
     28.1448	  112.00	  117.30	 -601.00	  108.32
     28.1782	   94.00	  117.21	 -601.00	  108.23
     28.2116	  104.00	  117.11	 -601.00	  108.14
     28.2451	  103.00	  117.02	 -601.00	  108.05
     28.2785	  116.00	  116.93	 -601.00	  107.96
     28.3119	   97.00	  116.84	 -601.00	  107.87
     28.3453	  108.00	  116.75	 -601.00	  107.78
     28.3787	  109.00	  116.66	 -601.00	  107.68
     28.4122	  119.00	  116.57	 -601.00	  107.59
     28.4456	  114.00	  116.48	 -601.00	  107.50
     28.4790	  131.00	  116.39	 -601.00	  107.41
     28.5124	  108.00	  116.30	 -601.00	  107.32
     28.5459	  104.00	  116.21	 -601.00	  107.23
     28.5793	  104.00	  116.12	 -601.00	  107.14
     28.6127	  109.00	  116.02	 -601.00	  107.05
     28.6461	  111.00	  115.93	 -601.00	  106.96
     28.6795	   96.00	  115.84	 -601.00	  106.87
     28.7130	  102.00	  115.75	 -601.00	  106.78
     28.7464	   88.00	  115.66	 -601.00	  106.69
     28.7798	  113.00	  115.57	 -601.00	  106.60
     28.8132	   91.00	  115.48	 -601.00	  106.51
     28.8467	   98.00	  115.39	 -601.00	  106.42
     28.8801	  125.00	  115.30	 -601.00	  106.33
     28.9135	  109.00	  115.21	 -601.00	  106.24
     28.9469	  111.00	  115.13	 -601.00	  106.15
     28.9804	   90.00	  115.04	 -601.00	  106.06
     29.0138	  116.00	  114.95	 -601.00	  105.97
     29.0472	  118.00	  114.86	 -601.00	  105.88
     29.0806	  109.00	  114.77	 -601.00	  105.79
     29.1140	   95.00	  114.68	 -601.00	  105.70
     29.1475	  102.00	  114.59	 -601.00	  105.61
     29.1809	  105.00	  114.50	 -601.00	  105.52
     29.2143	   96.00	  114.41	 -601.00	  105.44
     29.2477	   97.00	  114.32	 -601.00	  105.35
     29.2812	   82.00	  114.23	 -601.00	  105.26
     29.3146	  102.00	  114.14	 -601.00	  105.17
     29.3480	  103.00	  114.06	 -601.00	  105.08
     29.3814	  111.00	  113.97	 -601.00	  104.99
     29.4148	  109.00	  113.88	 -601.00	  104.90
     29.4483	  127.00	  113.79	 -601.00	  104.81
     29.4817	  116.00	  113.70	 -601.00	  104.73
     29.5151	  112.00	  113.61	 -601.00	  104.64
     29.5485	  114.00	  113.53	 -601.00	  104.55
     29.5820	   98.00	  113.44	 -601.00	  104.46
     29.6154	   95.00	  113.35	 -601.00	  104.37
     29.6488	   95.00	  113.26	 -601.00	  104.29
     29.6822	  102.00	  113.17	 -601.00	  104.20
     29.7156	  101.00	  113.08	 -601.00	  104.11
     29.7491	  123.00	  113.00	 -601.00	  104.02
     29.7825	  113.00	  112.91	 -601.00	  103.93
     29.8159	  102.00	  112.82	 -601.00	  103.85
     29.8493	  106.00	  112.73	 -601.00	  103.76
     29.8828	  101.00	  112.65	 -601.00	  103.67
     29.9162	  109.00	  112.56	 -601.00	  103.58
     29.9496	   96.00	  112.47	 -601.00	  103.50
     29.9830	   82.00	  112.38	 -601.00	  103.41
     30.0164	  105.00	  112.30	 -608.30	  103.32
     30.0499	  125.00	  115.13	 -591.13	  103.24
     30.0833	  114.00	  115.16	 -602.16	  103.15
     30.1167	   95.00	  115.19	 -621.19	  103.06
     30.1501	  122.00	  115.23	 -594.23	  102.97
     30.1836	   92.00	  115.27	 -624.27	  102.89
     30.2170	  106.00	  115.33	 -610.33	  102.80
     30.2504	  122.00	  115.39	 -594.39	  102.71
     30.2838	   99.00	  115.47	 -617.47	  102.63
     30.3173	  116.00	  115.55	 -600.55	  102.54
     30.3507	  119.00	  115.65	 -597.65	  102.46
     30.3841	  104.00	  115.76	 -612.76	  102.37
     30.4175	  123.00	  115.89	 -593.89	  102.28
     30.4509	  121.00	  116.03	 -596.03	  102.20
     30.4844	  114.00	  116.19	 -603.19	  102.11
     30.5178	   95.00	  116.37	 -622.37	  102.02
     30.5512	  113.00	  116.57	 -604.57	  101.94
     30.5846	  106.00	  116.80	 -611.80	  101.85
     30.6181	  138.00	  117.06	 -580.06	  101.77
     30.6515	  121.00	  117.34	 -597.34	  101.68
     30.6849	  115.00	  117.66	 -603.66	  101.60
     30.7183	  121.00	  118.03	 -598.03	  101.51
     30.7517	  124.00	  118.43	 -595.43	  101.42
     30.7852	  135.00	  118.89	 -584.89	  101.34
     30.8186	  130.00	  119.41	 -590.41	  101.25
     30.8520	  139.00	  120.00	 -582.00	  101.17
     30.8854	  143.00	  120.66	 -578.66	  101.08
     30.9189	  127.00	  121.42	 -595.42	  101.00
     30.9523	  164.00	  122.28	 -559.28	  100.91
     30.9857	  122.00	  123.27	 -602.27	  100.83
     31.0191	  138.00	  124.41	 -587.41	  100.74
     31.0525	  145.00	  125.73	 -581.73	  100.66
     31.0860	  142.00	  127.26	 -586.26	  100.57
     31.1194	  144.00	  129.06	 -586.06	  100.49
     31.1528	  172.00	  131.17	 -560.17	  100.40
     31.1862	  135.00	  133.68	 -599.68	  100.32
     31.2197	  169.00	  136.70	 -568.70	  100.23
     31.2531	  180.00	  140.34	 -561.34	  100.15
     31.2865	  179.00	  144.81	 -566.81	  100.07
     31.3199	  203.00	  150.36	 -548.36	   99.98
     31.3534	  190.00	  157.35	 -568.35	   99.90
     31.3868	  183.00	  166.34	 -584.34	   99.81
     31.4202	  219.00	  178.26	 -560.26	   99.73
     31.4536	  242.00	  194.82	 -553.82	   99.65
     31.4870	  301.00	  219.94	 -519.94	   99.56
     31.5205	  352.00	  259.32	 -508.32	   99.48
     31.5539	  355.00	  324.96	 -570.96	   99.39
     31.5873	  457.00	  431.77	 -575.77	   99.31
     31.6207	  634.00	  594.48	 -561.48	   99.23
     31.6542	  883.00	  813.76	 -531.76	   99.14
     31.6876	 1473.00	 1046.75	 -174.75	   99.06
     31.7210	 1795.00	 1186.84	    7.16	   98.98
     31.7544	 1678.00	 1169.30	  -92.30	   98.89
     31.7878	 1412.00	 1041.91	 -230.91	   98.81
     31.8213	 1005.00	  848.78	 -444.78	   98.73
     31.8547	  733.00	  641.16	 -509.16	   98.64
     31.8881	  480.00	  471.31	 -592.31	   98.56
     31.9215	  367.00	  352.98	 -586.98	   98.48
     31.9550	  300.00	  277.26	 -578.26	   98.40
     31.9884	  298.00	  230.53	 -533.53	   98.31
     32.0218	  232.00	  201.43	 -570.43	   98.23
     32.0552	  222.00	  182.37	 -561.37	   98.15
     32.0886	  206.00	  169.03	 -564.03	   98.07
     32.1221	  176.00	  159.15	 -584.15	   97.98
     32.1555	  197.00	  151.54	 -555.54	   97.90
     32.1889	  157.00	  145.52	 -589.52	   97.82
     32.2223	  162.00	  140.69	 -579.69	   97.74
     32.2558	  128.00	  136.74	 -609.74	   97.65
     32.2892	  158.00	  133.47	 -576.47	   97.57
     32.3226	  136.00	  130.74	 -595.74	   97.49
     32.3560	  130.00	  128.44	 -599.44	   97.41
     32.3895	  139.00	  126.48	 -588.48	   97.33
     32.4229	  116.00	  124.79	 -609.79	   97.24
     32.4563	  145.00	  123.34	 -579.34	   97.16
     32.4897	  135.00	  122.08	 -588.08	   97.08
     32.5231	  133.00	  120.98	 -588.98	   97.00
     32.5566	  122.00	  120.01	 -599.01	   96.92
     32.5900	  144.00	  119.16	 -576.16	   96.84
     32.6234	  108.00	  118.40	 -611.40	   96.76
     32.6568	  116.00	  117.74	 -602.74	   96.67
     32.6903	  105.00	  117.15	 -613.15	   96.59
     32.7237	  141.00	  116.62	 -576.62	   96.51
     32.7571	  126.00	  116.16	 -591.16	   96.43
     32.7905	   99.00	  115.74	 -617.74	   96.35
     32.8239	  126.00	  115.38	 -590.38	   96.27
     32.8574	  112.00	  115.06	 -604.06	   96.19
     32.8908	  121.00	  114.78	 -594.78	   96.11
     32.9242	  104.00	  114.53	 -611.53	   96.03
     32.9576	  124.00	  114.32	 -591.32	   95.95
     32.9911	  127.00	  114.15	 -588.15	   95.87
     33.0245	  124.00	  114.00	 -591.00	   95.79
     33.0579	  111.00	  113.89	 -603.89	   95.70
     33.0913	  116.00	  113.80	 -598.80	   95.62
     33.1247	  117.00	  113.75	 -597.75	   95.54
     33.1582	  105.00	  113.73	 -609.73	   95.46
     33.1916	   94.00	  113.73	 -620.73	   95.38
     33.2250	  112.00	  113.77	 -602.77	   95.30
     33.2584	  118.00	  113.84	 -596.84	   95.22
     33.2919	  132.00	  113.95	 -582.95	   95.14
     33.3253	  114.00	  114.09	 -601.09	   95.06
     33.3587	  127.00	  114.27	 -588.27	   94.98
     33.3921	  108.00	  114.50	 -607.50	   94.91
     33.4255	  112.00	  114.77	 -603.77	   94.83
     33.4590	  126.00	  115.09	 -590.09	   94.75
     33.4924	  121.00	  115.47	 -595.47	   94.67
     33.5258	  119.00	  115.92	 -597.92	   94.59
     33.5592	  152.00	  116.45	 -565.45	   94.51
     33.5927	  139.00	  117.06	 -579.06	   94.43
     33.6261	  129.00	  117.77	 -589.77	   94.35
     33.6595	  121.00	  118.60	 -598.60	   94.27
     33.6929	  115.00	  119.56	 -605.56	   94.19
     33.7264	  119.00	  120.69	 -602.69	   94.11
     33.7598	  135.00	  122.02	 -588.02	   94.03
     33.7932	  118.00	  123.58	 -606.58	   93.96
     33.8266	  148.00	  125.44	 -578.44	   93.88
     33.8600	  140.00	  127.67	 -588.67	   93.80
     33.8935	  152.00	  130.35	 -579.35	   93.72
     33.9269	  148.00	  133.63	 -586.63	   93.64
     33.9603	  143.00	  137.67	 -595.67	   93.56
     33.9937	  142.00	  142.72	 -601.72	   93.48
     34.0272	  161.00	  149.15	 -589.15	   93.41
     34.0606	  161.00	  157.54	 -597.54	   93.33
     34.0940	  198.00	  168.91	 -571.91	   93.25
     34.1274	  223.00	  185.26	 -563.26	   93.17
     34.1608	  224.00	  210.56	 -587.56	   93.09
     34.1943	  242.00	  251.99	 -610.99	   93.02
     34.2277	  269.00	  320.26	 -652.26	   92.94
     34.2611	  345.00	  427.67	 -683.67	   92.86
     34.2945	  488.00	  581.23	 -694.23	   92.78
     34.3280	  800.00	  766.40	 -567.40	   92.70
     34.3614	 1080.00	  920.21	 -441.21	   92.63
     34.3948	 1002.00	  961.66	 -560.66	   92.55
     34.4282	  910.00	  899.86	 -590.86	   92.47
     34.4616	  747.00	  780.71	 -634.71	   92.39
     34.4951	  594.00	  625.14	 -632.14	   92.32
     34.5285	  397.00	  473.44	 -677.44	   92.24
     34.5619	  271.00	  356.34	 -686.34	   92.16
     34.5953	  230.00	  276.98	 -647.98	   92.09
     34.6288	  219.00	  226.66	 -608.66	   92.01
     34.6622	  216.00	  195.53	 -580.53	   91.93
     34.6956	  195.00	  175.91	 -581.91	   91.86
     34.7290	  159.00	  162.84	 -604.84	   91.78
     34.7625	  131.00	  153.59	 -623.59	   91.70
     34.7959	  168.00	  146.72	 -579.72	   91.63
     34.8293	  141.00	  141.45	 -601.45	   91.55
     34.8627	  128.00	  137.35	 -610.35	   91.47
     34.8961	  166.00	  134.12	 -569.12	   91.40
     34.9296	  154.00	  131.56	 -578.56	   91.32
     34.9630	  176.00	  129.53	 -554.53	   91.24
     34.9964	  159.00	  127.94	 -569.94	   91.17
     35.0298	  152.00	  126.70	 -575.70	   91.09
     35.0633	  151.00	  125.76	 -575.76	   91.01
     35.0967	  166.00	  125.09	 -560.09	   90.94
     35.1301	  154.00	  124.64	 -571.64	   90.86
     35.1635	  149.00	  124.41	 -576.41	   90.79
     35.1969	  152.00	  124.37	 -573.37	   90.71
     35.2304	  170.00	  124.53	 -555.53	   90.64
     35.2638	  182.00	  124.87	 -543.87	   90.56
     35.2972	  170.00	  125.40	 -556.40	   90.48
     35.3306	  143.00	  126.13	 -584.13	   90.41
     35.3641	  192.00	  127.08	 -536.08	   90.33
     35.3975	  152.00	  128.25	 -577.25	   90.26
     35.4309	  142.00	  129.67	 -588.67	   90.18
     35.4643	  157.00	  131.38	 -575.38	   90.11
     35.4977	  183.00	  133.42	 -551.42	   90.03
     35.5312	  190.00	  135.85	 -546.84	   89.96
     35.5646	  167.00	  138.72	 -572.72	   89.88
     35.5980	  157.00	  142.13	 -586.13	   89.81
     35.6314	  189.00	  146.19	 -558.19	   89.73
     35.6649	  194.00	  151.04	 -558.04	   89.66
     35.6983	  230.00	  156.89	 -527.89	   89.58
     35.7317	  181.00	  164.00	 -584.00	   89.51
     35.7651	  190.00	  172.70	 -583.70	   89.43
     35.7985	  207.00	  183.50	 -577.50	   89.36
     35.8320	  251.00	  197.09	 -547.09	   89.28
     35.8654	  250.00	  214.49	 -565.49	   89.21
     35.8988	  292.00	  237.40	 -546.40	   89.14
     35.9322	  317.00	  268.90	 -552.90	   89.06
     35.9657	  394.00	  315.07	 -522.07	   88.99
     35.9991	  432.00	  387.76	 -556.76	   88.91
     36.0325	  476.00	  507.35	 -632.35	   88.84
     36.0659	  531.00	  702.70	 -772.70	   88.77
     36.0993	  696.00	 1003.31	 -908.31	   88.69
     36.1328	 1169.00	 1418.22	 -850.22	   88.62
     36.1662	 1965.00	 1886.71	 -522.71	   88.54
     36.1996	 2404.00	 2218.84	 -415.84	   88.47
     36.2330	 2242.00	 2247.90	 -606.90	   88.40
     36.2665	 1954.00	 2058.02	 -705.02	   88.32
     36.2999	 1628.00	 1750.53	 -723.53	   88.25
     36.3333	 1134.00	 1361.95	 -828.95	   88.18
     36.3667	  787.00	  990.72	 -804.72	   88.10
     36.4002	  583.00	  706.90	 -724.90	   88.03
     36.4336	  458.00	  514.40	 -657.40	   87.96
     36.4670	  352.00	  392.07	 -641.07	   87.88
     36.5004	  355.00	  315.71	 -561.71	   87.81
     36.5338	  249.00	  267.05	 -619.05	   87.74
     36.5673	  262.00	  234.24	 -573.24	   87.67
     36.6007	  243.00	  210.66	 -568.66	   87.59
     36.6341	  247.00	  192.83	 -546.83	   87.52
     36.6675	  212.00	  178.92	 -567.92	   87.45
     36.7010	  210.00	  167.79	 -558.79	   87.37
     36.7344	  184.00	  158.76	 -575.76	   87.30
     36.7678	  164.00	  151.33	 -588.33	   87.23
     36.8012	  170.00	  145.12	 -576.12	   87.16
     36.8346	  150.00	  139.90	 -590.90	   87.08
     36.8681	  139.00	  135.45	 -597.45	   87.01
     36.9015	  148.00	  131.63	 -584.63	   86.94
     36.9349	  143.00	  128.33	 -586.33	   86.87
     36.9683	  138.00	  125.45	 -588.45	   86.80
     37.0018	  131.00	  122.92	 -592.92	   86.72
     37.0352	  106.00	  120.69	 -615.69	   86.65
     37.0686	  119.00	  118.71	 -600.71	   86.58
     37.1020	  129.00	  116.95	 -588.95	   86.51
     37.1355	  116.00	  115.36	 -600.36	   86.44
     37.1689	  101.00	  113.93	 -613.93	   86.36
     37.2023	  102.00	  112.64	 -611.64	   86.29
     37.2357	  133.00	  111.47	 -579.47	   86.22
     37.2691	  124.00	  110.40	 -587.40	   86.15
     37.3026	  119.00	  109.42	 -591.42	   86.08
     37.3360	   88.00	  108.52	 -621.52	   86.01
     37.3694	  119.00	  107.69	 -589.69	   85.94
     37.4028	  118.00	  106.93	 -589.93	   85.86
     37.4363	  112.00	  106.22	 -595.22	   85.79
     37.4697	   97.00	  105.56	 -609.56	   85.72
     37.5031	  104.00	  104.94	 -601.94	   85.65
     37.5365	   98.00	  104.37	 -607.37	   85.58
     37.5699	  101.00	  103.83	 -603.83	   85.51
     37.6034	  140.00	  103.33	 -564.33	   85.44
     37.6368	   92.00	  102.86	 -611.86	   85.37
     37.6702	   94.00	  102.41	 -609.41	   85.30
     37.7036	  104.00	  101.99	 -598.99	   85.23
     37.7371	  103.00	  101.59	 -599.59	   85.16
     37.7705	   92.00	  101.21	 -610.21	   85.09
     37.8039	   89.00	  100.85	 -612.85	   85.02
     37.8373	   83.00	  100.51	 -618.51	   84.95
     37.8707	   88.00	  100.19	 -613.19	   84.88
     37.9042	   85.00	   99.88	 -615.88	   84.81
     37.9376	   92.00	   99.58	 -608.58	   84.74
     37.9710	   78.00	   99.30	 -622.30	   84.67
     38.0044	  129.00	   99.02	 -571.02	   84.60
     38.0379	   97.00	   98.76	 -602.76	   84.53
     38.0713	   94.00	   98.51	 -605.51	   84.46
     38.1047	  100.00	   98.27	 -599.27	   84.39
     38.1381	   95.00	   98.04	 -604.04	   84.32
     38.1715	   76.00	   97.81	 -622.81	   84.25
     38.2050	  101.00	   97.60	 -597.60	   84.18
     38.2384	  110.00	   97.39	 -588.39	   84.11
     38.2718	  106.00	   97.18	 -592.18	   84.04
     38.3052	  103.00	   96.99	 -594.99	   83.97
     38.3387	   86.00	   96.80	 -611.80	   83.90
     38.3721	  102.00	   96.61	 -595.61	   83.83
     38.4055	   89.00	   96.43	 -608.43	   83.76
     38.4389	   74.00	   96.26	 -623.26	   83.69
     38.4724	  101.00	   96.09	 -596.09	   83.62
     38.5058	   98.00	   95.92	 -598.92	   83.55
     38.5392	   96.00	   95.76	 -600.76	   83.49
     38.5726	   82.00	   95.60	 -614.60	   83.42
     38.6060	   72.00	   95.45	 -624.45	   83.35
     38.6395	   89.00	   95.30	 -607.30	   83.28
     38.6729	   89.00	   95.15	 -607.15	   83.21
     38.7063	  103.00	   95.00	 -593.00	   83.14
     38.7397	   87.00	   94.86	 -608.86	   83.07
     38.7732	   85.00	   94.72	 -610.72	   83.01
     38.8066	   88.00	   94.59	 -607.59	   82.94
     38.8400	  101.00	   94.46	 -594.46	   82.87
     38.8734	   75.00	   94.32	 -620.32	   82.80
     38.9068	   92.00	   94.20	 -603.20	   82.73
     38.9403	   91.00	   94.07	 -604.07	   82.66
     38.9737	   90.00	   93.95	 -604.95	   82.60
     39.0071	   94.00	   93.82	 -600.82	   82.53
     39.0405	   81.00	   93.70	 -613.70	   82.46
     39.0740	   88.00	   93.59	 -606.59	   82.39
     39.1074	  123.00	   93.29	 -571.29	   82.33
     39.1408	   98.00	   93.18	 -596.18	   82.26
     39.1742	   73.00	   93.07	 -621.07	   82.19
     39.2076	   75.00	   92.87	 -618.87	   82.12
     39.2411	  103.00	   92.76	 -590.76	   82.05
     39.2745	   79.00	   92.66	 -614.66	   81.99
     39.3079	  103.00	   92.55	 -590.55	   81.92
     39.3413	  103.00	   92.45	 -590.45	   81.85
     39.3748	   81.00	   92.35	 -612.35	   81.79
     39.4082	   84.00	   92.25	 -609.25	   81.72
     39.4416	   72.00	   92.15	 -621.15	   81.65
     39.4750	   83.00	   92.05	 -610.05	   81.58
     39.5084	   85.00	   91.95	 -607.95	   81.52
     39.5419	  100.00	   91.86	 -592.86	   81.45
     39.5753	   86.00	   91.76	 -606.76	   81.38
     39.6087	   91.00	   91.67	 -601.67	   81.32
     39.6421	   74.00	   91.57	 -618.57	   81.25
     39.6756	   87.00	   91.48	 -605.48	   81.18
     39.7090	   97.00	   91.39	 -595.39	   81.12
     39.7424	   86.00	   91.30	 -606.30	   81.05
     39.7758	   76.00	   91.21	 -616.21	   80.98
     39.8093	   83.00	   91.12	 -609.12	   80.92
     39.8427	   92.00	   91.03	 -600.03	   80.85
     39.8761	   77.00	   90.94	 -614.94	   80.79
     39.9095	   87.00	   90.85	 -604.85	   80.72
     39.9429	   84.00	   90.77	 -607.77	   80.65
     39.9764	  108.00	   90.68	 -583.68	   80.59
     40.0098	   72.00	   90.60	 -619.60	   80.52
     40.0432	   88.00	   90.51	 -603.51	   80.46
     40.0766	   79.00	   90.43	 -612.43	   80.39
     40.1101	   83.00	   90.34	 -608.34	   80.32
     40.1435	   83.00	   90.26	 -608.26	   80.26
     40.1769	   89.00	   90.18	 -602.18	   80.19
     40.2103	   71.00	   90.09	 -620.09	   80.13
     40.2437	   90.00	   90.01	 -601.01	   80.06
     40.2772	   72.00	   89.93	 -618.93	   80.00
     40.3106	   83.00	   89.85	 -607.85	   79.93
     40.3440	   79.00	   89.77	 -611.77	   79.87
     40.3774	  101.00	   89.69	 -589.69	   79.80
     40.4109	   81.00	   89.61	 -609.61	   79.74
     40.4443	   69.00	   89.53	 -621.53	   79.67
     40.4777	   84.00	   89.45	 -606.45	   79.61
     40.5111	   78.00	   89.37	 -612.37	   79.54
     40.5445	   86.00	   89.29	 -604.29	   79.48
     40.5780	   70.00	   89.22	 -620.22	   79.41
     40.6114	   78.00	   89.14	 -612.14	   79.35
     40.6448	   94.00	   89.06	 -596.06	   79.28
     40.6782	   73.00	   88.98	 -616.98	   79.22
     40.7117	  101.00	   88.91	 -588.91	   79.15
     40.7451	   83.00	   88.83	 -606.83	   79.09
     40.7785	   92.00	   88.76	 -597.76	   79.02
     40.8119	   70.00	   88.68	 -619.68	   78.96
     40.8454	   94.00	   88.61	 -595.61	   78.89
     40.8788	   66.00	   88.53	 -623.53	   78.83
     40.9122	   78.00	   88.46	 -611.46	   78.77
     40.9456	   79.00	   87.92	 -609.92	   78.70
     40.9790	   84.00	   87.85	 -604.85	   78.64
     41.0125	   88.00	   87.78	 -600.78	   78.57
     41.0459	   94.00	   87.48	 -594.48	   78.51
     41.0793	   87.00	   87.42	 -601.42	   78.45
     41.1127	   97.00	   87.36	 -591.36	   78.38
     41.1462	   72.00	   87.29	 -616.29	   78.32
     41.1796	   81.00	   87.23	 -607.23	   78.25
     41.2130	   90.00	   87.17	 -598.17	   78.19
     41.2464	   69.00	   87.10	 -619.10	   78.13
     41.2798	   79.00	   87.04	 -609.04	   78.06
     41.3133	   79.00	   86.98	 -608.98	   78.00
     41.3467	   70.00	   86.91	 -617.91	   77.94
     41.3801	   75.00	   86.85	 -612.85	   77.87
     41.4135	   70.00	   86.79	 -617.79	   77.81
     41.4470	   81.00	   86.72	 -606.72	   77.75
     41.4804	   95.00	   86.66	 -592.66	   77.68
     41.5138	   78.00	   86.60	 -609.60	   77.62
     41.5472	   74.00	   86.53	 -613.53	   77.56
     41.5807	   83.00	   86.47	 -604.47	   77.50
     41.6141	  105.00	   86.41	 -582.41	   77.43
     41.6475	   77.00	   86.35	 -610.35	   77.37
     41.6809	   90.00	   86.28	 -597.28	   77.31
     41.7143	   92.00	   86.22	 -595.22	   77.24
     41.7478	   87.00	   86.16	 -600.16	   77.18
     41.7812	   74.00	   86.09	 -613.09	   77.12
     41.8146	   78.00	   86.03	 -609.03	   77.06
     41.8480	   76.00	   85.97	 -610.97	   76.99
     41.8815	   58.00	   85.91	 -628.91	   76.93
     41.9149	   81.00	   85.85	 -605.85	   76.87
     41.9483	   77.00	   85.78	 -609.78	   76.81
     41.9817	   77.00	   85.72	 -609.72	   76.75
     42.0151	   76.00	   85.66	 -610.66	   76.68
     42.0486	   74.00	   85.60	 -612.60	   76.62
     42.0820	   87.00	   85.54	 -599.54	   76.56
     42.1154	   62.00	   85.47	 -624.47	   76.50
     42.1488	   77.00	   85.41	 -609.41	   76.44
     42.1823	   86.00	   85.35	 -600.35	   76.37
     42.2157	   96.00	   85.29	 -590.29	   76.31
     42.2491	   71.00	   85.23	 -615.23	   76.25
     42.2825	   83.00	   85.16	 -603.16	   76.19
     42.3159	   95.00	   85.10	 -591.10	   76.13
     42.3494	   71.00	   85.04	 -615.04	   76.07
     42.3828	   84.00	   84.98	 -601.98	   76.01
     42.4162	   77.00	   84.92	 -608.92	   75.94
     42.4496	   84.00	   84.86	 -601.86	   75.88
     42.4831	   76.00	   84.80	 -609.80	   75.82
     42.5165	   95.00	   84.74	 -590.74	   75.76
     42.5499	   72.00	   84.67	 -613.67	   75.70
     42.5833	   74.00	   84.61	 -611.61	   75.64
     42.6167	   83.00	   84.63	 -602.63	   75.58
     42.6502	   77.00	   84.57	 -608.57	   75.52
     42.6836	   70.00	   84.51	 -615.51	   75.46
     42.7170	   99.00	   84.45	 -586.45	   75.40
     42.7504	   60.00	   84.44	 -625.44	   75.33
     42.7839	   65.00	   84.38	 -620.38	   75.27
     42.8173	   91.00	   84.32	 -594.32	   75.21
     42.8507	   75.00	   84.26	 -610.26	   75.15
     42.8841	   77.00	   84.20	 -608.20	   75.09
     42.9175	   70.00	   84.14	 -615.14	   75.03
     42.9510	   72.00	   84.08	 -613.08	   74.97
     42.9844	   60.00	   84.03	 -625.03	   74.91
     43.0178	   81.00	   83.97	 -603.97	   74.85
     43.0512	   78.00	   83.91	 -606.91	   74.79
     43.0847	   85.00	   83.85	 -599.85	   74.73
     43.1181	   78.00	   83.79	 -606.79	   74.67
     43.1515	   65.00	   83.74	 -619.74	   74.61
     43.1849	   77.00	   83.68	 -607.68	   74.55
     43.2184	   90.00	   83.62	 -594.62	   74.49
     43.2518	   83.00	   83.56	 -601.56	   74.43
     43.2852	   64.00	   83.51	 -620.51	   74.37
     43.3186	   70.00	   83.45	 -614.45	   74.31
     43.3520	   71.00	   83.39	 -613.39	   74.25
     43.3855	   72.00	   83.34	 -612.34	   74.19
     43.4189	   72.00	   83.28	 -612.28	   74.13
     43.4523	   74.00	   83.22	 -610.22	   74.07
     43.4857	   79.00	   83.17	 -605.17	   74.02
     43.5192	   78.00	   83.11	 -606.11	   73.96
     43.5526	   84.00	   83.05	 -600.05	   73.90
     43.5860	   84.00	   83.00	 -600.00	   73.84
     43.6194	   89.00	   82.94	 -594.94	   73.78
     43.6528	   88.00	   82.89	 -595.89	   73.72
     43.6863	   77.00	   82.83	 -606.83	   73.66
     43.7197	   91.00	   82.78	 -592.78	   73.60
     43.7531	   56.00	   82.72	 -627.72	   73.54
     43.7865	   84.00	   82.66	 -599.66	   73.48
     43.8200	   65.00	   82.61	 -618.61	   73.43
     43.8534	   60.00	   82.55	 -623.55	   73.37
     43.8868	   79.00	   82.50	 -604.50	   73.31
     43.9202	   64.00	   82.45	 -619.45	   73.25
     43.9536	   72.00	   82.39	 -611.39	   73.19
     43.9871	   77.00	   82.34	 -606.34	   73.13
     44.0205	   79.00	   82.28	 -604.28	   73.08
     44.0539	   77.00	   82.23	 -606.23	   73.02
     44.0873	   77.00	   82.18	 -606.18	   72.96
     44.1208	   85.00	   82.12	 -598.12	   72.90
     44.1542	   81.00	   82.07	 -602.07	   72.84
     44.1876	   86.00	   82.02	 -597.02	   72.78
     44.2210	   61.00	   81.96	 -621.96	   72.73
     44.2544	   85.00	   81.91	 -597.91	   72.67
     44.2879	   58.00	   81.86	 -624.86	   72.61
     44.3213	   77.00	   81.81	 -605.81	   72.55
     44.3547	   75.00	   81.76	 -607.76	   72.50
     44.3881	   86.00	   81.70	 -596.70	   72.44
     44.4216	   71.00	   81.65	 -611.65	   72.38
     44.4550	   78.00	   81.60	 -604.60	   72.32
     44.4884	   63.00	   81.55	 -619.55	   72.27
     44.5218	   68.00	   81.50	 -614.50	   72.21
     44.5553	   82.00	   81.45	 -600.45	   72.15
     44.5887	   74.00	   81.40	 -608.40	   72.09
     44.6221	   79.00	   81.35	 -603.35	   72.04
     44.6555	   84.00	   81.30	 -598.30	   71.98
     44.6889	   62.00	   81.25	 -620.25	   71.92
     44.7224	   84.00	   81.20	 -598.20	   71.87
     44.7558	   74.00	   81.16	 -608.16	   71.81
     44.7892	   68.00	   81.11	 -614.11	   71.75
     44.8226	   64.00	   81.06	 -618.06	   71.69
     44.8561	   73.00	   81.01	 -609.01	   71.64
     44.8895	   73.00	   80.97	 -608.97	   71.58
     44.9229	   75.00	   80.92	 -606.92	   71.52
     44.9563	   88.00	   80.88	 -593.88	   71.47
     44.9897	   63.00	   80.83	 -618.83	   71.41
     45.0232	   66.00	   80.79	 -615.79	   71.35
     45.0566	   75.00	   80.74	 -606.74	   71.30
     45.0900	   84.00	   80.70	 -597.70	   71.24
     45.1234	   76.00	   80.66	 -605.66	   71.19
     45.1569	   70.00	   80.61	 -611.61	   71.13
     45.1903	   76.00	   80.57	 -605.57	   71.07
     45.2237	   87.00	   80.53	 -594.53	   71.02
     45.2571	   66.00	   80.49	 -615.49	   70.96
     45.2906	   66.00	   80.45	 -615.45	   70.90
     45.3240	   74.00	   80.41	 -607.41	   70.85
     45.3574	   75.00	   80.38	 -606.38	   70.79
     45.3908	   71.00	   80.34	 -610.34	   70.74
     45.4242	   85.00	   80.30	 -596.30	   70.68
     45.4577	   72.00	   80.27	 -609.27	   70.63
     45.4911	   77.00	   80.24	 -604.24	   70.57
     45.5245	   86.00	   80.20	 -595.20	   70.51
     45.5579	   73.00	   80.17	 -608.17	   70.46
     45.5914	   79.00	   80.14	 -602.14	   70.40
     45.6248	   88.00	   80.11	 -593.11	   70.35
     45.6582	   82.00	   80.09	 -599.09	   70.29
     45.6916	   69.00	   80.06	 -612.06	   70.24
     45.7250	   72.00	   80.04	 -609.04	   70.18
     45.7585	   69.00	   80.02	 -612.02	   70.13
     45.7919	   78.00	   80.00	 -603.00	   70.07
     45.8253	   87.00	   79.98	 -593.98	   70.02
     45.8587	   74.00	   79.96	 -606.96	   69.96
     45.8922	   72.00	   79.95	 -608.95	   69.91
     45.9256	   84.00	   79.94	 -596.94	   69.85
     45.9590	   64.00	   79.93	 -616.93	   69.80
     45.9924	   86.00	   79.93	 -594.93	   69.74
     46.0258	   84.00	   79.93	 -596.93	   69.69
     46.0593	   78.00	   79.93	 -602.93	   69.63
     46.0927	   81.00	   79.94	 -599.94	   69.58
     46.1261	   87.00	   79.95	 -593.95	   69.52
     46.1595	   74.00	   79.97	 -606.97	   69.47
     46.1930	   79.00	   79.99	 -601.99	   69.42
     46.2264	   85.00	   80.02	 -596.02	   69.36
     46.2598	   79.00	   80.06	 -602.06	   69.31
     46.2932	   83.00	   80.10	 -598.10	   69.25
     46.3266	   82.00	   80.15	 -599.15	   69.20
     46.3601	   92.00	   80.21	 -589.21	   69.14
     46.3935	   79.00	   80.28	 -602.28	   69.09
     46.4269	   75.00	   80.37	 -606.37	   69.04
     46.4603	   85.00	   80.46	 -596.46	   68.98
     46.4938	   88.00	   80.57	 -593.57	   68.93
     46.5272	   69.00	   80.70	 -612.70	   68.88
     46.5606	   90.00	   80.84	 -591.84	   68.82
     46.5940	   68.00	   81.01	 -614.01	   68.77
     46.6274	   75.00	   81.20	 -607.20	   68.71
     46.6609	   86.00	   81.42	 -596.42	   68.66
     46.6943	   75.00	   81.68	 -607.68	   68.61
     46.7277	   78.00	   81.97	 -604.97	   68.55
     46.7611	   72.00	   82.31	 -611.31	   68.50
     46.7946	   92.00	   82.71	 -591.71	   68.45
     46.8280	   65.00	   83.17	 -619.17	   68.39
     46.8614	   64.00	   83.71	 -620.71	   68.34
     46.8948	  105.00	   84.34	 -580.34	   68.29
     46.9283	   94.00	   85.09	 -592.09	   68.23
     46.9617	   87.00	   85.99	 -599.99	   68.18
     46.9951	   91.00	   87.06	 -597.06	   68.13
     47.0285	   95.00	   88.37	 -594.37	   68.08
     47.0619	  112.00	   89.97	 -578.97	   68.02
     47.0954	   76.00	   91.96	 -616.96	   67.97
     47.1288	  125.00	   94.47	 -570.47	   67.92
     47.1622	   96.00	   97.71	 -602.71	   67.86
     47.1956	  100.00	  102.02	 -603.02	   67.81
     47.2291	  115.00	  108.07	 -594.07	   67.76
     47.2625	  126.00	  117.12	 -592.12	   67.71
     47.2959	  106.00	  131.52	 -626.52	   67.65
     47.3293	  146.00	  154.89	 -609.89	   67.60
     47.3627	  137.00	  191.76	 -655.76	   67.55
     47.3962	  183.00	  245.73	 -663.73	   67.50
     47.4296	  247.00	  315.36	 -669.36	   67.44
     47.4630	  340.00	  385.30	 -646.30	   67.39
     47.4964	  452.00	  422.36	 -571.36	   67.34
     47.5299	  357.00	  411.95	 -655.95	   67.29
     47.5633	  297.00	  380.67	 -684.67	   67.24
     47.5967	  317.00	  347.18	 -631.18	   67.18
     47.6301	  297.00	  304.41	 -608.41	   67.13
     47.6636	  207.00	  251.47	 -645.47	   67.08
     47.6970	  171.00	  201.95	 -631.95	   67.03
     47.7304	  161.00	  163.96	 -603.96	   66.98
     47.7638	  141.00	  137.69	 -597.69	   66.93
     47.7972	  123.00	  120.52	 -598.52	   66.87
     47.8307	  115.00	  109.53	 -595.53	   66.82
     47.8641	  112.00	  102.34	 -591.34	   66.77
     47.8975	   98.00	   97.40	 -600.40	   66.72
     47.9309	  117.00	   93.78	 -577.78	   66.67
     47.9644	   89.00	   91.01	 -603.01	   66.62
     47.9978	   85.00	   88.82	 -604.82	   66.57
     48.0312	  100.00	   87.04	 -588.04	   66.51
     48.0646	   84.00	   85.58	 -602.58	   66.46
     48.0980	  109.00	   84.37	 -576.37	   66.41
     48.1315	   79.00	   83.34	 -605.34	   66.36
     48.1649	   83.00	   82.46	 -600.46	   66.31
     48.1983	   88.00	   81.71	 -594.71	   66.26
     48.2317	   78.00	   81.05	 -604.05	   66.21
     48.2652	   97.00	   80.48	 -584.48	   66.16
     48.2986	   74.00	   79.97	 -606.97	   66.11
     48.3320	   90.00	   79.52	 -590.52	   66.06
     48.3654	   77.00	   79.12	 -603.12	   66.01
     48.3988	   79.00	   78.75	 -600.75	   65.96
     48.4323	   90.00	   78.42	 -589.42	   65.91
     48.4657	   77.00	   78.12	 -602.12	   65.85
     48.4991	   85.00	   77.85	 -593.85	   65.80
     48.5325	  103.00	   77.60	 -575.60	   65.75
     48.5660	   87.00	   77.37	 -591.37	   65.70
     48.5994	   66.00	   77.15	 -612.15	   65.65
     48.6328	  100.00	   76.95	 -577.95	   65.60
     48.6662	   81.00	   76.76	 -596.76	   65.55
     48.6996	   97.00	   76.58	 -580.58	   65.50
     48.7331	   71.00	   76.42	 -606.42	   65.45
     48.7665	   85.00	   76.26	 -592.26	   65.40
     48.7999	   85.00	   76.11	 -592.11	   65.35
     48.8333	   85.00	   75.97	 -591.97	   65.30
     48.8668	   84.00	   75.84	 -592.84	   65.25
     48.9002	   77.00	   75.71	 -599.71	   65.20
     48.9336	   92.00	   75.59	 -584.59	   65.15
     48.9670	   79.00	   75.47	 -597.47	   65.11
     49.0005	   65.00	   75.36	 -611.36	   65.06
     49.0339	   70.00	   75.25	 -606.25	   65.01
     49.0673	   66.00	   75.15	 -610.15	   64.96
     49.1007	   57.00	   75.05	 -619.05	   64.91
     49.1341	   64.00	   74.95	 -611.95	   64.86
     49.1676	   99.00	   74.86	 -576.86	   64.81
     49.2010	   82.00	   74.77	 -593.77	   64.76
     49.2344	   79.00	   74.68	 -596.68	   64.71
     49.2678	   84.00	   74.59	 -591.59	   64.66
     49.3013	   66.00	   74.50	 -609.50	   64.61
     49.3347	   86.00	   74.42	 -589.42	   64.56
     49.3681	   85.00	   74.34	 -590.34	   64.51
     49.4015	   66.00	   74.26	 -609.26	   64.47
     49.4349	   78.00	   74.18	 -597.18	   64.42
     49.4684	   69.00	   74.11	 -606.11	   64.37
     49.5018	   69.00	   74.03	 -606.03	   64.32
     49.5352	   69.00	   73.96	 -605.96	   64.27
     49.5686	   62.00	   73.89	 -612.89	   64.22
     49.6021	   77.00	   73.82	 -597.82	   64.17
     49.6355	   74.00	   73.75	 -600.75	   64.13
     49.6689	   73.00	   73.68	 -601.68	   64.08
     49.7023	   76.00	   73.61	 -598.61	   64.03
     49.7357	   61.00	   73.55	 -613.55	   63.98
     49.7692	   75.00	   73.48	 -599.48	   63.93
     49.8026	   56.00	   73.42	 -618.42	   63.88
     49.8360	   68.00	   73.35	 -606.35	   63.84
     49.8694	   69.00	   73.29	 -605.29	   63.79
     49.9029	   64.00	   73.23	 -610.23	   63.74
     49.9363	   66.00	   73.16	 -608.16	   63.69
     49.9697	   48.00	   73.10	 -626.10	   63.64
     50.0031	   76.00	   73.04	 -598.04	   63.60
     50.0366	   59.00	   72.98	 -614.98	   63.55
     50.0700	   69.00	   72.92	 -604.92	   63.50
     50.1034	   85.00	   72.86	 -588.86	   63.45
     50.1368	   69.00	   72.80	 -604.80	   63.40
     50.1702	   65.00	   72.74	 -608.74	   63.36
     50.2037	   66.00	   72.69	 -607.69	   63.31
     50.2371	   64.00	   72.63	 -609.63	   63.26
     50.2705	   70.00	   72.57	 -603.57	   63.21
     50.3039	   54.00	   72.52	 -619.52	   63.17
     50.3374	   73.00	   72.46	 -600.46	   63.12
     50.3708	   63.00	   72.40	 -610.40	   63.07
     50.4042	   61.00	   72.35	 -612.35	   63.03
     50.4376	   52.00	   72.29	 -621.29	   62.98
     50.4710	   74.00	   72.24	 -599.24	   62.93
     50.5045	   70.00	   72.18	 -603.18	   62.88
     50.5379	   64.00	   72.13	 -609.13	   62.84
     50.5713	   69.00	   72.08	 -604.08	   62.79
     50.6047	   63.00	   72.02	 -610.02	   62.74
     50.6382	   64.00	   71.97	 -608.97	   62.70
     50.6716	   68.00	   71.92	 -604.92	   62.65
     50.7050	   71.00	   71.86	 -601.86	   62.60
     50.7384	   63.00	   71.81	 -609.81	   62.56
     50.7718	   51.00	   71.76	 -621.76	   62.51
     50.8053	   64.00	   71.71	 -608.71	   62.46
     50.8387	   82.00	   71.65	 -590.65	   62.42
     50.8721	   65.00	   71.60	 -607.60	   62.37
     50.9055	   68.00	   71.55	 -604.55	   62.32
     50.9390	   65.00	   71.50	 -607.50	   62.28
     50.9724	   50.00	   71.45	 -622.45	   62.23
     51.0058	   60.00	   71.40	 -612.40	   62.19
     51.0392	   70.00	   71.35	 -602.35	   62.14
     51.0726	   58.00	   71.30	 -614.30	   62.09
     51.1061	   61.00	   71.25	 -611.25	   62.05
     51.1395	   72.00	   71.20	 -600.20	   62.00
     51.1729	   69.00	   71.15	 -603.15	   61.96
     51.2063	   70.00	   71.10	 -602.10	   61.91
     51.2398	   70.00	   71.05	 -602.05	   61.86
     51.2732	   66.00	   71.00	 -606.00	   61.82
     51.3066	   63.00	   70.95	 -608.95	   61.77
     51.3400	   71.00	   70.90	 -600.90	   61.73
     51.3735	   60.00	   70.85	 -611.85	   61.68
     51.4069	   60.00	   70.80	 -611.80	   61.64
     51.4403	   74.00	   70.75	 -597.75	   61.59
     51.4737	   63.00	   70.70	 -608.70	   61.54
     51.5071	   52.00	   70.66	 -619.66	   61.50
     51.5406	   76.00	   70.70	 -595.70	   61.45
     51.5740	   61.00	   70.65	 -610.65	   61.41
     51.6074	   56.00	   70.60	 -615.60	   61.36
     51.6408	   61.00	   70.56	 -610.56	   61.32
     51.6743	   68.00	   70.56	 -603.56	   61.27
     51.7077	   55.00	   70.51	 -616.51	   61.23
     51.7411	   66.00	   70.47	 -605.47	   61.18
     51.7745	   73.00	   70.42	 -598.42	   61.14
     51.8079	   77.00	   70.37	 -594.37	   61.09
     51.8414	   61.00	   70.33	 -610.33	   61.05
     51.8748	   63.00	   70.28	 -608.28	   61.00
     51.9082	   64.00	   70.24	 -607.24	   60.96
     51.9416	   52.00	   70.19	 -619.19	   60.91
     51.9751	   77.00	   70.15	 -594.15	   60.87
     52.0085	   73.00	   70.11	 -598.11	   60.82
     52.0419	   52.00	   70.06	 -619.06	   60.78
     52.0753	   75.00	   70.02	 -596.02	   60.73
     52.1087	   73.00	   69.97	 -597.97	   60.69
     52.1422	   59.00	   69.93	 -611.93	   60.65
     52.1756	   69.00	   69.89	 -601.89	   60.60
     52.2090	   52.00	   69.84	 -618.84	   60.56
     52.2424	   58.00	   69.80	 -612.80	   60.51
     52.2759	   74.00	   69.76	 -596.76	   60.47
     52.3093	   90.00	   69.71	 -580.71	   60.42
     52.3427	   54.00	   69.67	 -616.67	   60.38
     52.3761	   76.00	   69.55	 -594.55	   60.34
     52.4096	   72.00	   69.51	 -598.51	   60.29
     52.4430	   69.00	   69.46	 -601.46	   60.25
     52.4764	   66.00	   69.42	 -604.42	   60.21
     52.5098	   61.00	   69.34	 -609.34	   60.16
     52.5432	   72.00	   69.30	 -598.30	   60.12
     52.5767	   64.00	   69.26	 -606.26	   60.07
     52.6101	   68.00	   69.22	 -602.22	   60.03
     52.6435	   56.00	   69.18	 -614.18	   59.99
     52.6769	   60.00	   69.14	 -610.14	   59.94
     52.7104	   71.00	   69.10	 -599.10	   59.90
     52.7438	   81.00	   69.06	 -589.06	   59.86
     52.7772	   70.00	   69.02	 -600.02	   59.81
     52.8106	   73.00	   68.98	 -596.98	   59.77
     52.8440	   61.00	   68.95	 -608.95	   59.73
     52.8775	   44.00	   68.91	 -625.91	   59.68
     52.9109	   64.00	   68.87	 -605.87	   59.64
     52.9443	   87.00	   68.83	 -582.83	   59.60
     52.9777	   58.00	   68.79	 -611.79	   59.55
     53.0112	   62.00	   68.75	 -607.75	   59.51
     53.0446	   63.00	   68.72	 -606.72	   59.47
     53.0780	   65.00	   68.68	 -604.68	   59.42
     53.1114	   68.00	   68.64	 -601.64	   59.38
     53.1448	   52.00	   68.60	 -617.60	   59.34
     53.1783	   44.00	   68.57	 -625.57	   59.30
     53.2117	   52.00	   68.53	 -617.53	   59.25
     53.2451	   49.00	   68.49	 -620.49	   59.21
     53.2785	   70.00	   68.46	 -599.46	   59.17
     53.3120	   52.00	   68.42	 -617.42	   59.13
     53.3454	   61.00	   68.38	 -608.38	   59.08
     53.3788	   60.00	   68.35	 -609.35	   59.04
     53.4122	   60.00	   68.31	 -609.31	   59.00
     53.4456	   79.00	   68.28	 -590.28	   58.96
     53.4791	   79.00	   68.24	 -590.24	   58.91
     53.5125	   61.00	   68.21	 -608.21	   58.87
     53.5459	   66.00	   68.17	 -603.17	   58.83
     53.5793	   71.00	   68.14	 -598.14	   58.79
     53.6128	   78.00	   68.11	 -591.11	   58.74
     53.6462	   48.00	   68.07	 -621.07	   58.70
     53.6796	   56.00	   68.04	 -613.04	   58.66
     53.7130	   63.00	   68.01	 -606.01	   58.62
     53.7465	   66.00	   67.98	 -602.98	   58.58
     53.7799	   70.00	   67.94	 -598.94	   58.53
     53.8133	   63.00	   67.91	 -605.91	   58.49
     53.8467	   70.00	   67.88	 -598.88	   58.45
     53.8801	   75.00	   67.85	 -593.85	   58.41
     53.9136	   63.00	   67.82	 -605.82	   58.37
     53.9470	   45.00	   67.79	 -623.79	   58.33
     53.9804	   61.00	   67.76	 -607.76	   58.28
     54.0138	   76.00	   67.73	 -592.73	   58.24
     54.0473	   64.00	   67.71	 -604.71	   58.20
     54.0807	   56.00	   67.68	 -612.68	   58.16
     54.1141	   51.00	   67.65	 -617.65	   58.12
     54.1475	   55.00	   67.63	 -613.63	   58.08
     54.1809	   77.00	   67.60	 -591.60	   58.04
     54.2144	   54.00	   67.58	 -614.58	   58.00
     54.2478	   58.00	   67.55	 -610.55	   57.95
     54.2812	   65.00	   67.53	 -603.53	   57.91
     54.3146	   72.00	   67.51	 -596.51	   57.87
     54.3481	   66.00	   67.49	 -602.49	   57.83
     54.3815	   58.00	   67.47	 -610.47	   57.79
     54.4149	   51.00	   67.45	 -617.45	   57.75
     54.4483	   86.00	   67.43	 -582.43	   57.71
     54.4818	   68.00	   67.41	 -600.41	   57.67
     54.5152	   82.00	   67.40	 -586.40	   57.63
     54.5486	   78.00	   67.38	 -590.38	   57.59
     54.5820	   64.00	   67.37	 -604.37	   57.55
     54.6154	   68.00	   67.36	 -600.36	   57.51
     54.6489	   77.00	   67.35	 -591.35	   57.46
     54.6823	   56.00	   67.34	 -612.34	   57.42
     54.7157	   61.00	   67.33	 -607.33	   57.38
     54.7491	   59.00	   67.33	 -609.33	   57.34
     54.7825	   85.00	   67.33	 -583.33	   57.30
     54.8160	   68.00	   67.32	 -600.32	   57.26
     54.8494	   79.00	   67.33	 -589.33	   57.22
     54.8828	   79.00	   67.33	 -589.33	   57.18
     54.9162	   66.00	   67.34	 -602.34	   57.14
     54.9497	   57.00	   67.35	 -611.35	   57.10
     54.9831	   73.00	   67.36	 -595.36	   57.06
     55.0165	   75.00	   67.38	 -593.38	   57.02
     55.0499	   66.00	   67.40	 -602.40	   56.98
     55.0834	   63.00	   67.42	 -605.42	   56.94
     55.1168	   62.00	   67.45	 -606.45	   56.90
     55.1502	   56.00	   67.49	 -612.49	   56.86
     55.1836	   72.00	   67.53	 -596.53	   56.82
     55.2170	   70.00	   67.57	 -598.57	   56.78
     55.2505	   62.00	   67.62	 -606.62	   56.74
     55.2839	   61.00	   67.68	 -607.68	   56.70
     55.3173	   68.00	   67.75	 -600.75	   56.67
     55.3507	   88.00	   67.82	 -580.82	   56.63
     55.3842	   70.00	   67.91	 -598.91	   56.59
     55.4176	   77.00	   68.00	 -592.00	   56.55
     55.4510	   79.00	   68.11	 -590.11	   56.51
     55.4844	   62.00	   68.23	 -607.23	   56.47
     55.5178	   95.00	   68.37	 -574.37	   56.43
     55.5513	   79.00	   68.53	 -590.53	   56.39
     55.5847	   71.00	   68.70	 -598.70	   56.35
     55.6181	   74.00	   68.90	 -595.90	   56.31
     55.6515	   89.00	   69.12	 -581.12	   56.27
     55.6850	   75.00	   69.37	 -595.37	   56.23
     55.7184	   81.00	   69.65	 -589.65	   56.19
     55.7518	   74.00	   69.98	 -596.98	   56.16
     55.7852	   84.00	   70.35	 -587.35	   56.12
     55.8186	   73.00	   70.77	 -598.77	   56.08
     55.8521	   82.00	   71.26	 -590.26	   56.04
     55.8855	   86.00	   71.83	 -586.83	   56.00
     55.9189	   76.00	   72.48	 -597.48	   55.96
     55.9523	   69.00	   73.25	 -605.25	   55.92
     55.9858	   84.00	   74.16	 -591.16	   55.88
     56.0192	   69.00	   75.23	 -607.23	   55.85
     56.0526	   84.00	   76.52	 -593.52	   55.81
     56.0860	   77.00	   78.08	 -602.08	   55.77
     56.1195	  104.00	   79.98	 -576.98	   55.73
     56.1529	   96.00	   82.34	 -587.34	   55.69
     56.1863	   81.00	   85.31	 -605.31	   55.65
     56.2197	  115.00	   89.15	 -575.15	   55.62
     56.2531	  128.00	   94.28	 -567.28	   55.58
     56.2866	  121.00	  101.52	 -581.52	   55.54
     56.3200	  119.00	  112.41	 -594.41	   55.50
     56.3534	  149.00	  129.62	 -581.62	   55.46
     56.3868	  142.00	  157.07	 -616.07	   55.43
     56.4203	  153.00	  199.21	 -647.21	   55.39
     56.4537	  213.00	  259.02	 -647.02	   55.35
     56.4871	  343.00	  333.45	 -591.45	   55.31
     56.5205	  498.00	  404.06	 -507.06	   55.28
     56.5539	  515.00	  435.92	 -521.92	   55.24
     56.5874	  453.00	  417.44	 -565.44	   55.20
     56.6208	  316.00	  380.29	 -665.29	   55.16
     56.6542	  292.00	  350.60	 -659.60	   55.12
     56.6876	  366.00	  324.71	 -559.71	   55.09
     56.7211	  325.00	  286.28	 -562.28	   55.05
     56.7545	  253.00	  236.52	 -584.52	   55.01
     56.7879	  168.00	  189.73	 -622.73	   54.97
     56.8213	  154.00	  153.33	 -600.33	   54.94
     56.8547	  155.00	  127.71	 -573.71	   54.90
     56.8882	  144.00	  110.67	 -567.67	   54.86
     56.9216	  114.00	   99.58	 -586.58	   54.83
     56.9550	  118.00	   92.24	 -575.24	   54.79
     56.9884	   98.00	   87.13	 -590.13	   54.75
     57.0219	  105.00	   83.37	 -579.37	   54.71
     57.0553	  100.00	   80.48	 -581.48	   54.68
     57.0887	   77.00	   78.18	 -602.18	   54.64
     57.1221	   85.00	   76.31	 -592.31	   54.60
     57.1555	   88.00	   74.77	 -587.77	   54.57
     57.1890	   86.00	   73.48	 -588.48	   54.53
     57.2224	   75.00	   72.39	 -598.39	   54.49
     57.2558	   88.00	   71.46	 -584.46	   54.46
     57.2892	   72.00	   70.66	 -599.66	   54.42
     57.3227	   75.00	   69.96	 -595.96	   54.38
     57.3561	   61.00	   69.35	 -609.35	   54.35
     57.3895	   66.00	   68.81	 -603.81	   54.31
     57.4229	   72.00	   68.33	 -597.33	   54.27
     57.4564	   87.00	   67.90	 -581.90	   54.24
     57.4898	   75.00	   67.52	 -593.52	   54.20
     57.5232	   74.00	   67.17	 -594.17	   54.16
     57.5566	   72.00	   66.86	 -595.86	   54.13
     57.5900	   57.00	   66.57	 -610.57	   54.09
     57.6235	   68.00	   66.31	 -599.31	   54.06
     57.6569	   88.00	   66.07	 -579.07	   54.02
     57.6903	   62.00	   65.92	 -604.92	   53.98
     57.7237	   69.00	   65.72	 -597.72	   53.95
     57.7572	   85.00	   65.53	 -581.53	   53.91
     57.7906	   71.00	   65.35	 -595.35	   53.88
     57.8240	   71.00	   65.18	 -595.18	   53.84
     57.8574	   77.00	   65.06	 -589.06	   53.80
     57.8908	   74.00	   64.92	 -591.92	   53.77
     57.9243	   62.00	   64.78	 -603.78	   53.73
     57.9577	   71.00	   64.65	 -594.65	   53.70
     57.9911	   84.00	   64.53	 -581.53	   53.66
     58.0245	   76.00	   64.41	 -589.41	   53.63
     58.0580	   54.00	   64.30	 -611.30	   53.59
     58.0914	   55.00	   64.20	 -610.20	   53.55
     58.1248	   72.00	   64.10	 -593.10	   53.52
     58.1582	   66.00	   64.00	 -599.00	   53.48
     58.1917	   55.00	   63.91	 -609.91	   53.45
     58.2251	   61.00	   63.82	 -603.82	   53.41
     58.2585	   62.00	   63.74	 -602.74	   53.38
     58.2919	   72.00	   63.65	 -592.65	   53.34
     58.3253	   66.00	   63.57	 -598.57	   53.31
     58.3588	   66.00	   63.50	 -598.50	   53.27
     58.3922	   66.00	   63.42	 -598.42	   53.24
     58.4256	   61.00	   63.35	 -603.35	   53.20
     58.4590	   61.00	   63.28	 -603.28	   53.17
     58.4925	   57.00	   63.21	 -607.21	   53.13
     58.5259	   52.00	   63.15	 -612.15	   53.10
     58.5593	   73.00	   63.09	 -591.09	   53.06
     58.5927	   61.00	   63.02	 -603.02	   53.03
     58.6261	   49.00	   62.96	 -614.96	   52.99
     58.6596	   45.00	   62.90	 -618.90	   52.96
     58.6930	   58.00	   62.85	 -605.85	   52.92
     58.7264	   55.00	   62.79	 -608.79	   52.89
     58.7598	   59.00	   62.73	 -604.73	   52.85
     58.7933	   63.00	   62.68	 -600.68	   52.82
     58.8267	   63.00	   62.63	 -600.63	   52.78
     58.8601	   62.00	   62.58	 -601.58	   52.75
     58.8935	   65.00	   62.52	 -598.52	   52.72
     58.9269	   72.00	   62.47	 -591.47	   52.68
     58.9604	   60.00	   62.43	 -603.43	   52.65
     58.9938	   74.00	   62.38	 -589.38	   52.61
     59.0272	   66.00	   62.33	 -597.33	   52.58
     59.0606	   56.00	   62.28	 -607.28	   52.54
     59.0941	   54.00	   62.24	 -609.24	   52.51
     59.1275	   74.00	   62.19	 -589.19	   52.48
     59.1609	   56.00	   62.15	 -607.15	   52.44
     59.1943	   55.00	   62.11	 -608.11	   52.41
     59.2277	   60.00	   62.06	 -603.06	   52.37
     59.2612	   71.00	   62.02	 -592.02	   52.34
     59.2946	   65.00	   61.98	 -597.98	   52.31
     59.3280	   71.00	   61.94	 -591.94	   52.27
     59.3614	   65.00	   61.90	 -597.90	   52.24
     59.3949	   58.00	   61.86	 -604.86	   52.21
     59.4283	   78.00	   61.82	 -584.82	   52.17
     59.4617	   73.00	   61.78	 -589.78	   52.14
     59.4951	   59.00	   61.74	 -603.74	   52.10
     59.5285	   55.00	   61.70	 -607.70	   52.07
     59.5620	   54.00	   61.66	 -608.66	   52.04
     59.5954	   58.00	   61.63	 -604.63	   52.00
     59.6288	   61.00	   61.59	 -601.59	   51.97
     59.6622	   62.00	   61.56	 -600.56	   51.94
     59.6957	   47.00	   61.52	 -615.52	   51.90
     59.7291	   52.00	   61.49	 -610.49	   51.87
     59.7625	   55.00	   61.45	 -607.45	   51.84
     59.7959	   70.00	   61.42	 -592.42	   51.80
     59.8294	   66.00	   61.38	 -596.38	   51.77
     59.8628	   64.00	   61.35	 -598.35	   51.74
     59.8962	   70.00	   61.32	 -592.32	   51.70
     59.9296	   61.00	   61.29	 -601.29	   51.67
     59.9630	   50.00	   61.26	 -612.26	   51.64
     59.9965	   57.00	   61.22	 -605.22	   51.61
     60.0299	   59.00	   61.19	 -603.19	   51.57
     60.0633	   61.00	   61.16	 -601.16	   51.54
     60.0967	   56.00	   61.14	 -606.14	   51.51
     60.1302	   55.00	   61.11	 -607.11	   51.47
     60.1636	   66.00	   61.08	 -596.08	   51.44
     60.1970	   65.00	   61.05	 -597.05	   51.41
     60.2304	   56.00	   61.02	 -606.02	   51.38
     60.2638	   66.00	   61.00	 -596.00	   51.34
     60.2973	   68.00	   60.97	 -593.97	   51.31
     60.3307	   62.00	   60.94	 -599.94	   51.28
     60.3641	   66.00	   60.92	 -595.92	   51.25
     60.3975	   68.00	   60.90	 -593.90	   51.21
     60.4310	   63.00	   60.87	 -598.87	   51.18
     60.4644	   63.00	   60.85	 -598.85	   51.15
     60.4978	   55.00	   60.83	 -606.83	   51.12
     60.5312	   62.00	   60.81	 -599.81	   51.09
     60.5647	   72.00	   60.78	 -589.78	   51.05
     60.5981	   60.00	   60.77	 -601.77	   51.02
     60.6315	   65.00	   60.75	 -596.75	   50.99
     60.6649	   56.00	   60.73	 -605.73	   50.96
     60.6983	   68.00	   60.71	 -593.71	   50.92
     60.7318	   69.00	   60.70	 -592.70	   50.89
     60.7652	   56.00	   60.68	 -605.68	   50.86
     60.7986	   47.00	   60.67	 -614.67	   50.83
     60.8320	   61.00	   60.65	 -600.65	   50.80
     60.8654	   66.00	   60.64	 -595.64	   50.77
     60.8989	   66.00	   60.63	 -595.63	   50.73
     60.9323	   70.00	   60.62	 -591.62	   50.70
     60.9657	   64.00	   60.62	 -597.62	   50.67
     60.9991	   74.00	   60.61	 -587.61	   50.64
     61.0326	   76.00	   60.61	 -585.61	   50.61
     61.0660	   59.00	   60.60	 -602.60	   50.58
     61.0994	   56.00	   60.61	 -605.61	   50.54
     61.1328	   69.00	   60.61	 -592.61	   50.51
     61.1663	   56.00	   60.62	 -605.62	   50.48
     61.1997	   62.00	   60.63	 -599.63	   50.45
     61.2331	   72.00	   60.63	 -589.63	   50.42
     61.2665	   69.00	   60.65	 -592.65	   50.39
     61.2999	   61.00	   60.67	 -600.67	   50.36
     61.3334	   78.00	   60.68	 -583.68	   50.33
     61.3668	   65.00	   60.71	 -596.71	   50.29
     61.4002	   49.00	   60.73	 -612.73	   50.26
     61.4336	   70.00	   60.76	 -591.76	   50.23
     61.4671	   50.00	   60.80	 -611.80	   50.20
     61.5005	   71.00	   60.84	 -590.84	   50.17
     61.5339	   60.00	   60.88	 -601.88	   50.14
     61.5673	   57.00	   60.93	 -604.93	   50.11
     61.6007	   62.00	   60.90	 -599.90	   50.08
     61.6342	   61.00	   60.97	 -600.97	   50.05
     61.6676	   68.00	   61.04	 -594.04	   50.02
     61.7010	   75.00	   61.13	 -587.13	   49.99
     61.7344	   71.00	   61.18	 -591.18	   49.95
     61.7679	   65.00	   61.29	 -597.29	   49.92
     61.8013	   60.00	   61.41	 -602.41	   49.89
     61.8347	   48.00	   61.54	 -614.54	   49.86
     61.8681	   49.00	   61.70	 -613.70	   49.83
     61.9016	   65.00	   61.87	 -597.87	   49.80
     61.9350	   65.00	   62.06	 -598.06	   49.77
     61.9684	   59.00	   62.28	 -604.28	   49.74
     62.0018	   55.00	   62.53	 -608.53	   49.71
     62.0352	   70.00	   62.82	 -593.82	   49.68
     62.0687	   74.00	   63.14	 -590.14	   49.65
     62.1021	   87.00	   63.52	 -577.52	   49.62
     62.1355	   61.00	   63.95	 -603.95	   49.59
     62.1689	   66.00	   64.45	 -599.45	   49.56
     62.2024	   74.00	   65.03	 -592.03	   49.53
     62.2358	   71.00	   65.71	 -595.71	   49.50
     62.2692	   72.00	   66.52	 -595.52	   49.47
     62.3026	   73.00	   67.48	 -595.48	   49.44
     62.3360	   69.00	   68.63	 -600.63	   49.41
     62.3695	   84.00	   70.03	 -587.03	   49.38
     62.4029	   72.00	   71.75	 -600.75	   49.35
     62.4363	   92.00	   73.90	 -582.90	   49.32
     62.4697	   86.00	   76.64	 -591.64	   49.29
     62.5032	  106.00	   80.24	 -575.24	   49.26
     62.5366	   97.00	   85.19	 -589.19	   49.23
     62.5700	   96.00	   92.43	 -597.43	   49.20
     62.6034	  123.00	  103.60	 -581.60	   49.17
     62.6368	  110.00	  121.30	 -612.30	   49.14
     62.6703	  118.00	  148.58	 -631.58	   49.11
     62.7037	  172.00	  188.28	 -617.28	   49.08
     62.7371	  186.00	  240.52	 -655.52	   49.06
     62.7705	  289.00	  297.54	 -609.54	   49.03
     62.8040	  407.00	  337.53	 -531.53	   49.00
     62.8374	  358.00	  338.52	 -581.52	   48.97
     62.8708	  276.00	  310.67	 -635.67	   48.94
     62.9042	  229.00	  281.58	 -653.58	   48.91
     62.9377	  223.00	  263.74	 -641.74	   48.88
     62.9711	  266.00	  250.52	 -585.52	   48.85
     63.0045	  257.00	  227.64	 -571.64	   48.82
     63.0379	  208.00	  193.59	 -586.59	   48.79
     63.0713	  141.00	  158.96	 -618.96	   48.76
     63.1048	  109.00	  130.74	 -622.74	   48.74
     63.1382	  109.00	  110.23	 -602.23	   48.71
     63.1716	  109.00	   96.26	 -588.26	   48.68
     63.2050	   97.00	   87.05	 -591.05	   48.65
     63.2384	  114.00	   80.95	 -567.95	   48.62
     63.2719	   87.00	   76.73	 -590.73	   48.59
     63.3053	   84.00	   73.66	 -590.66	   48.56
     63.3387	   99.00	   71.32	 -573.32	   48.53
     63.3721	   74.00	   69.46	 -596.46	   48.51
     63.4056	   65.00	   67.95	 -603.95	   48.48
     63.4390	   64.00	   66.71	 -603.71	   48.45
     63.4724	   57.00	   65.67	 -609.67	   48.42
     63.5058	   71.00	   64.80	 -594.80	   48.39
     63.5393	   65.00	   64.05	 -600.05	   48.36
     63.5727	   59.00	   63.40	 -605.40	   48.33
     63.6061	   83.00	   62.84	 -580.84	   48.31
     63.6395	   65.00	   62.35	 -598.35	   48.28
     63.6729	   48.00	   61.92	 -614.92	   48.25
     63.7064	   61.00	   61.54	 -601.54	   48.22
     63.7398	   58.00	   61.20	 -604.20	   48.19
     63.7732	   75.00	   60.92	 -586.92	   48.17
     63.8066	   75.00	   60.65	 -586.65	   48.14
     63.8401	   77.00	   60.40	 -584.40	   48.11
     63.8735	   58.00	   60.17	 -603.17	   48.08
     63.9069	   85.00	   59.96	 -575.96	   48.05
     63.9403	   60.00	   59.79	 -600.79	   48.03
     63.9737	   70.00	   59.62	 -590.62	   48.00
     64.0072	   59.00	   59.46	 -601.46	   47.97
     64.0406	   56.00	   59.31	 -604.31	   47.94
     64.0740	   60.00	   59.17	 -600.17	   47.91
     64.1074	   56.00	   59.04	 -604.04	   47.89
     64.1409	   56.00	   58.92	 -603.92	   47.86
     64.1743	   73.00	   58.81	 -586.81	   47.83
     64.2077	   59.00	   58.70	 -600.70	   47.80
     64.2411	   48.00	   58.61	 -611.61	   47.78
     64.2746	   65.00	   58.51	 -594.51	   47.75
     64.3080	   55.00	   58.43	 -604.43	   47.72
     64.3414	   68.00	   58.34	 -591.34	   47.69
     64.3748	   77.00	   58.26	 -582.27	   47.67
     64.4082	   70.00	   58.19	 -589.19	   47.64
     64.4417	   58.00	   58.12	 -601.12	   47.61
     64.4751	   51.00	   58.05	 -608.05	   47.59
     64.5085	   55.00	   57.99	 -603.99	   47.56
     64.5419	   59.00	   57.93	 -599.93	   47.53
     64.5754	   66.00	   57.87	 -592.87	   47.50
     64.6088	   63.00	   57.82	 -595.82	   47.48
     64.6422	   75.00	   57.77	 -583.77	   47.45
     64.6756	   77.00	   57.72	 -581.72	   47.42
     64.7090	   62.00	   57.67	 -596.67	   47.40
     64.7425	   66.00	   57.63	 -592.63	   47.37
     64.7759	   71.00	   57.58	 -587.58	   47.34
     64.8093	   64.00	   57.54	 -594.54	   47.31
     64.8427	   59.00	   57.50	 -599.50	   47.29
     64.8762	   41.00	   57.47	 -617.47	   47.26
     64.9096	   57.00	   57.43	 -601.43	   47.23
     64.9430	   63.00	   57.40	 -595.40	   47.21
     64.9764	   52.00	   57.37	 -606.37	   47.18
     65.0098	   58.00	   57.34	 -600.34	   47.15
     65.0433	   62.00	   57.31	 -596.31	   47.13
     65.0767	   62.00	   57.29	 -596.29	   47.10
     65.1101	   43.00	   57.27	 -615.27	   47.08
     65.1435	   66.00	   57.25	 -592.25	   47.05
     65.1770	   50.00	   57.23	 -608.23	   47.02
     65.2104	   63.00	   57.21	 -595.21	   47.00
     65.2438	   49.00	   57.20	 -609.20	   46.97
     65.2772	   69.00	   57.19	 -589.19	   46.94
     65.3106	   74.00	   57.18	 -584.18	   46.92
     65.3441	   69.00	   57.18	 -589.18	   46.89
     65.3775	   75.00	   57.18	 -583.18	   46.86
     65.4109	   55.00	   57.18	 -603.18	   46.84
     65.4443	   52.00	   57.18	 -606.18	   46.81
     65.4778	   64.00	   57.20	 -594.20	   46.79
     65.5112	   58.00	   57.21	 -600.21	   46.76
     65.5446	   69.00	   57.23	 -589.23	   46.73
     65.5780	   58.00	   57.26	 -600.26	   46.71
     65.6115	   71.00	   57.30	 -587.30	   46.68
     65.6449	   62.00	   57.34	 -596.34	   46.66
     65.6783	   54.00	   57.40	 -604.40	   46.63
     65.7117	   68.00	   57.47	 -590.47	   46.61
     65.7451	   55.00	   57.55	 -603.55	   46.58
     65.7786	   79.00	   57.65	 -579.65	   46.55
     65.8120	   63.00	   57.78	 -595.78	   46.53
     65.8454	   64.00	   57.93	 -594.93	   46.50
     65.8788	   66.00	   58.12	 -593.12	   46.48
     65.9123	   63.00	   58.35	 -596.35	   46.45
     65.9457	   69.00	   58.64	 -590.64	   46.43
     65.9791	   48.00	   59.02	 -612.02	   46.40
     66.0125	   72.00	   59.51	 -588.51	   46.37
     66.0459	   75.00	   60.18	 -586.18	   46.35
     66.0794	   60.00	   61.15	 -602.15	   46.32
     66.1128	   51.00	   62.64	 -612.64	   46.30
     66.1462	   84.00	   64.97	 -581.97	   46.27
     66.1796	   62.00	   68.57	 -607.57	   46.25
     66.2131	   75.00	   73.82	 -599.82	   46.22
     66.2465	   81.00	   80.83	 -600.83	   46.20
     66.2799	  111.00	   88.78	 -578.78	   46.17
     66.3133	  108.00	   95.03	 -588.03	   46.15
     66.3467	  108.00	   96.19	 -589.19	   46.12
     66.3802	  104.00	   92.62	 -589.62	   46.10
     66.4136	   79.00	   88.12	 -610.12	   46.07
     66.4470	   64.00	   85.17	 -622.17	   46.05
     66.4804	   88.00	   83.74	 -596.74	   46.02
     66.5139	  103.00	   81.95	 -579.95	   46.00
     66.5473	   78.00	   78.30	 -601.30	   45.97
     66.5807	   65.00	   73.55	 -609.55	   45.95
     66.6141	   63.00	   69.16	 -607.16	   45.92
     66.6476	   58.00	   65.75	 -608.75	   45.90
     66.6810	   66.00	   63.34	 -598.34	   45.87
     66.7144	   82.00	   61.74	 -580.74	   45.85
     66.7478	   63.00	   60.70	 -598.70	   45.82
     66.7812	   72.00	   60.04	 -589.04	   45.80
     66.8147	   71.00	   59.61	 -589.61	   45.78
     66.8481	   66.00	   59.32	 -594.32	   45.75
     66.8815	   49.00	   59.13	 -611.13	   45.73
     66.9149	   62.00	   59.01	 -598.01	   45.70
     66.9484	   44.00	   58.95	 -615.95	   45.68
     66.9818	   81.00	   58.94	 -578.94	   45.65
     67.0152	   71.00	   58.98	 -588.98	   45.63
     67.0486	   59.00	   59.06	 -601.06	   45.61
     67.0820	   62.00	   59.18	 -598.18	   45.58
     67.1155	   63.00	   59.34	 -597.34	   45.56
     67.1489	   69.00	   59.56	 -591.56	   45.53
     67.1823	   69.00	   59.81	 -591.81	   45.51
     67.2157	   66.00	   60.13	 -595.13	   45.48
     67.2492	   65.00	   60.50	 -596.50	   45.46
     67.2826	   59.00	   60.95	 -602.95	   45.44
     67.3160	   62.00	   61.49	 -600.49	   45.41
     67.3494	   69.00	   62.13	 -594.13	   45.39
     67.3828	   82.00	   62.90	 -581.90	   45.36
     67.4163	   78.00	   63.83	 -586.83	   45.34
     67.4497	   82.00	   64.95	 -583.95	   45.32
     67.4831	   78.00	   66.34	 -589.34	   45.29
     67.5165	   68.00	   68.07	 -601.07	   45.27
     67.5500	   91.00	   70.26	 -580.26	   45.25
     67.5834	  100.00	   73.12	 -574.12	   45.22
     67.6168	  105.00	   77.01	 -573.01	   45.20
     67.6502	  106.00	   82.61	 -577.61	   45.17
     67.6836	  106.00	   91.11	 -586.11	   45.15
     67.7171	  129.00	  104.37	 -576.37	   45.13
     67.7505	  109.00	  124.79	 -616.79	   45.10
     67.7839	  136.00	  154.66	 -619.66	   45.08
     67.8173	  192.00	  194.66	 -603.66	   45.06
     67.8508	  259.00	  240.62	 -582.62	   45.03
     67.8842	  326.00	  278.20	 -553.20	   45.01
     67.9176	  331.00	  287.28	 -557.28	   44.99
     67.9510	  258.00	  267.56	 -610.56	   44.96
     67.9845	  181.00	  240.26	 -660.26	   44.94
     68.0179	  156.00	  221.47	 -666.47	   44.92
     68.0513	  218.00	  212.91	 -595.91	   44.89
     68.0847	  221.00	  205.25	 -585.25	   44.87
     68.1181	  196.00	  187.51	 -592.51	   44.85
     68.1516	  153.00	  160.97	 -608.97	   44.83
     68.1850	  118.00	  134.47	 -617.47	   44.80
     68.2184	  103.00	  112.97	 -610.97	   44.78
     68.2518	   86.00	   97.32	 -612.32	   44.76
     68.2853	   92.00	   86.65	 -595.65	   44.73
     68.3187	   84.00	   79.62	 -596.62	   44.71
     68.3521	   71.00	   75.00	 -605.00	   44.69
     68.3855	   91.00	   71.87	 -581.87	   44.66
     68.4189	   72.00	   69.67	 -598.67	   44.64
     68.4524	   70.00	   68.09	 -599.09	   44.62
     68.4858	   63.00	   66.94	 -604.94	   44.60
     68.5192	   84.00	   66.13	 -583.13	   44.57
     68.5526	   70.00	   65.62	 -596.62	   44.55
     68.5861	   81.00	   65.37	 -585.37	   44.53
     68.6195	   72.00	   65.38	 -594.38	   44.51
     68.6529	   81.00	   65.67	 -585.67	   44.48
     68.6863	   74.00	   66.28	 -593.28	   44.46
     68.7197	   78.00	   67.30	 -590.30	   44.44
     68.7532	   83.00	   68.91	 -586.91	   44.42
     68.7866	   92.00	   71.44	 -580.44	   44.39
     68.8200	   99.00	   75.48	 -577.48	   44.37
     68.8534	   72.00	   81.99	 -610.99	   44.35
     68.8869	   95.00	   92.16	 -598.16	   44.33
     68.9203	   87.00	  107.17	 -621.17	   44.30
     68.9537	  108.00	  127.40	 -620.40	   44.28
     68.9871	  141.00	  150.83	 -610.83	   44.26
     69.0206	  188.00	  170.28	 -583.28	   44.24
     69.0540	  199.00	  175.41	 -577.41	   44.22
     69.0874	  153.00	  165.39	 -613.39	   44.19
     69.1208	  121.00	  150.89	 -630.89	   44.17
     69.1542	  129.00	  140.53	 -612.53	   44.15
     69.1877	  129.00	  135.83	 -607.83	   44.13
     69.2211	  142.00	  132.55	 -591.55	   44.11
     69.2545	  135.00	  124.60	 -590.60	   44.08
     69.2879	  123.00	  111.46	 -589.46	   44.06
     69.3214	   90.00	   97.51	 -608.51	   44.04
     69.3548	   84.00	   85.81	 -602.81	   44.02
     69.3882	   60.00	   77.10	 -618.10	   44.00
     69.4216	   58.00	   71.04	 -614.04	   43.98
     69.4550	   75.00	   66.97	 -592.97	   43.95
     69.4885	   70.00	   64.23	 -595.23	   43.93
     69.5219	   72.00	   62.33	 -591.33	   43.91
     69.5553	   66.00	   60.93	 -595.93	   43.89
     69.5887	   69.00	   59.86	 -591.86	   43.87
     69.6222	   54.00	   59.00	 -606.00	   43.85
     69.6556	   56.00	   58.30	 -603.30	   43.82
     69.6890	   78.00	   57.71	 -580.71	   43.80
     69.7224	   69.00	   57.22	 -589.22	   43.78
     69.7558	   68.00	   56.79	 -589.79	   43.76
     69.7893	   63.00	   56.43	 -594.43	   43.74
     69.8227	   51.00	   56.11	 -606.11	   43.72
     69.8561	   64.00	   55.82	 -592.82	   43.70
     69.8895	   54.00	   55.57	 -602.57	   43.68
     69.9230	   57.00	   55.35	 -599.35	   43.65
     69.9564	   50.00	   55.15	 -606.15	   43.63
     69.9898	   70.00	   54.97	 -585.97	   43.61
     70.0232	   63.00	   54.80	 -592.80	   43.59
     70.0566	   56.00	   54.65	 -599.65	   43.57
     70.0901	   57.00	   54.52	 -598.52	   43.55
     70.1235	   62.00	   54.39	 -593.39	   43.53
     70.1569	   54.00	   54.27	 -601.27	   43.51
     70.1903	   64.00	   54.16	 -591.16	   43.49
     70.2238	   52.00	   54.06	 -603.06	   43.46
     70.2572	   57.00	   53.96	 -597.96	   43.44
     70.2906	   63.00	   53.87	 -591.87	   43.42
     70.3240	   42.00	   53.79	 -612.79	   43.40
     70.3575	   74.00	   53.71	 -580.71	   43.38
     70.3909	   68.00	   53.63	 -586.63	   43.36
     70.4243	   70.00	   53.56	 -584.56	   43.34
     70.4577	   45.00	   53.49	 -609.49	   43.32
     70.4911	   45.00	   53.43	 -609.43	   43.30
     70.5246	   58.00	   53.37	 -596.37	   43.28
     70.5580	   35.00	   53.31	 -619.31	   43.26
     70.5914	   60.00	   53.25	 -594.25	   43.24
     70.6248	   32.00	   53.20	 -622.20	   43.22
     70.6583	   63.00	   53.15	 -591.15	   43.20
     70.6917	   62.00	   53.10	 -592.10	   43.18
     70.7251	   51.00	   53.05	 -603.05	   43.16
     70.7585	   58.00	   53.00	 -596.00	   43.14
     70.7919	   47.00	   52.96	 -606.96	   43.12
     70.8254	   49.00	   52.91	 -604.91	   43.09
     70.8588	   50.00	   52.87	 -603.87	   43.07
     70.8922	   49.00	   52.83	 -604.83	   43.05
     70.9256	   57.00	   52.79	 -596.79	   43.03
     70.9591	   61.00	   52.75	 -592.75	   43.01
     70.9925	   51.00	   52.72	 -602.72	   42.99
     71.0259	   66.00	   52.68	 -587.68	   42.97
     71.0593	   54.00	   52.65	 -599.65	   42.95
     71.0928	   63.00	   52.62	 -590.62	   42.93
     71.1262	   59.00	   52.58	 -594.58	   42.91
     71.1596	   48.00	   52.55	 -605.55	   42.89
     71.1930	   46.00	   52.52	 -607.52	   42.87
     71.2264	   46.00	   52.49	 -607.49	   42.85
     71.2599	   63.00	   52.47	 -590.47	   42.83
     71.2933	   68.00	   52.44	 -585.44	   42.81
     71.3267	   54.00	   52.41	 -599.41	   42.79
     71.3601	   61.00	   52.39	 -592.39	   42.77
     71.3936	   54.00	   52.37	 -599.37	   42.76
     71.4270	   69.00	   52.35	 -584.35	   42.74
     71.4604	   61.00	   52.33	 -592.33	   42.72
     71.4938	   47.00	   52.31	 -606.31	   42.70
     71.5272	   45.00	   52.29	 -608.29	   42.68
     71.5607	   64.00	   52.27	 -589.27	   42.66
     71.5941	   58.00	   52.25	 -595.25	   42.64
     71.6275	   50.00	   52.25	 -603.25	   42.62
     71.6609	   48.00	   52.23	 -605.23	   42.60
     71.6944	   55.00	   52.23	 -598.23	   42.58
     71.7278	   47.00	   52.22	 -606.22	   42.56
     71.7612	   43.00	   52.21	 -610.21	   42.54
     71.7946	   48.00	   52.22	 -605.22	   42.52
     71.8280	   69.00	   52.22	 -584.22	   42.50
     71.8615	   52.00	   52.23	 -601.23	   42.48
     71.8949	   64.00	   52.25	 -589.25	   42.46
     71.9283	   55.00	   52.27	 -598.27	   42.44
     71.9617	   55.00	   52.30	 -598.30	   42.43
     71.9952	   50.00	   52.35	 -603.35	   42.41
     72.0286	   52.00	   52.40	 -601.40	   42.39
     72.0620	   59.00	   52.47	 -594.47	   42.37
     72.0954	   50.00	   52.56	 -603.56	   42.35
     72.1288	   65.00	   52.68	 -588.68	   42.33
     72.1623	   58.00	   52.84	 -595.84	   42.31
     72.1957	   52.00	   53.04	 -602.04	   42.29
     72.2291	   44.00	   53.33	 -610.33	   42.27
     72.2625	   59.00	   53.74	 -595.74	   42.25
     72.2960	   47.00	   54.37	 -608.37	   42.24
     72.3294	   43.00	   55.35	 -613.35	   42.22
     72.3628	   59.00	   56.86	 -598.86	   42.20
     72.3962	   58.00	   59.09	 -602.09	   42.18
     72.4296	   56.00	   62.16	 -607.16	   42.16
     72.4631	   75.00	   65.85	 -591.85	   42.14
     72.4965	   57.00	   69.30	 -613.30	   42.12
     72.5299	   62.00	   70.86	 -609.86	   42.10
     72.5633	   64.00	   69.77	 -606.77	   42.09
     72.5968	   78.00	   67.36	 -590.36	   42.07
     72.6302	   58.00	   65.27	 -608.27	   42.05
     72.6636	   58.00	   64.18	 -607.18	   42.03
     72.6970	   56.00	   63.84	 -608.84	   42.01
     72.7305	   55.00	   63.32	 -609.32	   41.99
     72.7639	   60.00	   61.85	 -602.85	   41.97
     72.7973	   56.00	   59.69	 -604.69	   41.96
     72.8307	   46.00	   57.55	 -612.55	   41.94
     72.8641	   62.00	   55.81	 -594.81	   41.92
     72.8976	   59.00	   54.52	 -596.52	   41.90
     72.9310	   50.00	   53.63	 -604.63	   41.88
     72.9644	   52.00	   53.03	 -602.03	   41.87
     72.9978	   49.00	   52.61	 -604.61	   41.85
     73.0313	   57.00	   52.32	 -596.32	   41.83
     73.0647	   47.00	   52.10	 -606.10	   41.81
     73.0981	   62.00	   51.92	 -590.92	   41.79
     73.1315	   33.00	   51.78	 -619.78	   41.77
     73.1649	   54.00	   51.66	 -598.66	   41.76
     73.1984	   60.00	   51.50	 -592.50	   41.74
     73.2318	   57.00	   51.41	 -595.41	   41.72
     73.2652	   55.00	   51.33	 -597.33	   41.70
     73.2986	   47.00	   51.26	 -605.26	   41.68
     73.3321	   48.00	   51.20	 -604.20	   41.67
     73.3655	   48.00	   51.14	 -604.14	   41.65
     73.3989	   51.00	   51.06	 -601.06	   41.63
     73.4323	   50.00	   51.01	 -602.01	   41.61
     73.4658	   46.00	   50.97	 -605.97	   41.60
     73.4992	   52.00	   50.93	 -599.93	   41.58
     73.5326	   57.00	   50.89	 -594.89	   41.56
     73.5660	   47.00	   50.86	 -604.86	   41.54
     73.5994	   55.00	   50.82	 -596.82	   41.52
     73.6329	   50.00	   50.79	 -601.79	   41.51
     73.6663	   54.00	   50.76	 -597.76	   41.49
     73.6997	   45.00	   50.73	 -606.73	   41.47
     73.7331	   47.00	   50.70	 -604.70	   41.45
     73.7665	   49.00	   50.67	 -602.67	   41.44
     73.8000	   59.00	   50.65	 -592.65	   41.42
     73.8334	   56.00	   50.62	 -595.62	   41.40
     73.8668	   52.00	   50.59	 -599.59	   41.38
     73.9002	   43.00	   50.57	 -608.57	   41.37
     73.9337	   49.00	   50.55	 -602.55	   41.35
     73.9671	   60.00	   50.52	 -591.52	   41.33
     74.0005	   56.00	   50.50	 -595.50	   41.32
     74.0339	   56.00	   50.48	 -595.48	   41.30
     74.0674	   52.00	   50.46	 -599.46	   41.28
     74.1008	   52.00	   50.43	 -599.43	   41.26
     74.1342	   55.00	   50.41	 -596.41	   41.25
     74.1676	   42.00	   50.39	 -609.39	   41.23
     74.2010	   48.00	   50.37	 -603.37	   41.21
     74.2345	   50.00	   50.35	 -601.35	   41.20
     74.2679	   62.00	   50.33	 -589.33	   41.18
     74.3013	   62.00	   50.31	 -589.31	   41.16
     74.3347	   51.00	   50.29	 -600.29	   41.14
     74.3682	   57.00	   50.24	 -594.24	   41.13
     74.4016	   45.00	   50.22	 -606.22	   41.11
     74.4350	   52.00	   50.21	 -599.21	   41.09
     74.4684	   44.00	   50.19	 -607.19	   41.08
     74.5018	   59.00	   50.17	 -592.17	   41.06
     74.5353	   55.00	   50.15	 -596.15	   41.04
     74.5687	   54.00	   50.12	 -597.12	   41.03
     74.6021	   44.00	   50.10	 -607.10	   41.01
     74.6355	   42.00	   50.09	 -609.09	   40.99
     74.6690	   38.00	   50.07	 -613.07	   40.98
     74.7024	   42.00	   50.05	 -609.05	   40.96
     74.7358	   52.00	   50.04	 -599.04	   40.94
     74.7692	   55.00	   50.02	 -596.02	   40.93
     74.8027	   42.00	   50.01	 -609.01	   40.91
     74.8361	   56.00	   49.99	 -594.99	   40.89
     74.8695	   50.00	   49.98	 -600.98	   40.88
     74.9029	   54.00	   49.96	 -596.96	   40.86
     74.9363	   56.00	   49.95	 -594.95	   40.84
     74.9698	   44.00	   49.93	 -606.93	   40.83
     75.0032	   54.00	   49.92	 -596.92	   40.81
     75.0366	   62.00	   49.90	 -588.90	   40.80
     75.0700	   52.00	   49.89	 -598.89	   40.78
     75.1035	   50.00	   49.87	 -600.87	   40.76
     75.1369	   44.00	   49.86	 -606.86	   40.75
     75.1703	   47.00	   49.85	 -603.85	   40.73
     75.2037	   52.00	   49.83	 -598.83	   40.71
     75.2371	   50.00	   49.82	 -600.82	   40.70
     75.2706	   61.00	   49.81	 -589.81	   40.68
     75.3040	   63.00	   49.80	 -587.80	   40.67
     75.3374	   43.00	   49.79	 -607.79	   40.65
     75.3708	   50.00	   49.77	 -600.77	   40.63
     75.4043	   52.00	   49.76	 -598.76	   40.62
     75.4377	   51.00	   49.75	 -599.75	   40.60
     75.4711	   61.00	   49.74	 -589.74	   40.59
     75.5045	   49.00	   49.73	 -601.73	   40.57
     75.5379	   50.00	   49.72	 -600.72	   40.55
     75.5714	   39.00	   49.72	 -611.72	   40.54
     75.6048	   55.00	   49.71	 -595.71	   40.52
     75.6382	   56.00	   49.70	 -594.70	   40.51
     75.6716	   46.00	   49.70	 -604.70	   40.49
     75.7051	   66.00	   49.69	 -584.69	   40.47
     75.7385	   42.00	   49.69	 -608.69	   40.46
     75.7719	   48.00	   49.69	 -602.69	   40.44
     75.8053	   49.00	   49.69	 -601.69	   40.43
     75.8387	   54.00	   49.68	 -596.68	   40.41
     75.8722	   56.00	   49.69	 -594.69	   40.40
     75.9056	   47.00	   49.69	 -603.69	   40.38
     75.9390	   56.00	   49.69	 -594.69	   40.36
     75.9724	   49.00	   49.70	 -601.70	   40.35
     76.0059	   52.00	   49.71	 -598.71	   40.33
     76.0393	   58.00	   49.72	 -592.72	   40.32
     76.0727	   57.00	   49.73	 -593.73	   40.30
     76.1061	   46.00	   49.75	 -604.75	   40.29
     76.1395	   47.00	   49.77	 -603.77	   40.27
     76.1730	   43.00	   49.80	 -607.80	   40.26
     76.2064	   54.00	   49.84	 -596.84	   40.24
     76.2398	   51.00	   49.87	 -599.87	   40.23
     76.2732	   57.00	   49.92	 -593.92	   40.21
     76.3067	   68.00	   49.98	 -582.98	   40.19
     76.3401	   58.00	   50.05	 -593.05	   40.18
     76.3735	   56.00	   50.14	 -595.14	   40.16
     76.4069	   59.00	   50.24	 -592.24	   40.15
     76.4404	   61.00	   50.36	 -590.36	   40.13
     76.4738	   57.00	   50.52	 -594.52	   40.12
     76.5072	   66.00	   50.71	 -585.71	   40.10
     76.5406	   55.00	   50.96	 -596.96	   40.09
     76.5740	   55.00	   51.27	 -597.27	   40.07
     76.6075	   58.00	   51.70	 -594.70	   40.06
     76.6409	   59.00	   52.29	 -594.29	   40.04
     76.6743	   48.00	   53.16	 -606.16	   40.03
     76.7077	   59.00	   54.50	 -596.50	   40.01
     76.7412	   62.00	   56.54	 -595.54	   40.00
     76.7746	   58.00	   59.56	 -602.56	   39.98
     76.8080	   55.00	   63.75	 -609.75	   39.97
     76.8414	   69.00	   69.01	 -601.01	   39.95
     76.8748	   69.00	   74.45	 -606.45	   39.94
     76.9083	   87.00	   77.96	 -591.96	   39.92
     76.9417	   86.00	   77.61	 -592.61	   39.91
     76.9751	   69.00	   74.29	 -606.29	   39.89
     77.0085	   76.00	   70.59	 -595.59	   39.88
     77.0420	   49.00	   68.13	 -620.13	   39.87
     77.0754	   83.00	   67.22	 -585.22	   39.85
     77.1088	   68.00	   67.18	 -600.18	   39.84
     77.1422	  100.00	   66.56	 -567.56	   39.82
     77.1757	   58.00	   64.40	 -607.40	   39.81
     77.2091	   51.00	   61.28	 -611.28	   39.79
     77.2425	   48.00	   58.22	 -611.22	   39.78
     77.2759	   51.00	   55.72	 -605.72	   39.76
     77.3093	   46.00	   53.88	 -608.88	   39.75
     77.3428	   57.00	   52.59	 -596.59	   39.73
     77.3762	   60.00	   51.71	 -592.71	   39.72
     77.4096	   43.00	   51.11	 -609.11	   39.71
     77.4430	   54.00	   50.68	 -597.68	   39.69
     77.4765	   37.00	   50.37	 -614.37	   39.68
     77.5099	   46.00	   50.12	 -605.12	   39.66
     77.5433	   51.00	   49.92	 -599.92	   39.65
     77.5767	   35.00	   49.75	 -615.75	   39.63
     77.6101	   61.00	   49.61	 -589.61	   39.62
     77.6436	   49.00	   49.49	 -601.49	   39.61
     77.6770	   54.00	   49.39	 -596.39	   39.59
     77.7104	   44.00	   49.30	 -606.30	   39.58
     77.7438	   49.00	   49.22	 -601.22	   39.56
     77.7773	   57.00	   49.15	 -593.15	   39.55
     77.8107	   56.00	   49.09	 -594.09	   39.54
     77.8441	   57.00	   49.03	 -593.03	   39.52
     77.8775	   54.00	   48.98	 -595.98	   39.51
     77.9109	   48.00	   48.93	 -601.93	   39.49
     77.9444	   70.00	   48.88	 -579.88	   39.48
     77.9778	   48.00	   48.84	 -601.84	   39.47
     78.0112	   42.00	   48.80	 -607.80	   39.45
     78.0446	   59.00	   48.76	 -590.76	   39.44
     78.0781	   50.00	   48.73	 -599.73	   39.42
     78.1115	   45.00	   48.70	 -604.70	   39.41
     78.1449	   56.00	   48.66	 -593.66	   39.40
     78.1783	   47.00	   48.63	 -602.63	   39.38
     78.2117	   48.00	   48.61	 -601.61	   39.37
     78.2452	   64.00	   48.58	 -585.58	   39.35
     78.2786	   43.00	   48.56	 -606.56	   39.34
     78.3120	   54.00	   48.53	 -595.53	   39.33
     78.3454	   64.00	   48.51	 -585.51	   39.31
     78.3789	   66.00	   48.48	 -583.48	   39.30
     78.4123	   50.00	   48.46	 -599.46	   39.29
     78.4457	   61.00	   48.44	 -588.44	   39.27
     78.4791	   47.00	   48.42	 -602.42	   39.26
     78.5126	   55.00	   48.40	 -594.40	   39.25
     78.5460	   52.00	   48.38	 -597.38	   39.23
     78.5794	   39.00	   48.36	 -610.36	   39.22
     78.6128	   38.00	   48.34	 -611.34	   39.20
     78.6462	   58.00	   48.32	 -591.32	   39.19
     78.6797	   43.00	   48.31	 -606.31	   39.18
     78.7131	   43.00	   48.29	 -606.29	   39.16
     78.7465	   55.00	   48.27	 -594.27	   39.15
     78.7799	   57.00	   48.26	 -592.26	   39.14
     78.8134	   45.00	   48.24	 -604.24	   39.12
     78.8468	   50.00	   48.22	 -599.22	   39.11
     78.8802	   43.00	   48.21	 -606.21	   39.10
     78.9136	   50.00	   48.19	 -599.19	   39.08
     78.9470	   57.00	   48.17	 -592.17	   39.07
     78.9805	   48.00	   48.16	 -601.16	   39.06
     79.0139	   55.00	   48.14	 -594.14	   39.05
     79.0473	   54.00	   48.13	 -595.13	   39.03
     79.0807	   45.00	   48.11	 -604.11	   39.02
     79.1142	   46.00	   48.10	 -603.10	   39.01
     79.1476	   48.00	   48.09	 -601.09	   38.99
     79.1810	   54.00	   48.07	 -595.07	   38.98
     79.2144	   42.00	   48.06	 -607.06	   38.97
     79.2478	   43.00	   48.04	 -606.04	   38.95
     79.2813	   48.00	   48.03	 -601.03	   38.94
     79.3147	   54.00	   48.02	 -595.02	   38.93
     79.3481	   54.00	   48.00	 -595.00	   38.92
     79.3815	   57.00	   47.99	 -591.99	   38.90
     79.4150	   39.00	   47.98	 -609.98	   38.89
     79.4484	   47.00	   47.96	 -601.96	   38.88
     79.4818	   42.00	   47.95	 -606.95	   38.86
     79.5152	   52.00	   47.94	 -596.94	   38.85
     79.5487	   49.00	   47.93	 -599.93	   38.84
     79.5821	   49.00	   47.91	 -599.91	   38.83
     79.6155	   65.00	   47.90	 -583.90	   38.81
     79.6489	   63.00	   47.89	 -585.89	   38.80
     79.6823	   54.00	   47.88	 -594.88	   38.79
     79.7158	   51.00	   47.87	 -597.87	   38.77
     79.7492	   44.00	   47.86	 -604.86	   38.76
     79.7826	   57.00	   47.85	 -591.85	   38.75
     79.8160	   60.00	   47.84	 -588.84	   38.74
     79.8494	   47.00	   47.83	 -601.83	   38.72
     79.8829	   46.00	   47.82	 -602.82	   38.71
     79.9163	   56.00	   47.81	 -592.81	   38.70
     79.9497	   43.00	   47.80	 -605.80	   38.69
     79.9831	   56.00	   47.79	 -592.79	   38.67
     80.0166	   52.00	   47.78	 -596.78	   38.66
     80.0500	   51.00	   47.77	 -597.77	   38.65
     80.0834	   50.00	   47.76	 -598.76	   38.64
     80.1168	   44.00	   47.76	 -604.76	   38.62
     80.1503	   48.00	   47.75	 -600.75	   38.61
     80.1837	   61.00	   47.75	 -587.75	   38.60
     80.2171	   49.00	   47.74	 -599.74	   38.59
     80.2505	   56.00	   47.74	 -592.73	   38.58
     80.2839	   55.00	   47.73	 -593.73	   38.56
     80.3174	   60.00	   47.73	 -588.73	   38.55
     80.3508	   59.00	   47.73	 -589.73	   38.54
     80.3842	   55.00	   47.73	 -593.73	   38.53
     80.4176	   61.00	   47.73	 -587.73	   38.51
     80.4511	   51.00	   47.73	 -597.73	   38.50
     80.4845	   49.00	   47.73	 -599.73	   38.49
     80.5179	   54.00	   47.74	 -594.74	   38.48
     80.5513	   52.00	   47.74	 -596.74	   38.47
     80.5847	   34.00	   47.75	 -614.75	   38.45
     80.6182	   52.00	   47.77	 -596.77	   38.44
     80.6516	   44.00	   47.78	 -604.78	   38.43
     80.6850	   58.00	   47.81	 -590.81	   38.42
     80.7184	   48.00	   47.83	 -600.83	   38.41
     80.7519	   44.00	   47.86	 -604.86	   38.39
     80.7853	   65.00	   47.90	 -583.90	   38.38
     80.8187	   39.00	   47.95	 -609.95	   38.37
     80.8521	   44.00	   48.01	 -605.01	   38.36
     80.8856	   68.00	   48.09	 -581.09	   38.35
     80.9190	   45.00	   48.18	 -604.18	   38.33
     80.9524	   57.00	   48.30	 -592.30	   38.32
     80.9858	   56.00	   48.45	 -593.45	   38.31
     81.0192	   56.00	   48.65	 -593.65	   38.30
     81.0527	   56.00	   48.92	 -593.92	   38.29
     81.0861	   52.00	   49.32	 -598.32	   38.28
     81.1195	   58.00	   49.92	 -592.92	   38.26
     81.1529	   44.00	   50.82	 -607.82	   38.25
     81.1864	   65.00	   52.17	 -588.17	   38.24
     81.2198	   60.00	   54.08	 -595.08	   38.23
     81.2532	   57.00	   56.61	 -600.61	   38.22
     81.2866	   63.00	   59.52	 -597.52	   38.21
     81.3200	   59.00	   62.07	 -604.07	   38.19
     81.3535	   61.00	   63.05	 -603.05	   38.18
     81.3869	   68.00	   62.00	 -595.00	   38.17
     81.4203	   63.00	   59.91	 -597.91	   38.16
     81.4537	   46.00	   58.01	 -613.01	   38.15
     81.4872	   55.00	   56.89	 -602.89	   38.14
     81.5206	   44.00	   56.59	 -613.59	   38.13
     81.5540	   66.00	   56.73	 -591.73	   38.11
     81.5874	   60.00	   56.60	 -597.60	   38.10
     81.6208	   65.00	   55.64	 -591.64	   38.09
     81.6543	   62.00	   54.07	 -593.07	   38.08
     81.6877	   60.00	   52.44	 -593.44	   38.07
     81.7211	   50.00	   51.06	 -602.06	   38.06
     81.7545	   45.00	   50.01	 -606.01	   38.05
     81.7880	   56.00	   49.26	 -594.26	   38.04
     81.8214	   45.00	   48.75	 -604.75	   38.02
     81.8548	   45.00	   48.39	 -604.39	   38.01
     81.8882	   56.00	   48.14	 -593.14	   38.00
     81.9217	   55.00	   47.95	 -593.95	   37.99
     81.9551	   50.00	   47.80	 -598.80	   37.98
     81.9885	   64.00	   47.68	 -584.68	   37.97
     82.0219	   37.00	   47.59	 -611.59	   37.96
     82.0553	   49.00	   47.50	 -599.50	   37.95
     82.0888	   49.00	   47.43	 -599.43	   37.94
     82.1222	   60.00	   47.37	 -588.37	   37.92
     82.1556	   63.00	   47.31	 -585.31	   37.91
     82.1890	   50.00	   47.27	 -598.27	   37.90
     82.2225	   61.00	   47.22	 -587.22	   37.89
     82.2559	   49.00	   47.18	 -599.18	   37.88
     82.2893	   43.00	   47.15	 -605.15	   37.87
     82.3227	   56.00	   47.11	 -592.11	   37.86
     82.3561	   38.00	   47.08	 -610.08	   37.85
     82.3896	   47.00	   47.05	 -601.05	   37.84
     82.4230	   44.00	   47.03	 -604.03	   37.83
     82.4564	   64.00	   47.00	 -584.00	   37.82
     82.4898	   57.00	   46.97	 -590.97	   37.80
     82.5233	   45.00	   46.95	 -602.95	   37.79
     82.5567	   51.00	   46.93	 -596.93	   37.78
     82.5901	   51.00	   46.91	 -596.91	   37.77
     82.6235	   41.00	   46.89	 -606.89	   37.76
     82.6569	   42.00	   46.87	 -605.87	   37.75
     82.6904	   46.00	   46.85	 -601.85	   37.74
     82.7238	   55.00	   46.83	 -592.83	   37.73
     82.7572	   45.00	   46.81	 -602.81	   37.72
     82.7906	   46.00	   46.80	 -601.80	   37.71
     82.8241	   38.00	   46.78	 -609.78	   37.70
     82.8575	   42.00	   46.76	 -605.76	   37.69
     82.8909	   56.00	   46.75	 -591.75	   37.68
     82.9243	   47.00	   46.73	 -600.73	   37.67
     82.9577	   46.00	   46.72	 -601.72	   37.66
     82.9912	   48.00	   46.71	 -599.71	   37.65
     83.0246	   43.00	   46.69	 -604.69	   37.63
     83.0580	   41.00	   46.68	 -606.68	   37.62
     83.0914	   44.00	   46.66	 -603.66	   37.61
     83.1249	   59.00	   46.65	 -588.65	   37.60
     83.1583	   55.00	   46.64	 -592.64	   37.59
     83.1917	   51.00	   46.62	 -596.62	   37.58
     83.2251	   52.00	   46.61	 -595.61	   37.57
     83.2586	   36.00	   46.60	 -611.60	   37.56
     83.2920	   50.00	   46.59	 -597.59	   37.55
     83.3254	   41.00	   46.57	 -606.57	   37.54
     83.3588	   61.00	   46.56	 -586.56	   37.53
     83.3922	   59.00	   46.55	 -588.55	   37.52
     83.4257	   48.00	   46.54	 -599.54	   37.51
     83.4591	   45.00	   46.53	 -602.53	   37.50
     83.4925	   46.00	   46.51	 -601.51	   37.49
     83.5259	   59.00	   46.50	 -588.50	   37.48
     83.5594	   56.00	   46.49	 -591.49	   37.47
     83.5928	   56.00	   46.49	 -591.49	   37.46
     83.6262	   45.00	   46.48	 -602.48	   37.45
     83.6596	   64.00	   46.47	 -583.47	   37.44
     83.6930	   37.00	   46.46	 -610.46	   37.43
     83.7265	   60.00	   46.45	 -587.45	   37.42
     83.7599	   50.00	   46.44	 -597.44	   37.41
     83.7933	   57.00	   46.42	 -590.42	   37.40
     83.8267	   57.00	   46.41	 -590.41	   37.39
     83.8602	   55.00	   46.41	 -592.41	   37.38
     83.8936	   34.00	   46.40	 -613.40	   37.37
     83.9270	   44.00	   46.39	 -603.39	   37.36
     83.9604	   51.00	   46.38	 -596.38	   37.35
     83.9939	   47.00	   46.37	 -600.37	   37.34
     84.0273	   51.00	   46.36	 -596.36	   37.33
     84.0607	   57.00	   46.35	 -590.35	   37.32
     84.0941	   49.00	   46.33	 -598.33	   37.31
     84.1275	   32.00	   46.32	 -615.32	   37.30
     84.1610	   49.00	   46.31	 -598.31	   37.29
     84.1944	   54.00	   46.30	 -593.30	   37.28
     84.2278	   45.00	   46.29	 -602.29	   37.27
     84.2612	   42.00	   46.28	 -605.28	   37.26
     84.2946	   41.00	   46.27	 -606.27	   37.25
     84.3281	   51.00	   46.26	 -596.26	   37.24
     84.3615	   38.00	   46.25	 -609.25	   37.23
     84.3949	   50.00	   46.24	 -597.24	   37.22
     84.4283	   47.00	   46.23	 -600.23	   37.21
     84.4618	   58.00	   46.22	 -589.22	   37.20
     84.4952	   33.00	   46.21	 -614.21	   37.19
     84.5286	   35.00	   46.20	 -612.20	   37.19
     84.5620	   44.00	   46.20	 -603.20	   37.18
     84.5955	   37.00	   46.19	 -610.19	   37.17
     84.6289	   36.00	   46.18	 -611.18	   37.16
     84.6623	   54.00	   46.17	 -593.17	   37.15
     84.6957	   49.00	   46.16	 -598.16	   37.14
     84.7291	   44.00	   46.15	 -603.15	   37.13
     84.7626	   44.00	   46.14	 -603.14	   37.12
     84.7960	   59.00	   46.13	 -588.13	   37.11
     84.8294	   57.00	   46.12	 -590.12	   37.10
     84.8628	   61.00	   46.11	 -586.11	   37.09
     84.8963	   47.00	   46.10	 -600.10	   37.08
     84.9297	   36.00	   46.09	 -611.09	   37.07
     84.9631	   46.00	   46.08	 -601.08	   37.06
     84.9965	   32.00	   46.07	 -615.07	   37.05
     85.0299	   49.00	   46.06	 -598.06	   37.04
     85.0634	   57.00	   46.05	 -590.05	   37.03
     85.0968	   54.00	   46.05	 -593.04	   37.03
     85.1302	   46.00	   46.04	 -601.04	   37.02
     85.1636	   42.00	   46.03	 -605.03	   37.01
     85.1971	   49.00	   46.02	 -598.02	   37.00
     85.2305	   38.00	   46.01	 -609.01	   36.99
     85.2639	   46.00	   46.00	 -601.00	   36.98
     85.2973	   54.00	   45.99	 -592.99	   36.97
     85.3307	   41.00	   45.98	 -605.98	   36.96
     85.3642	   60.00	   45.97	 -586.97	   36.95
     85.3976	   52.00	   45.96	 -594.96	   36.94
     85.4310	   38.00	   45.96	 -608.96	   36.93
     85.4644	   49.00	   45.95	 -597.95	   36.92
     85.4979	   47.00	   45.94	 -599.94	   36.92
     85.5313	   44.00	   45.93	 -602.93	   36.91
     85.5647	   37.00	   45.92	 -609.92	   36.90
     85.5981	   54.00	   45.91	 -592.91	   36.89
     85.6316	   41.00	   45.90	 -605.90	   36.88
     85.6650	   48.00	   45.90	 -598.90	   36.87
     85.6984	   47.00	   45.89	 -599.89	   36.86
     85.7318	   50.00	   45.88	 -596.88	   36.85
     85.7652	   37.00	   45.87	 -609.87	   36.84
     85.7987	   41.00	   45.86	 -605.86	   36.84
     85.8321	   33.00	   45.85	 -613.85	   36.83
     85.8655	   52.00	   45.85	 -594.85	   36.82
     85.8989	   46.00	   45.84	 -600.84	   36.81
     85.9324	   39.00	   45.83	 -607.83	   36.80
     85.9658	   52.00	   45.82	 -594.82	   36.79
     85.9992	   43.00	   45.81	 -603.81	   36.78
     86.0326	   59.00	   45.80	 -587.80	   36.77
     86.0660	   45.00	   45.80	 -601.80	   36.77
     86.0995	   37.00	   45.79	 -609.79	   36.76
     86.1329	   36.00	   45.78	 -610.78	   36.75
     86.1663	   54.00	   45.77	 -592.77	   36.74
     86.1997	   50.00	   45.77	 -596.77	   36.73
     86.2332	   39.00	   45.76	 -607.76	   36.72
     86.2666	   45.00	   45.75	 -601.75	   36.71
     86.3000	   49.00	   45.74	 -597.74	   36.70
     86.3334	   70.00	   45.73	 -576.73	   36.70
     86.3668	   47.00	   45.73	 -599.73	   36.69
     86.4003	   42.00	   45.72	 -604.72	   36.68
     86.4337	   50.00	   45.71	 -596.71	   36.67
     86.4671	   48.00	   45.70	 -598.70	   36.66
     86.5005	   38.00	   45.70	 -608.70	   36.65
     86.5340	   52.00	   45.69	 -594.69	   36.64
     86.5674	   45.00	   45.68	 -601.68	   36.64
     86.6008	   54.00	   45.68	 -592.68	   36.63
     86.6342	   43.00	   45.67	 -603.67	   36.62
     86.6676	   45.00	   45.66	 -601.66	   36.61
     86.7011	   48.00	   45.66	 -598.66	   36.60
     86.7345	   34.00	   45.65	 -612.65	   36.59
     86.7679	   57.00	   45.64	 -589.64	   36.59
     86.8013	   47.00	   45.64	 -599.64	   36.58
     86.8348	   48.00	   45.63	 -598.63	   36.57
     86.8682	   49.00	   45.62	 -597.62	   36.56
     86.9016	   43.00	   45.62	 -603.62	   36.55
     86.9350	   43.00	   45.61	 -603.61	   36.54
     86.9685	   52.00	   45.61	 -594.61	   36.54
     87.0019	   50.00	   45.60	 -596.60	   36.53
     87.0353	   42.00	   45.59	 -604.59	   36.52
     87.0687	   54.00	   45.58	 -592.58	   36.51
     87.1021	   34.00	   45.58	 -612.58	   36.50
     87.1356	   47.00	   45.57	 -599.57	   36.49
     87.1690	   41.00	   45.57	 -605.57	   36.49
     87.2024	   38.00	   45.56	 -608.56	   36.48
     87.2358	   36.00	   45.56	 -610.56	   36.47
     87.2693	   32.00	   45.55	 -614.55	   36.46
     87.3027	   49.00	   45.54	 -597.54	   36.45
     87.3361	   64.00	   45.54	 -582.54	   36.45
     87.3695	   45.00	   45.53	 -601.53	   36.44
     87.4029	   44.00	   45.53	 -602.53	   36.43
     87.4364	   45.00	   45.53	 -601.53	   36.42
     87.4698	   55.00	   45.52	 -591.52	   36.41
     87.5032	   42.00	   45.52	 -604.52	   36.41
     87.5366	   48.00	   45.51	 -598.51	   36.40
     87.5701	   57.00	   45.51	 -589.51	   36.39
     87.6035	   62.00	   45.51	 -584.51	   36.38
     87.6369	   52.00	   45.50	 -594.50	   36.37
     87.6703	   42.00	   45.50	 -604.50	   36.37
     87.7038	   42.00	   45.50	 -604.50	   36.36
     87.7372	   59.00	   45.50	 -587.50	   36.35
     87.7706	   48.00	   45.49	 -598.49	   36.34
     87.8040	   48.00	   45.49	 -598.49	   36.33
     87.8374	   50.00	   45.49	 -596.49	   36.33
     87.8709	   45.00	   45.49	 -601.49	   36.32
     87.9043	   58.00	   45.49	 -588.49	   36.31
     87.9377	   59.00	   45.49	 -587.49	   36.30
     87.9711	   48.00	   45.49	 -598.49	   36.29
     88.0045	   54.00	   45.49	 -592.49	   36.29
     88.0380	   47.00	   45.49	 -599.49	   36.28
     88.0714	   41.00	   45.50	 -605.50	   36.27
     88.1048	   48.00	   45.50	 -598.50	   36.26
     88.1382	   48.00	   45.50	 -598.50	   36.26
     88.1717	   62.00	   45.51	 -584.51	   36.25
     88.2051	   41.00	   45.51	 -605.51	   36.24
     88.2385	   41.00	   45.52	 -605.52	   36.23
     88.2719	   56.00	   45.53	 -590.53	   36.23
     88.3054	   52.00	   45.53	 -594.53	   36.22
     88.3388	   46.00	   45.54	 -600.54	   36.21
     88.3722	   60.00	   45.56	 -586.56	   36.20
     88.4056	   38.00	   45.57	 -608.57	   36.19
     88.4390	   38.00	   45.58	 -608.58	   36.19
     88.4725	   57.00	   45.60	 -589.60	   36.18
     88.5059	   54.00	   45.62	 -592.62	   36.17
     88.5393	   35.00	   45.64	 -611.64	   36.16
     88.5727	   51.00	   45.66	 -595.66	   36.16
     88.6062	   52.00	   45.69	 -594.69	   36.15
     88.6396	   38.00	   45.72	 -608.72	   36.14
     88.6730	   43.00	   45.75	 -603.75	   36.13
     88.7064	   49.00	   45.79	 -597.79	   36.13
     88.7398	   51.00	   45.84	 -595.84	   36.12
     88.7733	   35.00	   45.89	 -611.89	   36.11
     88.8067	   41.00	   45.94	 -605.94	   36.10
     88.8401	   52.00	   46.01	 -595.01	   36.10
     88.8735	   42.00	   46.08	 -605.08	   36.09
     88.9070	   44.00	   46.17	 -603.17	   36.08
     88.9404	   56.00	   46.27	 -591.27	   36.07
     88.9738	   42.00	   46.39	 -605.39	   36.07
     89.0072	   47.00	   46.53	 -600.53	   36.06
     89.0406	   51.00	   46.70	 -596.70	   36.05
     89.0741	   47.00	   46.90	 -600.90	   36.05
     89.1075	   51.00	   47.13	 -597.13	   36.04
     89.1409	   54.00	   47.42	 -594.42	   36.03
     89.1743	   60.00	   47.77	 -588.77	   36.02
     89.2078	   47.00	   48.21	 -602.21	   36.02
     89.2412	   54.00	   48.80	 -595.80	   36.01
     89.2746	   43.00	   49.58	 -607.58	   36.00
     89.3080	   60.00	   50.71	 -591.71	   35.99
     89.3415	   50.00	   52.35	 -603.35	   35.99
     89.3749	   52.00	   54.76	 -603.76	   35.98
     89.4083	   55.00	   58.25	 -604.25	   35.97
     89.4417	   82.00	   63.08	 -582.08	   35.97
     89.4751	   81.00	   69.32	 -589.32	   35.96
     89.5086	   73.00	   76.46	 -604.46	   35.95
     89.5420	  114.00	   82.90	 -569.90	   35.94
     89.5754	  133.00	   85.88	 -553.88	   35.94
     89.6088	   90.00	   83.90	 -594.90	   35.93
     89.6423	   90.00	   78.72	 -589.72	   35.92
     89.6757	   71.00	   73.27	 -603.27	   35.92
     89.7091	   73.00	   69.30	 -597.30	   35.91
     89.7425	   65.00	   67.40	 -603.40	   35.90
     89.7759	   76.00	   67.37	 -592.37	   35.90
     89.8094	   71.00	   68.40	 -598.40	   35.89
     89.8428	   78.00	   68.96	 -591.96	   35.88
     89.8762	   83.00	   67.59	 -585.59	   35.87
     89.9096	   72.00	   64.30	 -593.30	   35.87
     89.9431	   79.00	   60.34	 -582.34	   35.86
     89.9765	   55.00	   56.71	 -602.71	   35.85
     90.0099	   46.00	   53.79	 -608.79	   35.85
     90.0433	   49.00	   51.62	 -603.62	   35.84
     90.0767	   51.00	   50.06	 -600.06	   35.83
     90.1102	   68.00	   48.98	 -581.98	   35.83
     90.1436	   49.00	   48.22	 -600.22	   35.82
     90.1770	   43.00	   47.67	 -605.67	   35.81
     90.2104	   61.00	   47.26	 -587.26	   35.80
     90.2439	   48.00	   46.94	 -599.94	   35.80
     90.2773	   56.00	   46.68	 -591.68	   35.79
     90.3107	   58.00	   46.46	 -589.46	   35.78
     90.3441	   35.00	   46.28	 -612.28	   35.78
     90.3775	   66.00	   46.13	 -581.13	   35.77
     90.4110	   58.00	   46.00	 -589.00	   35.76
     90.4444	   62.00	   45.88	 -584.88	   35.76
     90.4778	   42.00	   45.78	 -604.78	   35.75
     90.5112	   55.00	   45.70	 -591.70	   35.74
     90.5447	   39.00	   45.62	 -607.62	   35.74
     90.5781	   42.00	   45.55	 -604.55	   35.73
     90.6115	   43.00	   45.49	 -603.49	   35.72
     90.6449	   47.00	   45.43	 -599.43	   35.72
     90.6784	   54.00	   45.38	 -592.38	   35.71
     90.7118	   51.00	   45.34	 -595.34	   35.70
     90.7452	   50.00	   45.29	 -596.29	   35.70
     90.7786	   33.00	   45.26	 -613.26	   35.69
     90.8120	   46.00	   45.22	 -600.22	   35.68
     90.8455	   49.00	   45.19	 -597.19	   35.68
     90.8789	   50.00	   45.16	 -596.16	   35.67
     90.9123	   48.00	   45.13	 -598.13	   35.66
     90.9457	   44.00	   45.11	 -602.11	   35.66
     90.9792	   33.00	   45.08	 -613.08	   35.65
     91.0126	   41.00	   45.06	 -605.06	   35.64
     91.0460	   48.00	   45.04	 -598.04	   35.64
     91.0794	   36.00	   45.02	 -610.02	   35.63
     91.1128	   41.00	   45.00	 -605.00	   35.62
     91.1463	   37.00	   44.99	 -608.99	   35.62
     91.1797	   37.00	   44.97	 -608.97	   35.61
     91.2131	   47.00	   44.96	 -598.96	   35.61
     91.2465	   46.00	   44.94	 -599.94	   35.60
     91.2800	   33.00	   44.93	 -612.93	   35.59
     91.3134	   48.00	   44.92	 -597.92	   35.59
     91.3468	   48.00	   44.91	 -597.91	   35.58
     91.3802	   47.00	   44.90	 -598.90	   35.57
     91.4137	   54.00	   44.89	 -591.89	   35.57
     91.4471	   57.00	   44.88	 -588.88	   35.56
     91.4805	   55.00	   44.87	 -590.87	   35.55
     91.5139	   45.00	   44.86	 -600.86	   35.55
     91.5473	   33.00	   44.86	 -612.86	   35.54
     91.5808	   45.00	   44.85	 -600.85	   35.53
     91.6142	   47.00	   44.85	 -598.85	   35.53
     91.6476	   45.00	   44.85	 -600.85	   35.52
     91.6810	   50.00	   44.84	 -595.84	   35.52
     91.7145	   51.00	   44.84	 -594.84	   35.51
     91.7479	   39.00	   44.84	 -606.84	   35.50
     91.7813	   56.00	   44.84	 -589.84	   35.50
     91.8147	   41.00	   44.85	 -604.85	   35.49
     91.8481	   49.00	   44.85	 -596.85	   35.48
     91.8816	   47.00	   44.86	 -598.86	   35.48
     91.9150	   39.00	   44.86	 -606.86	   35.47
     91.9484	   39.00	   44.87	 -606.87	   35.47
     91.9818	   46.00	   44.89	 -599.89	   35.46
     92.0153	   38.00	   44.90	 -607.90	   35.45
     92.0487	   48.00	   44.92	 -597.92	   35.45
     92.0821	   51.00	   44.94	 -594.94	   35.44
     92.1155	   50.00	   44.97	 -595.97	   35.43
     92.1489	   42.00	   45.00	 -604.00	   35.43
     92.1824	   44.00	   45.05	 -602.05	   35.42
     92.2158	   56.00	   45.09	 -590.09	   35.42
     92.2492	   52.00	   45.15	 -594.15	   35.41
     92.2826	   51.00	   45.22	 -595.22	   35.40
     92.3161	   41.00	   45.31	 -605.31	   35.40
     92.3495	   58.00	   45.41	 -588.41	   35.39
     92.3829	   33.00	   45.55	 -613.55	   35.39
     92.4163	   50.00	   45.73	 -596.73	   35.38
     92.4497	   42.00	   45.98	 -604.98	   35.37
     92.4832	   49.00	   46.33	 -598.33	   35.37
     92.5166	   45.00	   46.84	 -602.84	   35.36
     92.5500	   47.00	   47.58	 -601.58	   35.35
     92.5834	   41.00	   48.65	 -608.65	   35.35
     92.6169	   52.00	   50.12	 -599.12	   35.34
     92.6503	   47.00	   52.00	 -606.00	   35.34
     92.6837	   45.00	   54.14	 -610.14	   35.33
     92.7171	   65.00	   56.10	 -592.10	   35.32
     92.7505	   70.00	   57.08	 -588.08	   35.32
     92.7840	   69.00	   56.58	 -588.58	   35.31
     92.8174	   70.00	   55.04	 -586.04	   35.31
     92.8508	   47.00	   53.32	 -607.32	   35.30
     92.8842	   43.00	   51.98	 -609.98	   35.30
     92.9177	   47.00	   51.24	 -605.24	   35.29
     92.9511	   45.00	   51.08	 -607.08	   35.28
     92.9845	   42.00	   51.36	 -610.36	   35.28
     93.0179	   66.00	   51.73	 -586.73	   35.27
     93.0514	   57.00	   51.71	 -595.71	   35.27
     93.0848	   44.00	   51.03	 -608.03	   35.26
     93.1182	   50.00	   49.92	 -600.92	   35.25
     93.1516	   39.00	   48.75	 -610.75	   35.25
     93.1850	   41.00	   47.73	 -607.73	   35.24
     93.2185	   49.00	   46.93	 -598.93	   35.24
     93.2519	   43.00	   46.34	 -604.34	   35.23
     93.2853	   41.00	   45.92	 -605.92	   35.22
     93.3187	   38.00	   45.63	 -608.63	   35.22
     93.3522	   48.00	   45.42	 -598.42	   35.21
     93.3856	   59.00	   45.27	 -587.27	   35.21
     93.4190	   42.00	   45.15	 -604.15	   35.20
     93.4524	   47.00	   45.06	 -599.06	   35.20
     93.4858	   44.00	   44.99	 -601.99	   35.19
     93.5193	   47.00	   44.93	 -598.93	   35.18
     93.5527	   56.00	   44.88	 -589.88	   35.18
     93.5861	   44.00	   44.84	 -601.84	   35.17
     93.6195	   51.00	   44.80	 -594.80	   35.17
     93.6530	   46.00	   44.77	 -599.77	   35.16
     93.6864	   42.00	   44.75	 -603.75	   35.16
     93.7198	   45.00	   44.73	 -600.73	   35.15
     93.7532	   50.00	   44.71	 -595.71	   35.14
     93.7867	   44.00	   44.70	 -601.70	   35.14
     93.8201	   38.00	   44.69	 -607.69	   35.13
     93.8535	   46.00	   44.68	 -599.68	   35.13
     93.8869	   43.00	   44.68	 -602.68	   35.12
     93.9203	   43.00	   44.67	 -602.67	   35.12
     93.9538	   51.00	   44.67	 -594.67	   35.11
     93.9872	   54.00	   44.68	 -591.68	   35.10
     94.0206	   43.00	   44.68	 -602.68	   35.10
     94.0540	   37.00	   44.69	 -608.69	   35.09
     94.0874	   54.00	   44.70	 -591.70	   35.09
     94.1209	   37.00	   44.71	 -608.71	   35.08
     94.1543	   49.00	   44.72	 -596.72	   35.08
     94.1877	   36.00	   44.74	 -609.74	   35.07
     94.2211	   54.00	   44.76	 -591.76	   35.07
     94.2546	   63.00	   44.79	 -582.79	   35.06
     94.2880	   41.00	   44.81	 -604.81	   35.05
     94.3214	   60.00	   44.85	 -585.85	   35.05
     94.3548	   31.00	   44.88	 -614.88	   35.04
     94.3883	   50.00	   44.93	 -595.93	   35.04
     94.4217	   48.00	   44.98	 -597.98	   35.03
     94.4551	   45.00	   45.03	 -601.03	   35.03
     94.4885	   51.00	   45.09	 -595.09	   35.02
     94.5219	   50.00	   45.17	 -596.17	   35.02
     94.5554	   51.00	   45.25	 -595.25	   35.01
     94.5888	   59.00	   45.35	 -587.35	   35.01
     94.6222	   44.00	   45.46	 -602.46	   35.00
     94.6556	   46.00	   45.59	 -600.59	   34.99
     94.6891	   46.00	   45.74	 -600.74	   34.99
     94.7225	   43.00	   45.92	 -603.92	   34.98
     94.7559	   44.00	   46.14	 -603.14	   34.98
     94.7893	   39.00	   46.40	 -608.40	   34.97
     94.8227	   51.00	   46.71	 -596.71	   34.97
     94.8562	   43.00	   47.09	 -605.09	   34.96
     94.8896	   48.00	   47.57	 -600.57	   34.96
     94.9230	   61.00	   48.19	 -588.19	   34.95
     94.9564	   54.00	   49.03	 -596.03	   34.95
     94.9899	   60.00	   50.20	 -591.20	   34.94
     95.0233	   46.00	   51.88	 -606.88	   34.93
     95.0567	   49.00	   54.31	 -606.31	   34.93
     95.0901	   71.00	   57.78	 -587.78	   34.92
     95.1236	   65.00	   62.55	 -598.55	   34.92
     95.1570	   72.00	   68.72	 -597.72	   34.91
     95.1904	   86.00	   75.97	 -590.97	   34.91
     95.2238	   94.00	   83.05	 -590.05	   34.90
     95.2572	   96.00	   87.49	 -592.49	   34.90
     95.2907	  105.00	   87.12	 -583.12	   34.89
     95.3241	   92.00	   82.53	 -591.53	   34.89
     95.3575	   87.00	   76.47	 -590.47	   34.88
     95.3909	   69.00	   71.21	 -603.21	   34.88
     95.4244	   69.00	   67.77	 -599.77	   34.87
     95.4578	   70.00	   66.38	 -597.38	   34.87
     95.4912	   64.00	   66.78	 -603.78	   34.86
     95.5246	   77.00	   68.22	 -592.22	   34.86
     95.5580	   92.00	   69.33	 -578.33	   34.85
     95.5915	   77.00	   68.60	 -592.60	   34.84
     95.6249	   82.00	   65.74	 -584.74	   34.84
     95.6583	   72.00	   61.79	 -590.79	   34.83
     95.6917	   52.00	   57.89	 -606.89	   34.83
     95.7252	   63.00	   54.61	 -592.61	   34.82
     95.7586	   59.00	   52.06	 -594.06	   34.82
     95.7920	   44.00	   50.19	 -607.19	   34.81
     95.8254	   44.00	   48.85	 -605.85	   34.81
     95.8588	   43.00	   47.90	 -605.90	   34.80
     95.8923	   55.00	   47.22	 -593.22	   34.80
     95.9257	   39.00	   46.72	 -608.72	   34.79
     95.9591	   44.00	   46.33	 -603.33	   34.79
     95.9925	   33.00	   46.02	 -614.02	   34.78
     96.0260	   52.00	   45.77	 -594.77	   34.78
     96.0594	   36.00	   45.56	 -610.56	   34.77
     96.0928	   41.00	   45.38	 -605.38	   34.77
     96.1262	   45.00	   45.22	 -601.22	   34.76
     96.1597	   38.00	   45.09	 -608.09	   34.76
     96.1931	   35.00	   44.98	 -610.98	   34.75
     96.2265	   46.00	   44.88	 -599.88	   34.75
     96.2599	   45.00	   44.79	 -600.79	   34.74
     96.2933	   52.00	   44.71	 -593.71	   34.74
     96.3268	   46.00	   44.65	 -599.65	   34.73
     96.3602	   39.00	   44.58	 -606.58	   34.73
     96.3936	   46.00	   44.53	 -599.53	   34.72
     96.4270	   43.00	   44.48	 -602.48	   34.72
     96.4604	   70.00	   44.43	 -575.43	   34.71
     96.4939	   45.00	   44.39	 -600.39	   34.71
     96.5273	   44.00	   44.35	 -601.35	   34.70
     96.5607	   48.00	   44.32	 -597.32	   34.70
     96.5941	   44.00	   44.28	 -601.28	   34.69
     96.6276	   43.00	   44.25	 -602.25	   34.69
     96.6610	   45.00	   44.23	 -600.23	   34.68
     96.6944	   49.00	   44.20	 -596.20	   34.68
     96.7278	   50.00	   44.18	 -595.18	   34.67
     96.7613	   50.00	   44.16	 -595.16	   34.67
     96.7947	   43.00	   44.14	 -602.14	   34.66
     96.8281	   41.00	   44.12	 -604.12	   34.66
     96.8615	   37.00	   44.10	 -608.10	   34.65
     96.8949	   45.00	   44.09	 -600.09	   34.65
     96.9284	   45.00	   44.08	 -600.08	   34.64
     96.9618	   46.00	   44.06	 -599.06	   34.64
     96.9952	   60.00	   44.05	 -585.05	   34.63
     97.0286	   43.00	   44.04	 -602.04	   34.63
     97.0621	   46.00	   44.03	 -599.03	   34.62
     97.0955	   52.00	   44.02	 -593.02	   34.62
     97.1289	   39.00	   44.02	 -606.02	   34.61
     97.1623	   56.00	   44.01	 -589.01	   34.61
     97.1957	   51.00	   44.00	 -594.00	   34.60
     97.2292	   51.00	   44.00	 -594.00	   34.60
     97.2626	   46.00	   44.00	 -599.00	   34.59
     97.2960	   52.00	   44.00	 -593.00	   34.59
     97.3294	   43.00	   43.99	 -601.99	   34.58
     97.3629	   43.00	   44.00	 -602.00	   34.58
     97.3963	   46.00	   44.00	 -599.00	   34.57
     97.4297	   38.00	   44.01	 -607.01	   34.57
     97.4631	   48.00	   44.01	 -597.01	   34.56
     97.4966	   50.00	   44.02	 -595.02	   34.56
     97.5300	   39.00	   44.03	 -606.03	   34.55
     97.5634	   44.00	   44.04	 -601.04	   34.55
     97.5968	   38.00	   44.05	 -607.05	   34.54
     97.6302	   54.00	   44.06	 -591.06	   34.54
     97.6637	   44.00	   44.08	 -601.08	   34.53
     97.6971	   34.00	   44.10	 -611.10	   34.53
     97.7305	   50.00	   44.13	 -595.13	   34.52
     97.7639	   52.00	   44.15	 -593.15	   34.52
     97.7974	   36.00	   44.19	 -609.19	   34.51
     97.8308	   57.00	   44.22	 -588.22	   34.51
     97.8642	   49.00	   44.27	 -596.27	   34.50
     97.8976	   51.00	   44.32	 -594.32	   34.50
     97.9310	   38.00	   44.37	 -607.37	   34.49
     97.9645	   28.00	   44.44	 -617.44	   34.49
     97.9979	   77.00	   44.52	 -568.52	   34.49
     98.0313	   41.00	   44.62	 -604.62	   34.48
     98.0647	   52.00	   44.73	 -593.73	   34.48
     98.0982	   50.00	   44.87	 -595.87	   34.47
     98.1316	   49.00	   45.03	 -597.03	   34.47
     98.1650	   48.00	   45.24	 -598.24	   34.46
     98.1984	   42.00	   45.49	 -604.49	   34.46
     98.2318	   39.00	   45.82	 -607.82	   34.45
     98.2653	   43.00	   46.26	 -604.26	   34.45
     98.2987	   57.00	   46.87	 -590.88	   34.44
     98.3321	   57.00	   47.75	 -591.75	   34.44
     98.3655	   47.00	   49.00	 -603.00	   34.43
     98.3990	   38.00	   50.76	 -613.76	   34.43
     98.4324	   46.00	   53.19	 -608.19	   34.42
     98.4658	   47.00	   56.32	 -610.32	   34.42
     98.4992	   57.00	   60.07	 -604.07	   34.41
     98.5326	   64.00	   63.88	 -600.88	   34.41
     98.5661	   74.00	   66.65	 -593.65	   34.40
     98.5995	   75.00	   67.10	 -593.10	   34.40
     98.6329	   66.00	   65.13	 -600.13	   34.39
     98.6663	   69.00	   61.96	 -593.96	   34.39
     98.6998	   54.00	   58.89	 -605.89	   34.39
     98.7332	   56.00	   56.61	 -601.61	   34.38
     98.7666	   47.00	   55.36	 -609.36	   34.38
     98.8000	   61.00	   55.12	 -595.12	   34.37
     98.8335	   52.00	   55.67	 -604.67	   34.37
     98.8669	   70.00	   56.57	 -587.57	   34.36
     98.9003	   71.00	   57.07	 -587.07	   34.36
     98.9337	   52.00	   56.50	 -605.50	   34.35
     98.9671	   57.00	   54.88	 -598.88	   34.35
     99.0006	   46.00	   52.79	 -607.79	   34.34
     99.0340	   45.00	   50.77	 -606.77	   34.34
     99.0674	   37.00	   49.08	 -613.08	   34.33
     99.1008	   37.00	   47.76	 -611.76	   34.33
     99.1343	   68.00	   46.79	 -579.79	   34.32
     99.1677	   47.00	   46.08	 -600.08	   34.32
     99.2011	   32.00	   45.58	 -614.58	   34.32
     99.2345	   45.00	   45.21	 -601.21	   34.31
     99.2679	   41.00	   44.94	 -604.94	   34.31
     99.3014	   49.00	   44.72	 -596.72	   34.30
     99.3348	   42.00	   44.55	 -603.55	   34.30
     99.3682	   48.00	   44.41	 -597.41	   34.29
     99.4016	   50.00	   44.30	 -595.30	   34.29
     99.4351	   48.00	   44.20	 -597.20	   34.28
     99.4685	   45.00	   44.11	 -600.11	   34.28
     99.5019	   49.00	   44.04	 -596.04	   34.27
     99.5353	   44.00	   43.97	 -600.97	   34.27
     99.5687	   35.00	   43.92	 -609.92	   34.26
     99.6022	   30.00	   43.86	 -614.86	   34.26
     99.6356	   36.00	   43.82	 -608.82	   34.26
     99.6690	   50.00	   43.78	 -594.78	   34.25
     99.7024	   51.00	   43.74	 -593.74	   34.25
     99.7359	   41.00	   43.71	 -603.71	   34.24
     99.7693	   35.00	   43.68	 -609.68	   34.24
     99.8027	   41.00	   43.65	 -603.65	   34.23
     99.8361	   35.00	   43.62	 -609.62	   34.23
     99.8696	   37.00	   43.60	 -607.60	   34.22
     99.9030	   44.00	   43.57	 -600.57	   34.22
     99.9364	   31.00	   43.55	 -613.55	   34.21
     99.9698	   28.00	   43.53	 -616.53	   34.21
    100.0032	   43.00	   43.52	 -601.52	   34.20
    100.0367	   44.00	   43.50	 -600.50	   34.20
    100.0701	   55.00	   43.48	 -589.48	   34.20
    100.1035	   54.00	   43.47	 -590.47	   34.19
    100.1369	   54.00	   43.45	 -590.45	   34.19
    100.1704	   41.00	   43.44	 -603.44	   34.18
    100.2038	   52.00	   43.43	 -592.43	   34.18
    100.2372	   46.00	   43.42	 -598.42	   34.17
    100.2706	   37.00	   43.41	 -607.41	   34.17
    100.3040	   37.00	   43.39	 -607.39	   34.16
    100.3375	   43.00	   43.38	 -601.38	   34.16
    100.3709	   41.00	   43.37	 -603.37	   34.15
    100.4043	   43.00	   43.37	 -601.37	   34.15
    100.4377	   35.00	   43.36	 -609.36	   34.15
    100.4712	   48.00	   43.35	 -596.35	   34.14
    100.5046	   44.00	   43.34	 -600.34	   34.14
    100.5380	   44.00	   43.33	 -600.33	   34.13
    100.5714	   45.00	   43.32	 -599.32	   34.13
    100.6048	   51.00	   43.32	 -593.32	   34.12
    100.6383	   43.00	   43.31	 -601.31	   34.12
    100.6717	   39.00	   43.30	 -605.30	   34.11
    100.7051	   55.00	   43.30	 -589.30	   34.11
    100.7385	   42.00	   43.29	 -602.29	   34.10
    100.7720	   36.00	   43.28	 -608.28	   34.10
    100.8054	   50.00	   43.28	 -594.28	   34.10
    100.8388	   49.00	   43.27	 -595.27	   34.09
    100.8722	   41.00	   43.27	 -603.27	   34.09
    100.9056	   47.00	   43.26	 -597.26	   34.08
    100.9391	   44.00	   43.26	 -600.26	   34.08
    100.9725	   47.00	   43.25	 -597.25	   34.07
    101.0059	   44.00	   43.25	 -600.25	   34.07
    101.0393	   32.00	   43.25	 -612.25	   34.06
    101.0728	   57.00	   43.24	 -587.24	   34.06
    101.1062	   36.00	   43.24	 -608.24	   34.05
    101.1396	   48.00	   43.23	 -596.23	   34.05
    101.1730	   36.00	   43.23	 -608.23	   34.05
    101.2065	   38.00	   43.23	 -606.23	   34.04
    101.2399	   37.00	   43.23	 -607.23	   34.04
    101.2733	   45.00	   43.22	 -599.22	   34.03
    101.3067	   39.00	   43.22	 -605.22	   34.03
    101.3401	   45.00	   43.22	 -599.22	   34.02
    101.3736	   69.00	   43.22	 -575.22	   34.02
    101.4070	   35.00	   43.22	 -609.22	   34.01
    101.4404	   45.00	   43.22	 -599.22	   34.01
    101.4738	   38.00	   43.22	 -606.22	   34.01
    101.5073	   34.00	   43.22	 -610.22	   34.00
    101.5407	   48.00	   43.21	 -596.21	   34.00
    101.5741	   30.00	   43.21	 -614.21	   33.99
    101.6075	   42.00	   43.21	 -602.21	   33.99
    101.6409	   48.00	   43.21	 -596.21	   33.98
    101.6744	   29.00	   43.21	 -615.21	   33.98
    101.7078	   37.00	   43.22	 -607.22	   33.97
    101.7412	   52.00	   43.22	 -592.22	   33.97
    101.7746	   42.00	   43.23	 -602.23	   33.96
    101.8081	   55.00	   43.23	 -589.23	   33.96
    101.8415	   35.00	   43.24	 -609.24	   33.96
    101.8749	   48.00	   43.24	 -596.24	   33.95
    101.9083	   44.00	   43.25	 -600.25	   33.95
    101.9417	   43.00	   43.26	 -601.26	   33.94
    101.9752	   29.00	   43.28	 -615.28	   33.94
    102.0086	   50.00	   43.29	 -594.29	   33.93
    102.0420	   45.00	   43.31	 -599.31	   33.93
    102.0754	   25.00	   43.32	 -619.32	   33.92
    102.1089	   44.00	   43.34	 -600.34	   33.92
    102.1423	   57.00	   43.37	 -587.37	   33.92
    102.1757	   37.00	   43.40	 -607.40	   33.91
    102.2091	   52.00	   43.43	 -592.43	   33.91
    102.2426	   49.00	   43.46	 -595.46	   33.90
    102.2760	   39.00	   43.51	 -605.51	   33.90
    102.3094	   45.00	   43.56	 -599.56	   33.89
    102.3428	   33.00	   43.62	 -611.62	   33.89
    102.3762	   52.00	   43.68	 -592.68	   33.88
    102.4097	   51.00	   43.77	 -593.77	   33.88
    102.4431	   47.00	   43.87	 -597.87	   33.88
    102.4765	   41.00	   43.99	 -603.99	   33.87
    102.5099	   44.00	   44.14	 -601.14	   33.87
    102.5434	   48.00	   44.34	 -597.34	   33.86
    102.5768	   48.00	   44.60	 -597.60	   33.86
    102.6102	   30.00	   44.96	 -615.96	   33.85
    102.6436	   43.00	   45.46	 -603.46	   33.85
    102.6770	   55.00	   46.17	 -592.17	   33.84
    102.7105	   58.00	   47.16	 -590.16	   33.84
    102.7439	   46.00	   48.48	 -603.48	   33.84
    102.7773	   51.00	   50.16	 -600.16	   33.83
    102.8107	   49.00	   52.13	 -604.13	   33.83
    102.8442	   66.00	   54.11	 -589.11	   33.82
    102.8776	   81.00	   55.54	 -575.54	   33.82
    102.9110	   60.00	   55.81	 -596.81	   33.81
    102.9444	   56.00	   54.85	 -599.85	   33.81
    102.9778	   54.00	   53.21	 -600.21	   33.80
    103.0113	   46.00	   51.55	 -606.55	   33.80
    103.0447	   56.00	   50.24	 -595.24	   33.79
    103.0781	   38.00	   49.43	 -612.43	   33.79
    103.1115	   57.00	   49.12	 -593.12	   33.79
    103.1450	   61.00	   49.28	 -589.28	   33.78
    103.1784	   38.00	   49.75	 -612.75	   33.78
    103.2118	   68.00	   50.29	 -583.29	   33.77
    103.2452	   62.00	   50.52	 -589.52	   33.77
    103.2786	   65.00	   50.17	 -586.17	   33.76
    103.3121	   50.00	   49.33	 -600.33	   33.76
    103.3455	   55.00	   48.28	 -594.28	   33.75
    103.3789	   60.00	   47.30	 -588.30	   33.75
    103.4123	   45.00	   46.48	 -602.48	   33.75
    103.4458	   38.00	   45.86	 -608.86	   33.74
    103.4792	   43.00	   45.42	 -603.42	   33.74
    103.5126	   55.00	   45.12	 -591.12	   33.73
    103.5460	   42.00	   44.95	 -603.95	   33.73
    103.5795	   50.00	   44.86	 -595.86	   33.72
    103.6129	   43.00	   44.84	 -602.84	   33.72
    103.6463	   66.00	   44.89	 -579.89	   33.71
    103.6797	   52.00	   44.99	 -593.99	   33.71
    103.7131	   45.00	   45.16	 -601.16	   33.70
    103.7466	   58.00	   45.41	 -588.41	   33.70
    103.7800	   55.00	   45.78	 -591.78	   33.70
    103.8134	   45.00	   46.30	 -602.30	   33.69
    103.8468	   51.00	   47.07	 -597.07	   33.69
    103.8803	   48.00	   48.16	 -601.16	   33.68
    103.9137	   36.00	   49.70	 -614.70	   33.68
    103.9471	   50.00	   51.77	 -602.77	   33.67
    103.9805	   52.00	   54.43	 -603.43	   33.67
    104.0139	   58.00	   57.57	 -600.57	   33.66
    104.0474	   66.00	   60.81	 -595.81	   33.66
    104.0808	   77.00	   63.30	 -587.30	   33.66
    104.1142	   88.00	   64.02	 -577.02	   33.65
    104.1476	   68.00	   62.68	 -595.68	   33.65
    104.1811	   55.00	   60.06	 -606.06	   33.64
    104.2145	   59.00	   57.24	 -599.24	   33.64
    104.2479	   52.00	   54.91	 -603.91	   33.63
    104.2813	   49.00	   53.34	 -605.34	   33.63
    104.3148	   56.00	   52.60	 -597.60	   33.62
    104.3482	   68.00	   52.63	 -585.63	   33.62
    104.3816	   74.00	   53.25	 -580.25	   33.61
    104.4150	   70.00	   54.13	 -585.13	   33.61
    104.4484	   74.00	   54.73	 -581.73	   33.61
    104.4819	   59.00	   54.50	 -596.50	   33.60
    104.5153	   56.00	   53.33	 -598.33	   33.60
    104.5487	   46.00	   51.63	 -606.63	   33.59
    104.5821	   64.00	   49.86	 -586.86	   33.59
    104.6155	   44.00	   48.31	 -605.31	   33.58
    104.6490	   63.00	   47.06	 -585.06	   33.58
    104.6824	   38.00	   46.10	 -609.10	   33.57
    104.7158	   44.00	   45.39	 -602.39	   33.57
    104.7492	   37.00	   44.87	 -608.87	   33.56
    104.7827	   42.00	   44.48	 -603.48	   33.56
    104.8161	   48.00	   44.20	 -597.20	   33.56
    104.8495	   45.00	   43.98	 -599.98	   33.55
    104.8829	   37.00	   43.81	 -607.81	   33.55
    104.9164	   48.00	   43.67	 -596.67	   33.54
    104.9498	   38.00	   43.55	 -606.55	   33.54
    104.9832	   46.00	   43.45	 -598.45	   33.53
    105.0166	   28.00	   43.36	 -616.36	   33.53
    105.0500	   50.00	   43.28	 -594.28	   33.52
    105.0835	   31.00	   43.22	 -613.22	   33.52
    105.1169	   44.00	   43.16	 -600.16	   33.51
    105.1503	   47.00	   43.11	 -597.11	   33.51
    105.1837	   43.00	   43.06	 -601.06	   33.51
    105.2172	   47.00	   43.02	 -597.02	   33.50
    105.2506	   42.00	   42.98	 -601.98	   33.50
    105.2840	   44.00	   42.95	 -599.95	   33.49
    105.3174	   43.00	   42.91	 -600.91	   33.49
    105.3508	   52.00	   42.89	 -591.89	   33.48
    105.3843	   42.00	   42.86	 -601.86	   33.48
    105.4177	   37.00	   42.83	 -606.83	   33.47
    105.4511	   42.00	   42.81	 -601.81	   33.47
    105.4845	   45.00	   42.79	 -598.79	   33.46
    105.5180	   50.00	   42.77	 -593.77	   33.46
    105.5514	   36.00	   42.75	 -607.75	   33.45
    105.5848	   30.00	   42.73	 -613.73	   33.45
    105.6182	   41.00	   42.72	 -602.72	   33.45
    105.6516	   49.00	   42.70	 -594.70	   33.44
    105.6851	   51.00	   42.69	 -592.69	   33.44
    105.7185	   50.00	   42.67	 -593.67	   33.43
    105.7519	   44.00	   42.66	 -599.66	   33.43
    105.7853	   36.00	   42.65	 -607.65	   33.42
    105.8188	   44.00	   42.63	 -599.63	   33.42
    105.8522	   25.00	   42.62	 -618.62	   33.41
    105.8856	   41.00	   42.61	 -602.61	   33.41
    105.9190	   39.00	   42.60	 -604.60	   33.40
    105.9525	   45.00	   42.59	 -598.59	   33.40
    105.9859	   33.00	   42.58	 -610.58	   33.39
    106.0193	   46.00	   42.58	 -597.58	   33.39
    106.0527	   35.00	   42.57	 -608.57	   33.38
    106.0861	   37.00	   42.56	 -606.56	   33.38
    106.1196	   35.00	   42.55	 -608.55	   33.38
    106.1530	   41.00	   42.54	 -602.54	   33.37
    106.1864	   48.00	   42.54	 -595.54	   33.37
    106.2198	   52.00	   42.53	 -591.53	   33.36
    106.2533	   49.00	   42.53	 -594.53	   33.36
    106.2867	   45.00	   42.52	 -598.52	   33.35
    106.3201	   39.00	   42.52	 -604.52	   33.35
    106.3535	   38.00	   42.51	 -605.51	   33.34
    106.3869	   41.00	   42.51	 -602.51	   33.34
    106.4204	   44.00	   42.50	 -599.50	   33.33
    106.4538	   52.00	   42.50	 -591.50	   33.33
    106.4872	   48.00	   42.50	 -595.50	   33.32
    106.5206	   43.00	   42.50	 -600.50	   33.32
    106.5541	   36.00	   42.50	 -607.50	   33.31
    106.5875	   46.00	   42.50	 -597.50	   33.31
    106.6209	   35.00	   42.50	 -608.50	   33.30
    106.6543	   36.00	   42.50	 -607.50	   33.30
    106.6878	   39.00	   42.50	 -604.50	   33.30
    106.7212	   38.00	   42.51	 -605.51	   33.29
    106.7546	   41.00	   42.51	 -602.51	   33.29
    106.7880	   37.00	   42.52	 -606.52	   33.28
    106.8214	   47.00	   42.53	 -596.53	   33.28
    106.8549	   43.00	   42.55	 -600.55	   33.27
    106.8883	   47.00	   42.57	 -596.57	   33.27
    106.9217	   33.00	   42.59	 -610.59	   33.26
    106.9551	   46.00	   42.62	 -597.62	   33.26
    106.9885	   51.00	   42.65	 -592.65	   33.25
    107.0220	   45.00	   42.70	 -598.70	   33.25
    107.0554	   37.00	   42.76	 -606.76	   33.24
    107.0888	   34.00	   42.85	 -609.85	   33.24
    107.1222	   50.00	   42.97	 -593.97	   33.23
    107.1557	   30.00	   43.14	 -614.14	   33.23
    107.1891	   37.00	   43.37	 -607.37	   33.22
    107.2225	   39.00	   43.69	 -605.69	   33.22
    107.2559	   58.00	   44.11	 -587.11	   33.21
    107.2894	   31.00	   44.63	 -614.63	   33.21
    107.3228	   37.00	   45.22	 -609.22	   33.20
    107.3562	   41.00	   45.80	 -605.80	   33.20
    107.3896	   49.00	   46.19	 -598.19	   33.19
    107.4230	   51.00	   46.23	 -596.23	   33.19
    107.4565	   38.00	   45.92	 -608.92	   33.18
    107.4899	   36.00	   45.41	 -610.41	   33.18
    107.5233	   47.00	   44.89	 -598.89	   33.17
    107.5567	   55.00	   44.46	 -590.46	   33.17
    107.5902	   46.00	   44.17	 -599.17	   33.16
    107.6236	   38.00	   44.02	 -607.02	   33.16
    107.6570	   43.00	   44.00	 -602.00	   33.16
    107.6904	   43.00	   44.10	 -602.10	   33.15
    107.7238	   37.00	   44.26	 -608.26	   33.15
    107.7573	   38.00	   44.41	 -607.41	   33.14
    107.7907	   43.00	   44.45	 -602.45	   33.14
    107.8241	   58.00	   44.32	 -587.32	   33.13
    107.8575	   38.00	   44.04	 -607.04	   33.13
    107.8910	   55.00	   43.71	 -589.71	   33.12
    107.9244	   44.00	   43.40	 -600.40	   33.12
    107.9578	   46.00	   43.13	 -598.13	   33.11
    107.9912	   35.00	   42.92	 -608.92	   33.11
    108.0247	   38.00	   42.76	 -605.76	   33.10
    108.0581	   33.00	   42.64	 -610.64	   33.10
    108.0915	   39.00	   42.55	 -604.55	   33.09
    108.1249	   35.00	   42.48	 -608.48	   33.09
    108.1583	   41.00	   42.43	 -602.43	   33.08
    108.1918	   33.00	   42.39	 -610.39	   33.08
    108.2252	   33.00	   42.35	 -610.35	   33.07
    108.2586	   36.00	   42.32	 -607.32	   33.07
    108.2920	   30.00	   42.30	 -613.30	   33.06
    108.3255	   46.00	   42.28	 -597.28	   33.06
    108.3589	   39.00	   42.26	 -604.26	   33.05
    108.3923	   37.00	   42.24	 -606.24	   33.05
    108.4257	   37.00	   42.23	 -606.23	   33.04
    108.4591	   35.00	   42.22	 -608.22	   33.04
    108.4926	   47.00	   42.21	 -596.21	   33.03
    108.5260	   54.00	   42.20	 -589.20	   33.03
    108.5594	   37.00	   42.19	 -606.19	   33.02
    108.5928	   41.00	   42.18	 -602.18	   33.02
    108.6263	   48.00	   42.17	 -595.17	   33.01
    108.6597	   35.00	   42.17	 -608.17	   33.01
    108.6931	   41.00	   42.16	 -602.16	   33.00
    108.7265	   37.00	   42.15	 -606.15	   33.00
    108.7599	   45.00	   42.15	 -598.15	   32.99
    108.7934	   38.00	   42.14	 -605.14	   32.99
    108.8268	   39.00	   42.14	 -604.14	   32.98
    108.8602	   45.00	   42.13	 -598.13	   32.98
    108.8936	   47.00	   42.13	 -596.13	   32.97
    108.9271	   36.00	   42.13	 -607.13	   32.96
    108.9605	   35.00	   42.13	 -608.13	   32.96
    108.9939	   47.00	   42.12	 -596.12	   32.95
    109.0273	   37.00	   42.12	 -606.12	   32.95
    109.0607	   49.00	   42.12	 -594.12	   32.94
    109.0942	   44.00	   42.12	 -599.12	   32.94
    109.1276	   31.00	   42.12	 -612.12	   32.93
    109.1610	   38.00	   42.12	 -605.12	   32.93
    109.1944	   34.00	   42.12	 -609.12	   32.92
    109.2279	   57.00	   42.12	 -586.12	   32.92
    109.2613	   38.00	   42.13	 -605.13	   32.91
    109.2947	   42.00	   42.13	 -601.13	   32.91
    109.3281	   44.00	   42.14	 -599.14	   32.90
    109.3615	   48.00	   42.14	 -595.14	   32.90
    109.3950	   34.00	   42.15	 -609.15	   32.89
    109.4284	   37.00	   42.16	 -606.16	   32.89
    109.4618	   39.00	   42.17	 -604.17	   32.88
    109.4952	   39.00	   42.18	 -604.18	   32.88
    109.5287	   47.00	   42.19	 -596.19	   32.87
    109.5621	   38.00	   42.21	 -605.21	   32.87
    109.5955	   37.00	   42.23	 -606.23	   32.86
    109.6289	   41.00	   42.25	 -602.25	   32.86
    109.6624	   44.00	   42.28	 -599.28	   32.85
    109.6958	   41.00	   42.31	 -602.31	   32.85
    109.7292	   27.00	   42.34	 -616.34	   32.84
    109.7626	   49.00	   42.39	 -594.39	   32.83
    109.7960	   37.00	   42.44	 -606.44	   32.83
    109.8295	   51.00	   42.50	 -592.50	   32.82
    109.8629	   43.00	   42.58	 -600.58	   32.82
    109.8963	   38.00	   42.67	 -605.67	   32.81
    109.9297	   37.00	   42.78	 -606.78	   32.81
    109.9632	   38.00	   42.93	 -605.93	   32.80
    109.9966	   33.00	   43.11	 -611.11	   32.80
    110.0300	   51.00	   43.37	 -593.37	   32.79
    110.0634	   47.00	   43.71	 -597.71	   32.79
    110.0968	   44.00	   44.19	 -601.19	   32.78
    110.1303	   50.00	   44.85	 -595.85	   32.78
    110.1637	   43.00	   45.73	 -603.73	   32.77
    110.1971	   42.00	   46.86	 -605.86	   32.76
    110.2305	   47.00	   48.25	 -602.25	   32.76
    110.2640	   50.00	   49.83	 -600.83	   32.75
    110.2974	   50.00	   51.37	 -602.37	   32.75
    110.3308	   52.00	   52.45	 -601.45	   32.74
    110.3642	   55.00	   52.67	 -598.67	   32.74
    110.3977	   57.00	   51.94	 -595.94	   32.73
    110.4311	   42.00	   50.65	 -609.65	   32.73
    110.4645	   45.00	   49.24	 -605.24	   32.72
    110.4979	   52.00	   48.02	 -597.02	   32.72
    110.5313	   45.00	   47.13	 -603.13	   32.71
    110.5648	   30.00	   46.60	 -617.60	   32.70
    110.5982	   49.00	   46.43	 -598.43	   32.70
    110.6316	   61.00	   46.57	 -586.57	   32.69
    110.6650	   45.00	   46.95	 -602.95	   32.69
    110.6985	   52.00	   47.43	 -596.43	   32.68
    110.7319	   44.00	   47.80	 -604.80	   32.68
    110.7653	   54.00	   47.80	 -594.80	   32.67
    110.7987	   43.00	   47.34	 -605.34	   32.67
    110.8321	   51.00	   46.58	 -596.58	   32.66
    110.8656	   41.00	   45.72	 -605.72	   32.65
    110.8990	   44.00	   44.91	 -601.91	   32.65
    110.9324	   30.00	   44.23	 -615.23	   32.64
    110.9658	   42.00	   43.69	 -602.69	   32.64
    110.9993	   47.00	   43.27	 -597.27	   32.63
    111.0327	   36.00	   42.96	 -607.96	   32.63
    111.0661	   45.00	   42.72	 -598.72	   32.62
    111.0995	   35.00	   42.55	 -608.55	   32.62
    111.1329	   34.00	   42.41	 -609.41	   32.61
    111.1664	   52.00	   42.31	 -591.31	   32.60
    111.1998	   42.00	   42.22	 -601.22	   32.60
    111.2332	   55.00	   42.15	 -588.15	   32.59
    111.2666	   52.00	   42.09	 -591.09	   32.59
    111.3001	   42.00	   42.03	 -601.03	   32.58
    111.3335	   43.00	   41.99	 -599.99	   32.58
    111.3669	   32.00	   41.95	 -610.95	   32.57
    111.4003	   34.00	   41.91	 -608.91	   32.56
    111.4337	   29.00	   41.88	 -613.88	   32.56
    111.4672	   44.00	   41.85	 -598.85	   32.55
    111.5006	   38.00	   41.82	 -604.82	   32.55
    111.5340	   36.00	   41.80	 -606.80	   32.54
    111.5674	   46.00	   41.78	 -596.78	   32.54
    111.6009	   38.00	   41.76	 -604.76	   32.53
    111.6343	   45.00	   41.74	 -597.74	   32.52
    111.6677	   36.00	   41.72	 -606.72	   32.52
    111.7011	   46.00	   41.70	 -596.70	   32.51
    111.7346	   32.00	   41.69	 -610.69	   32.51
    111.7680	   42.00	   41.67	 -600.67	   32.50
    111.8014	   31.00	   41.66	 -611.66	   32.50
    111.8348	   42.00	   41.65	 -600.65	   32.49
    111.8682	   48.00	   41.63	 -594.63	   32.48
    111.9017	   30.00	   41.62	 -612.62	   32.48
    111.9351	   35.00	   41.61	 -607.61	   32.47
    111.9685	   42.00	   41.60	 -600.60	   32.47
    112.0019	   48.00	   41.59	 -594.59	   32.46
    112.0354	   35.00	   41.58	 -607.58	   32.45
    112.0688	   52.00	   41.57	 -590.57	   32.45
    112.1022	   34.00	   41.56	 -608.56	   32.44
    112.1356	   54.00	   41.55	 -588.55	   32.44
    112.1690	   44.00	   41.54	 -598.54	   32.43
    112.2025	   44.00	   41.53	 -598.53	   32.42
    112.2359	   43.00	   41.52	 -599.52	   32.42
    112.2693	   42.00	   41.51	 -600.51	   32.41
    112.3027	   31.00	   41.50	 -611.50	   32.41
    112.3362	   33.00	   41.49	 -609.49	   32.40
    112.3696	   35.00	   41.48	 -607.48	   32.39
    112.4030	   45.00	   41.48	 -597.48	   32.39
    112.4364	   36.00	   41.47	 -606.47	   32.38
    112.4698	   33.00	   41.46	 -609.46	   32.38
    112.5033	   25.00	   41.45	 -617.45	   32.37
    112.5367	   33.00	   41.45	 -609.45	   32.36
    112.5701	   41.00	   41.44	 -601.44	   32.36
    112.6035	   48.00	   41.43	 -594.43	   32.35
    112.6370	   51.00	   41.42	 -591.42	   32.35
    112.6704	   36.00	   41.42	 -606.42	   32.34
    112.7038	   43.00	   41.41	 -599.41	   32.33
    112.7372	   43.00	   41.40	 -599.40	   32.33
    112.7707	   35.00	   41.40	 -607.40	   32.32
    112.8041	   42.00	   41.39	 -600.39	   32.32
    112.8375	   28.00	   41.38	 -614.38	   32.31
    112.8709	   34.00	   41.38	 -608.38	   32.30
    112.9043	   44.00	   41.37	 -598.37	   32.30
    112.9378	   49.00	   41.36	 -593.36	   32.29
    112.9712	   39.00	   41.36	 -603.36	   32.28
    113.0046	   35.00	   41.35	 -607.35	   32.28
    113.0380	   42.00	   41.35	 -600.35	   32.27
    113.0714	   38.00	   41.34	 -604.34	   32.27
    113.1049	   39.00	   41.33	 -603.33	   32.26
    113.1383	   43.00	   41.33	 -599.33	   32.25
    113.1717	   41.00	   41.32	 -601.32	   32.25
    113.2051	   43.00	   41.32	 -599.32	   32.24
    113.2386	   42.00	   41.31	 -600.31	   32.23
    113.2720	   45.00	   41.31	 -597.31	   32.23
    113.3054	   43.00	   41.30	 -599.30	   32.22
    113.3388	   33.00	   41.30	 -609.30	   32.22
    113.3723	   37.00	   41.29	 -605.29	   32.21
    113.4057	   46.00	   41.29	 -596.29	   32.20
    113.4391	   31.00	   41.28	 -611.28	   32.20
    113.4725	   32.00	   41.27	 -610.27	   32.19
    113.5059	   42.00	   41.27	 -600.27	   32.18
    113.5394	   34.00	   41.26	 -608.26	   32.18
    113.5728	   35.00	   41.26	 -607.26	   32.17
    113.6062	   36.00	   41.25	 -606.25	   32.16
    113.6396	   25.00	   41.25	 -617.25	   32.16
    113.6731	   43.00	   41.25	 -599.25	   32.15
    113.7065	   47.00	   41.24	 -595.24	   32.15
    113.7399	   33.00	   41.24	 -609.24	   32.14
    113.7733	   43.00	   41.23	 -599.23	   32.13
    113.8067	   39.00	   41.23	 -603.23	   32.13
    113.8402	   32.00	   41.22	 -610.22	   32.12
    113.8736	   38.00	   41.22	 -604.22	   32.11
    113.9070	   34.00	   41.22	 -608.22	   32.11
    113.9404	   34.00	   41.21	 -608.21	   32.10
    113.9739	   37.00	   41.21	 -605.21	   32.09
    114.0073	   32.00	   41.20	 -610.20	   32.09
    114.0407	   43.00	   41.20	 -599.20	   32.08
    114.0741	   47.00	   41.20	 -595.20	   32.07
    114.1076	   55.00	   41.19	 -587.19	   32.07
    114.1410	   42.00	   41.19	 -600.19	   32.06
    114.1744	   36.00	   41.19	 -606.19	   32.05
    114.2078	   39.00	   41.18	 -603.18	   32.05
    114.2412	   44.00	   41.18	 -598.18	   32.04
    114.2747	   44.00	   41.18	 -598.18	   32.03
    114.3081	   32.00	   41.18	 -610.18	   32.03
    114.3415	   38.00	   41.17	 -604.17	   32.02
    114.3749	   43.00	   41.17	 -599.17	   32.01
    114.4084	   36.00	   41.17	 -606.17	   32.01
    114.4418	   30.00	   41.17	 -612.17	   32.00
    114.4752	   42.00	   41.17	 -600.17	   31.99
    114.5086	   44.00	   41.17	 -598.17	   31.99
    114.5420	   45.00	   41.17	 -597.17	   31.98
    114.5755	   37.00	   41.17	 -605.17	   31.97
    114.6089	   46.00	   41.17	 -596.17	   31.97
    114.6423	   42.00	   41.17	 -600.17	   31.96
    114.6757	   39.00	   41.17	 -603.17	   31.95
    114.7092	   42.00	   41.17	 -600.17	   31.95
    114.7426	   43.00	   41.18	 -599.18	   31.94
    114.7760	   42.00	   41.18	 -600.18	   31.93
    114.8094	   41.00	   41.18	 -601.18	   31.93
    114.8428	   44.00	   41.19	 -598.19	   31.92
    114.8763	   55.00	   41.19	 -587.19	   31.91
    114.9097	   41.00	   41.20	 -601.20	   31.90
    114.9431	   45.00	   41.21	 -597.21	   31.90
    114.9765	   38.00	   41.22	 -604.22	   31.89
    115.0100	   31.00	   41.23	 -611.23	   31.88
    115.0434	   30.00	   41.24	 -612.24	   31.88
    115.0768	   51.00	   41.25	 -591.25	   31.87
    115.1102	   41.00	   41.26	 -601.26	   31.86
    115.1437	   46.00	   41.28	 -596.28	   31.86
    115.1771	   36.00	   41.30	 -606.30	   31.85
    115.2105	   38.00	   41.32	 -604.32	   31.84
    115.2439	   34.00	   41.34	 -608.34	   31.84
    115.2773	   49.00	   41.36	 -593.36	   31.83
    115.3108	   42.00	   41.39	 -600.39	   31.82
    115.3442	   37.00	   41.43	 -605.43	   31.81
    115.3776	   46.00	   41.46	 -596.46	   31.81
    115.4110	   31.00	   41.50	 -611.50	   31.80
    115.4445	   41.00	   41.55	 -601.55	   31.79
    115.4779	   46.00	   41.61	 -596.61	   31.79
    115.5113	   36.00	   41.67	 -606.67	   31.78
    115.5447	   43.00	   41.74	 -599.74	   31.77
    115.5781	   37.00	   41.82	 -605.82	   31.76
    115.6116	   48.00	   41.91	 -594.91	   31.76
    115.6450	   55.00	   42.02	 -588.02	   31.75
    115.6784	   41.00	   42.15	 -602.15	   31.74
    115.7118	   55.00	   42.30	 -588.30	   31.74
    115.7453	   48.00	   42.48	 -595.48	   31.73
    115.7787	   41.00	   42.70	 -602.70	   31.72
    115.8121	   46.00	   42.97	 -597.97	   31.71
    115.8455	   48.00	   43.31	 -596.31	   31.71
    115.8789	   50.00	   43.75	 -594.75	   31.70
    115.9124	   52.00	   44.33	 -593.33	   31.69
    115.9458	   49.00	   45.11	 -597.11	   31.68
    115.9792	   46.00	   46.16	 -601.16	   31.68
    116.0126	   45.00	   47.56	 -603.56	   31.67
    116.0461	   59.00	   49.39	 -591.39	   31.66
    116.0795	   64.00	   51.71	 -588.71	   31.65
    116.1129	   57.00	   54.52	 -598.52	   31.65
    116.1463	   78.00	   57.71	 -580.71	   31.64
    116.1797	   75.00	   60.93	 -586.93	   31.63
    116.2132	  100.00	   63.49	 -564.49	   31.63
    116.2466	  111.00	   64.58	 -554.58	   31.62
    116.2800	  103.00	   63.79	 -561.79	   31.61
    116.3134	   88.00	   61.53	 -574.53	   31.60
    116.3469	   82.00	   58.63	 -577.63	   31.60
    116.3803	   47.00	   55.80	 -609.80	   31.59
    116.4137	   52.00	   53.45	 -602.45	   31.58
    116.4471	   50.00	   51.72	 -602.72	   31.57
    116.4806	   56.00	   50.67	 -595.67	   31.57
    116.5140	   54.00	   50.27	 -597.27	   31.56
    116.5474	   56.00	   50.46	 -595.46	   31.55
    116.5808	   52.00	   51.15	 -600.15	   31.54
    116.6142	   58.00	   52.16	 -595.16	   31.53
    116.6477	   64.00	   53.20	 -590.20	   31.53
    116.6811	   70.00	   53.85	 -584.85	   31.52
    116.7145	   63.00	   53.72	 -591.72	   31.51
    116.7479	   59.00	   52.72	 -594.72	   31.50
    116.7814	   60.00	   51.15	 -592.15	   31.50
    116.8148	   65.00	   49.40	 -585.40	   31.49
    116.8482	   43.00	   47.76	 -605.76	   31.48
    116.8816	   46.00	   46.35	 -601.35	   31.47
    116.9150	   64.00	   45.19	 -582.19	   31.47
    116.9485	   37.00	   44.28	 -608.28	   31.46
    116.9819	   43.00	   43.58	 -601.58	   31.45
    117.0153	   58.00	   43.04	 -586.04	   31.44
    117.0487	   48.00	   42.64	 -595.64	   31.43
    117.0822	   49.00	   42.32	 -594.32	   31.43
    117.1156	   44.00	   42.08	 -599.08	   31.42
    117.1490	   45.00	   41.88	 -597.88	   31.41
    117.1824	   44.00	   41.71	 -598.71	   31.40
    117.2159	   51.00	   41.58	 -591.58	   31.40
    117.2493	   38.00	   41.46	 -604.46	   31.39
    117.2827	   52.00	   41.36	 -590.36	   31.38
    117.3161	   42.00	   41.27	 -600.27	   31.37
    117.3495	   45.00	   41.19	 -597.19	   31.36
    117.3830	   51.00	   41.12	 -591.12	   31.36
    117.4164	   49.00	   41.05	 -593.05	   31.35
    117.4498	   41.00	   41.00	 -601.00	   31.34
    117.4832	   44.00	   40.94	 -597.94	   31.33
    117.5166	   47.00	   40.90	 -594.90	   31.32
    117.5501	   39.00	   40.85	 -602.85	   31.32
    117.5835	   43.00	   40.81	 -598.81	   31.31
    117.6169	   32.00	   40.77	 -609.77	   31.30
    117.6503	   43.00	   40.74	 -598.74	   31.29
    117.6838	   41.00	   40.70	 -600.70	   31.28
    117.7172	   36.00	   40.67	 -605.67	   31.28
    117.7506	   48.00	   40.64	 -593.64	   31.27
    117.7840	   37.00	   40.62	 -604.62	   31.26
    117.8175	   38.00	   40.59	 -603.59	   31.25
    117.8509	   39.00	   40.57	 -602.57	   31.24
    117.8843	   47.00	   40.55	 -594.55	   31.23
    117.9177	   35.00	   40.52	 -606.52	   31.23
    117.9511	   41.00	   40.50	 -600.50	   31.22
    117.9846	   39.00	   40.48	 -602.48	   31.21
    118.0180	   32.00	   40.46	 -609.46	   31.20
    118.0514	   34.00	   40.44	 -607.44	   31.19
    118.0848	   37.00	   40.43	 -604.43	   31.18
    118.1183	   47.00	   40.41	 -594.41	   31.18
    118.1517	   45.00	   40.39	 -596.39	   31.17
    118.1851	   36.00	   40.38	 -605.38	   31.16
    118.2185	   37.00	   40.36	 -604.36	   31.15
    118.2519	   38.00	   40.35	 -603.35	   31.14
    118.2854	   44.00	   40.33	 -597.33	   31.13
    118.3188	   36.00	   40.32	 -605.32	   31.13
    118.3522	   38.00	   40.30	 -603.30	   31.12
    118.3856	   62.00	   40.29	 -579.29	   31.11
    118.4191	   31.00	   40.27	 -610.27	   31.10
    118.4525	   37.00	   40.26	 -604.26	   31.09
    118.4859	   51.00	   40.25	 -590.25	   31.08
    118.5193	   46.00	   40.24	 -595.24	   31.08
    118.5527	   44.00	   40.22	 -597.22	   31.07
    118.5862	   36.00	   40.21	 -605.21	   31.06
    118.6196	   37.00	   40.20	 -604.20	   31.05
    118.6530	   34.00	   40.19	 -607.19	   31.04
    118.6864	   35.00	   40.18	 -606.18	   31.03
    118.7199	   37.00	   40.17	 -604.17	   31.02
    118.7533	   47.00	   40.16	 -594.16	   31.02
    118.7867	   46.00	   40.14	 -595.14	   31.01
    118.8201	   31.00	   40.13	 -610.13	   31.00
    118.8536	   38.00	   40.12	 -603.12	   30.99
    118.8870	   43.00	   40.11	 -598.11	   30.98
    118.9204	   50.00	   40.10	 -591.10	   30.97
    118.9538	   45.00	   40.09	 -596.09	   30.96
    118.9872	   43.00	   40.08	 -598.08	   30.95
    119.0207	   35.00	   40.07	 -606.07	   30.95
    119.0541	   34.00	   40.06	 -607.06	   30.94
    119.0875	   45.00	   40.05	 -596.05	   30.93
    119.1209	   41.00	   40.04	 -600.04	   30.92
    119.1544	   33.00	   40.03	 -608.03	   30.91
    119.1878	   28.00	   40.02	 -613.02	   30.90
    119.2212	   37.00	   40.02	 -604.02	   30.89
    119.2546	   45.00	   40.01	 -596.01	   30.88
    119.2880	   35.00	   40.00	 -606.00	   30.88
    119.3215	   55.00	   39.99	 -585.99	   30.87
    119.3549	   38.00	   39.98	 -602.98	   30.86
    119.3883	   49.00	   39.97	 -591.97	   30.85
    119.4217	   34.00	   39.96	 -606.96	   30.84
    119.4552	   35.00	   39.96	 -605.96	   30.83
    119.4886	   30.00	   39.95	 -610.95	   30.82
    119.5220	   36.00	   39.94	 -604.94	   30.81
    119.5554	   45.00	   39.93	 -595.93	   30.80
    119.5888	   43.00	   39.92	 -597.92	   30.79
    119.6223	   43.00	   39.92	 -597.92	   30.79
    119.6557	   55.00	   39.91	 -585.91	   30.78
    119.6891	   32.00	   39.90	 -608.90	   30.77
    119.7225	   45.00	   39.90	 -595.90	   30.76
    119.7560	   37.00	   39.89	 -603.89	   30.75
    119.7894	   31.00	   39.88	 -609.88	   30.74
    119.8228	   56.00	   39.88	 -584.88	   30.73
    119.8562	   42.00	   39.87	 -598.87	   30.72
    119.8896	   33.00	   39.87	 -607.87	   30.71
    119.9231	   42.00	   39.86	 -598.86	   30.70
    119.9565	   54.00	   39.85	 -586.85	   30.69
    119.9899	   38.00	   39.85	 -602.85	   30.68
    120.0233	   49.00	   39.85	 -591.85	   30.67
    120.0568	   33.00	   39.84	 -607.84	   30.67
    120.0902	   30.00	   39.84	 -610.84	   30.66
    120.1236	   33.00	   39.83	 -607.83	   30.65
    120.1570	   33.00	   39.83	 -607.83	   30.64
    120.1905	   39.00	   39.83	 -601.83	   30.63
    120.2239	   38.00	   39.83	 -602.83	   30.62
    120.2573	   37.00	   39.83	 -603.83	   30.61
    120.2907	   44.00	   39.83	 -596.83	   30.60
    120.3241	   44.00	   39.83	 -596.83	   30.59
    120.3576	   44.00	   39.83	 -596.83	   30.58
    120.3910	   43.00	   39.83	 -597.83	   30.57
    120.4244	   29.00	   39.83	 -611.83	   30.56
    120.4578	   48.00	   39.84	 -592.84	   30.55
    120.4913	   38.00	   39.85	 -602.85	   30.54
    120.5247	   47.00	   39.85	 -593.85	   30.53
    120.5581	   29.00	   39.86	 -611.86	   30.52
    120.5915	   44.00	   39.87	 -596.87	   30.51
    120.6249	   38.00	   39.89	 -602.89	   30.50
    120.6584	   38.00	   39.90	 -602.90	   30.49
    120.6918	   45.00	   39.92	 -595.92	   30.48
    120.7252	   29.00	   39.94	 -611.94	   30.47
    120.7586	   48.00	   39.97	 -592.97	   30.47
    120.7921	   23.00	   40.00	 -618.00	   30.46
    120.8255	   39.00	   40.03	 -602.03	   30.45
    120.8589	   38.00	   40.08	 -603.08	   30.44
    120.8923	   44.00	   40.12	 -597.12	   30.43
    120.9258	   37.00	   40.18	 -604.18	   30.42
    120.9592	   32.00	   40.25	 -609.25	   30.41
    120.9926	   48.00	   40.33	 -593.33	   30.40
    121.0260	   33.00	   40.43	 -608.43	   30.39
    121.0594	   34.00	   40.55	 -607.55	   30.38
    121.0929	   45.00	   40.70	 -596.70	   30.37
    121.1263	   45.00	   40.89	 -596.89	   30.36
    121.1597	   42.00	   41.14	 -600.14	   30.35
    121.1931	   25.00	   41.47	 -617.47	   30.34
    121.2266	   43.00	   41.90	 -599.90	   30.33
    121.2600	   36.00	   42.47	 -607.47	   30.32
    121.2934	   41.00	   43.22	 -603.22	   30.31
    121.3268	   44.00	   44.17	 -601.17	   30.30
    121.3602	   51.00	   45.35	 -595.35	   30.29
    121.3937	   49.00	   46.75	 -598.75	   30.28
    121.4271	   61.00	   48.33	 -588.33	   30.27
    121.4605	   59.00	   49.92	 -591.92	   30.26
    121.4939	   60.00	   51.23	 -592.23	   30.25
    121.5274	   82.00	   51.91	 -570.91	   30.24
    121.5608	   57.00	   51.74	 -595.74	   30.23
    121.5942	   59.00	   50.79	 -592.79	   30.22
    121.6276	   49.00	   49.40	 -601.40	   30.21
    121.6610	   63.00	   47.93	 -585.93	   30.20
    121.6945	   38.00	   46.59	 -609.59	   30.19
    121.7279	   58.00	   45.51	 -588.51	   30.17
    121.7613	   54.00	   44.73	 -591.73	   30.16
    121.7947	   42.00	   44.24	 -603.24	   30.15
    121.8282	   31.00	   44.04	 -614.04	   30.14
    121.8616	   45.00	   44.11	 -600.11	   30.13
    121.8950	   34.00	   44.41	 -611.41	   30.12
    121.9284	   41.00	   44.88	 -604.88	   30.11
    121.9618	   68.00	   45.43	 -578.43	   30.10
    121.9953	   54.00	   45.92	 -592.92	   30.09
    122.0287	   51.00	   46.15	 -596.15	   30.08
    122.0621	   50.00	   45.98	 -596.98	   30.07
    122.0955	   58.00	   45.42	 -588.42	   30.06
    122.1290	   48.00	   44.62	 -597.62	   30.05
    122.1624	   39.00	   43.76	 -605.76	   30.04
    122.1958	   44.00	   42.94	 -599.94	   30.03
    122.2292	   56.00	   42.23	 -587.23	   30.02
    122.2626	   50.00	   41.63	 -592.63	   30.01
    122.2961	   38.00	   41.14	 -604.14	   30.00
    122.3295	   46.00	   40.76	 -595.76	   29.99
    122.3629	   48.00	   40.46	 -593.46	   29.98
    122.3963	   38.00	   40.23	 -603.23	   29.96
    122.4298	   39.00	   40.04	 -602.04	   29.95
    122.4632	   51.00	   39.90	 -589.90	   29.94
    122.4966	   42.00	   39.78	 -598.78	   29.93
    122.5300	   46.00	   39.68	 -594.68	   29.92
    122.5635	   42.00	   39.59	 -598.59	   29.91
    122.5969	   49.00	   39.52	 -591.52	   29.90
    122.6303	   50.00	   39.45	 -590.45	   29.89
    122.6637	   37.00	   39.40	 -603.40	   29.88
    122.6971	   25.00	   39.35	 -615.35	   29.87
    122.7306	   55.00	   39.30	 -585.30	   29.86
    122.7640	   49.00	   39.26	 -591.26	   29.85
    122.7974	   33.00	   39.22	 -607.22	   29.83
    122.8308	   31.00	   39.18	 -609.18	   29.82
    122.8643	   48.00	   39.15	 -592.15	   29.81
    122.8977	   34.00	   39.11	 -606.11	   29.80
    122.9311	   46.00	   39.08	 -594.08	   29.79
    122.9645	   36.00	   39.06	 -604.06	   29.78
    122.9979	   31.00	   39.03	 -609.03	   29.77
    123.0314	   41.00	   39.00	 -599.00	   29.76
    123.0648	   38.00	   38.98	 -601.98	   29.75
    123.0982	   48.00	   38.96	 -591.96	   29.74
    123.1316	   27.00	   38.94	 -612.94	   29.72
    123.1651	   36.00	   38.91	 -603.91	   29.71
    123.1985	   36.00	   38.89	 -603.89	   29.70
    123.2319	   47.00	   38.87	 -592.87	   29.69
    123.2653	   38.00	   38.85	 -601.85	   29.68
    123.2988	   37.00	   38.84	 -602.84	   29.67
    123.3322	   34.00	   38.82	 -605.82	   29.66
    123.3656	   51.00	   38.80	 -588.80	   29.65
    123.3990	   31.00	   38.78	 -608.78	   29.63
    123.4324	   43.00	   38.77	 -596.77	   29.62
    123.4659	   43.00	   38.75	 -596.75	   29.61
    123.4993	   33.00	   38.73	 -606.73	   29.60
    123.5327	   28.00	   38.72	 -611.72	   29.59
    123.5661	   45.00	   38.70	 -594.70	   29.58
    123.5995	   41.00	   38.69	 -598.69	   29.57
    123.6330	   43.00	   38.67	 -596.67	   29.55
    123.6664	   38.00	   38.66	 -601.66	   29.54
    123.6998	   41.00	   38.65	 -598.65	   29.53
    123.7332	   39.00	   38.63	 -600.63	   29.52
    123.7667	   39.00	   38.62	 -600.62	   29.51
    123.8001	   38.00	   38.60	 -601.60	   29.50
    123.8335	   38.00	   38.59	 -601.59	   29.48
    123.8669	   37.00	   38.58	 -602.58	   29.47
    123.9004	   44.00	   38.56	 -595.56	   29.46
    123.9338	   35.00	   38.55	 -604.55	   29.45
    123.9672	   45.00	   38.54	 -594.54	   29.44
    124.0006	   54.00	   38.53	 -585.53	   29.43
    124.0340	   45.00	   38.51	 -594.51	   29.41
    124.0675	   43.00	   38.49	 -596.49	   29.40
    124.1009	   46.00	   38.48	 -593.48	   29.39
    124.1343	   34.00	   38.47	 -605.47	   29.38
    124.1677	   42.00	   38.46	 -597.46	   29.37
    124.2012	   47.00	   38.45	 -592.45	   29.35
    124.2346	   45.00	   38.44	 -594.44	   29.34
    124.2680	   41.00	   38.43	 -598.43	   29.33
    124.3014	   34.00	   38.42	 -605.42	   29.32
    124.3348	   39.00	   38.41	 -600.41	   29.31
    124.3683	   37.00	   38.40	 -602.40	   29.30
    124.4017	   47.00	   38.40	 -592.40	   29.28
    124.4351	   38.00	   38.39	 -601.39	   29.27
    124.4685	   33.00	   38.38	 -606.38	   29.26
    124.5020	   35.00	   38.38	 -604.38	   29.25
    124.5354	   44.00	   38.37	 -595.37	   29.23
    124.5688	   35.00	   38.37	 -604.37	   29.22
    124.6022	   42.00	   38.37	 -597.37	   29.21
    124.6357	   29.00	   38.37	 -610.37	   29.20
    124.6691	   43.00	   38.37	 -596.37	   29.19
    124.7025	   41.00	   38.38	 -598.38	   29.17
    124.7359	   46.00	   38.40	 -593.40	   29.16
    124.7693	   45.00	   38.42	 -594.42	   29.15
    124.8028	   33.00	   38.45	 -606.45	   29.14
    124.8362	   31.00	   38.50	 -608.50	   29.12
    124.8696	   33.00	   38.56	 -606.56	   29.11
    124.9030	   36.00	   38.65	 -603.65	   29.10
    124.9365	   31.00	   38.76	 -608.76	   29.09
    124.9699	   41.00	   38.89	 -598.89	   29.08
    125.0033	   43.00	   39.06	 -597.06	   29.06
    125.0367	   38.00	   39.23	 -602.23	   29.05
    125.0701	   55.00	   39.41	 -585.41	   29.04
    125.1036	   46.00	   39.56	 -594.56	   29.03
    125.1370	   38.00	   39.63	 -602.63	   29.01
    125.1704	   42.00	   39.61	 -598.61	   29.00
    125.2038	   41.00	   39.50	 -599.50	   28.99
    125.2373	   42.00	   39.32	 -598.32	   28.98
    125.2707	   39.00	   39.13	 -601.13	   28.96
    125.3041	   52.00	   38.95	 -587.95	   28.95
    125.3375	   32.00	   38.79	 -607.79	   28.94
    125.3709	   41.00	   38.67	 -598.67	   28.92
    125.4044	   43.00	   38.58	 -596.58	   28.91
    125.4378	   45.00	   38.52	 -594.52	   28.90
    125.4712	   29.00	   38.50	 -610.50	   28.89
    125.5046	   38.00	   38.50	 -601.50	   28.87
    125.5381	   41.00	   38.53	 -598.53	   28.86
    125.5715	   36.00	   38.57	 -603.57	   28.85
    125.6049	   41.00	   38.63	 -598.63	   28.83
    125.6383	   34.00	   38.68	 -605.68	   28.82
    125.6718	   34.00	   38.71	 -605.71	   28.81
    125.7052	   55.00	   38.69	 -584.69	   28.80
    125.7386	   33.00	   38.62	 -606.62	   28.78
    125.7720	   44.00	   38.53	 -595.53	   28.77
    125.8054	   31.00	   38.41	 -608.41	   28.76
    125.8389	   36.00	   38.30	 -603.30	   28.74
    125.8723	   50.00	   38.19	 -589.19	   28.73
    125.9057	   34.00	   38.10	 -605.10	   28.72
    125.9391	   46.00	   38.02	 -593.02	   28.70
    125.9725	   34.00	   37.95	 -604.95	   28.69
    126.0060	   50.00	   37.90	 -588.90	   28.68
    126.0394	   24.00	   37.85	 -614.85	   28.67
    126.0728	   34.00	   37.81	 -604.81	   28.65
    126.1062	   50.00	   37.78	 -588.78	   28.64
    126.1397	   48.00	   37.75	 -590.75	   28.63
    126.1731	   46.00	   37.72	 -592.72	   28.61
    126.2065	   38.00	   37.70	 -600.70	   28.60
    126.2399	   33.00	   37.67	 -605.67	   28.59
    126.2734	   41.00	   37.65	 -597.65	   28.57
    126.3068	   29.00	   37.63	 -609.63	   28.56
    126.3402	   52.00	   37.61	 -586.61	   28.55
    126.3736	   30.00	   37.60	 -608.60	   28.53
    126.4070	   37.00	   37.58	 -601.58	   28.52
    126.4405	   35.00	   37.56	 -603.56	   28.51
    126.4739	   44.00	   37.54	 -594.54	   28.49
    126.5073	   41.00	   37.52	 -597.52	   28.48
    126.5407	   35.00	   37.51	 -603.51	   28.46
    126.5742	   37.00	   37.49	 -601.49	   28.45
    126.6076	   33.00	   37.48	 -605.48	   28.44
    126.6410	   42.00	   37.46	 -596.46	   28.42
    126.6744	   44.00	   37.44	 -594.44	   28.41
    126.7078	   45.00	   37.43	 -593.43	   28.40
    126.7413	   32.00	   37.41	 -606.41	   28.38
    126.7747	   36.00	   37.40	 -602.40	   28.37
    126.8081	   41.00	   37.38	 -597.38	   28.36
    126.8415	   38.00	   37.37	 -600.37	   28.34
    126.8750	   30.00	   37.35	 -608.35	   28.33
    126.9084	   36.00	   37.34	 -602.34	   28.31
    126.9418	   32.00	   37.32	 -606.32	   28.30
    126.9752	   44.00	   37.31	 -594.31	   28.29
    127.0087	   46.00	   37.29	 -592.29	   28.27
    127.0421	   34.00	   37.28	 -604.28	   28.26
    127.0755	   33.00	   37.26	 -605.26	   28.24
    127.1089	   46.00	   37.25	 -592.25	   28.23
    127.1423	   52.00	   37.23	 -586.23	   28.22
    127.1758	   51.00	   37.22	 -587.22	   28.20
    127.2092	   41.00	   37.20	 -597.20	   28.19
    127.2426	   27.00	   37.19	 -611.19	   28.17
    127.2760	   30.00	   37.17	 -608.17	   28.16
    127.3095	   48.00	   37.16	 -590.16	   28.15
    127.3429	   34.00	   37.14	 -604.14	   28.13
    127.3763	   48.00	   37.13	 -590.13	   28.12
    127.4097	   38.00	   37.11	 -600.11	   28.10
    127.4431	   31.00	   37.10	 -607.10	   28.09
    127.4766	   33.00	   37.08	 -605.08	   28.07
    127.5100	   28.00	   37.07	 -610.07	   28.06
    127.5434	   45.00	   37.06	 -593.06	   28.05
    127.5768	   39.00	   37.04	 -599.04	   28.03
    127.6103	   32.00	   37.03	 -606.03	   28.02
    127.6437	   49.00	   37.01	 -589.01	   28.00
    127.6771	   43.00	   37.00	 -595.00	   27.99
    127.7105	   36.00	   36.98	 -601.98	   27.97
    127.7439	   47.00	   36.97	 -590.97	   27.96
    127.7774	   36.00	   36.95	 -601.95	   27.94
    127.8108	   30.00	   36.94	 -607.94	   27.93
    127.8442	   47.00	   36.92	 -590.92	   27.92
    127.8776	   46.00	   36.91	 -591.91	   27.90
    127.9111	   36.00	   36.89	 -601.89	   27.89
    127.9445	   32.00	   36.88	 -605.88	   27.87
    127.9779	   42.00	   36.86	 -595.86	   27.86
    128.0113	   61.00	   36.85	 -576.85	   27.84
    128.0448	   50.00	   36.83	 -587.83	   27.83
    128.0782	   31.00	   36.82	 -606.82	   27.81
    128.1116	   49.00	   36.80	 -588.80	   27.80
    128.1450	   39.00	   36.79	 -598.79	   27.78
    128.1784	   37.00	   36.77	 -600.77	   27.77
    128.2119	   41.00	   36.76	 -596.76	   27.75
    128.2453	   39.00	   36.74	 -598.74	   27.74
    128.2787	   35.00	   36.73	 -602.73	   27.72
    128.3121	   27.00	   36.71	 -610.71	   27.71
    128.3456	   52.00	   36.70	 -585.70	   27.69
    128.3790	   35.00	   36.68	 -602.68	   27.68
    128.4124	   41.00	   36.67	 -596.67	   27.66
    128.4458	   33.00	   36.65	 -604.65	   27.65
    128.4792	   38.00	   36.64	 -599.64	   27.63
    128.5127	   49.00	   36.62	 -588.62	   27.62
    128.5461	   36.00	   36.61	 -601.61	   27.60
    128.5795	   25.00	   36.59	 -612.59	   27.59
    128.6129	   39.00	   36.58	 -598.58	   27.57
    128.6464	   48.00	   36.56	 -589.56	   27.56
    128.6798	   45.00	   36.55	 -592.55	   27.54
    128.7132	   27.00	   36.53	 -610.53	   27.53
    128.7466	   38.00	   36.52	 -599.52	   27.51
    128.7800	   33.00	   36.50	 -604.50	   27.50
    128.8135	   37.00	   36.49	 -600.49	   27.48
    128.8469	   45.00	   36.47	 -592.47	   27.47
    128.8803	   29.00	   36.45	 -608.45	   27.45
    128.9137	   42.00	   36.44	 -595.44	   27.43
    128.9472	   54.00	   36.42	 -583.42	   27.42
    128.9806	   49.00	   36.41	 -588.41	   27.40
    129.0140	   51.00	   36.39	 -586.39	   27.39
    129.0474	   37.00	   36.38	 -600.38	   27.37
    129.0809	   43.00	   36.36	 -594.36	   27.36
    129.1143	   32.00	   36.35	 -605.35	   27.34
    129.1477	   46.00	   36.33	 -591.33	   27.33
    129.1811	   33.00	   36.32	 -604.32	   27.31
    129.2145	   42.00	   36.30	 -595.30	   27.29
    129.2480	   50.00	   36.28	 -587.28	   27.28
    129.2814	   34.00	   36.27	 -603.27	   27.26
    129.3148	   38.00	   36.25	 -599.25	   27.25
    129.3482	   39.00	   36.24	 -598.24	   27.23
    129.3817	   28.00	   36.22	 -609.22	   27.22
    129.4151	   42.00	   36.21	 -595.21	   27.20
    129.4485	   27.00	   36.19	 -610.19	   27.18
    129.4819	   37.00	   36.17	 -600.17	   27.17
    129.5154	   44.00	   36.16	 -593.16	   27.15
    129.5488	   36.00	   36.14	 -601.14	   27.14
    129.5822	   37.00	   36.13	 -600.13	   27.12
    129.6156	   42.00	   36.11	 -595.11	   27.10
    129.6490	   50.00	   36.10	 -587.10	   27.09
    129.6825	   38.00	   36.08	 -599.08	   27.07
    129.7159	   35.00	   36.06	 -602.06	   27.06
    129.7493	   44.00	   36.05	 -593.05	   27.04
    129.7827	   31.00	   36.03	 -606.03	   27.02
    129.8161	   41.00	   36.02	 -596.02	   27.01
    129.8496	   36.00	   36.00	 -601.00	   26.99
    129.8830	   30.00	   35.98	 -606.98	   26.97
    129.9164	   52.00	   35.96	 -584.96	   26.96
    129.9498	   28.00	   35.95	 -608.95	   26.94
    129.9833	   52.00	   35.93	 -584.93	   26.93
     31.7152	        	        	        	        	       0	(  1  0  0)	  0  1 :  1
     31.7954	        	        	        	        	       0	(  1  0  0)	  0  2 :  1
     34.3711	        	        	        	        	       0	(  0  0  2)	  0  1 :  1
     34.4584	        	        	        	        	       0	(  0  0  2)	  0  2 :  1
     36.2014	        	        	        	        	       0	(  1  0  1)	  0  1 :  1
     36.2937	        	        	        	        	       0	(  1  0  1)	  0  2 :  1
     47.4902	        	        	        	        	       0	(  1  0  2)	  0  1 :  1
     47.6144	        	        	        	        	       0	(  1  0  2)	  0  2 :  1
     56.5461	        	        	        	        	       0	(  1  1  0)	  0  1 :  1
     56.6979	        	        	        	        	       0	(  1  1  0)	  0  2 :  1
     62.8127	        	        	        	        	       0	(  1  0  3)	  0  1 :  1
     62.9851	        	        	        	        	       0	(  1  0  3)	  0  2 :  1
     66.3290	        	        	        	        	       0	(  2  0  0)	  0  1 :  1
     66.5135	        	        	        	        	       0	(  2  0  0)	  0  2 :  1
     67.9026	        	        	        	        	       0	(  1  1  2)	  0  1 :  1
     68.0928	        	        	        	        	       0	(  1  1  2)	  0  2 :  1
     69.0405	        	        	        	        	       0	(  2  0  1)	  0  1 :  1
     69.2347	        	        	        	        	       0	(  2  0  1)	  0  2 :  1
     72.5263	        	        	        	        	       0	(  0  0  4)	  0  1 :  1
     72.7335	        	        	        	        	       0	(  0  0  4)	  0  2 :  1
     76.9169	        	        	        	        	       0	(  2  0  2)	  0  1 :  1
     77.1412	        	        	        	        	       0	(  2  0  2)	  0  2 :  1
     81.3478	        	        	        	        	       0	(  1  0  4)	  0  1 :  1
     81.5905	        	        	        	        	       0	(  1  0  4)	  0  2 :  1
     89.5750	        	        	        	        	       0	(  2  0  3)	  0  1 :  1
     89.8555	        	        	        	        	       0	(  2  0  3)	  0  2 :  1
     92.7527	        	        	        	        	       0	(  2  1  0)	  0  1 :  1
     93.0492	        	        	        	        	       0	(  2  1  0)	  0  2 :  1
     95.2684	        	        	        	        	       0	(  2  1  1)	  0  1 :  1
     95.5783	        	        	        	        	       0	(  2  1  1)	  0  2 :  1
     98.5856	        	        	        	        	       0	(  1  1  4)	  0  1 :  1
     98.9142	        	        	        	        	       0	(  1  1  4)	  0  2 :  1
    102.8982	        	        	        	        	       0	(  2  1  2)	  0  1 :  1
    103.2531	        	        	        	        	       0	(  2  1  2)	  0  2 :  1
    104.1064	        	        	        	        	       0	(  1  0  5)	  0  1 :  1
    104.4690	        	        	        	        	       0	(  1  0  5)	  0  2 :  1
    107.4081	        	        	        	        	       0	(  2  0  4)	  0  1 :  1
    107.7932	        	        	        	        	       0	(  2  0  4)	  0  2 :  1
    110.3526	        	        	        	        	       0	(  3  0  0)	  0  1 :  1
    110.7593	        	        	        	        	       0	(  3  0  0)	  0  2 :  1
    113.0542	        	        	        	        	       0	(  3  0  1)	  0  1 :  1
    113.4822	        	        	        	        	       0	(  3  0  1)	  0  2 :  1
    116.2472	        	        	        	        	       0	(  2  1  3)	  0  1 :  1
    116.7024	        	        	        	        	       0	(  2  1  3)	  0  2 :  1
    121.5355	        	        	        	        	       0	(  3  0  2)	  0  1 :  1
    122.0417	        	        	        	        	       0	(  3  0  2)	  0  2 :  1
    125.1481	        	        	        	        	       0	(  0  0  6)	  0  1 :  1
    125.6944	        	        	        	        	       0	(  0  0  6)	  0  2 :  1
    133.9046	        	        	        	        	       0	(  2  0  5)	  0  1 :  1
    134.5724	        	        	        	        	       0	(  2  0  5)	  0  2 :  1
    136.5205	        	        	        	        	       0	(  1  0  6)	  0  1 :  1
    137.2337	        	        	        	        	       0	(  1  0  6)	  0  2 :  1
    137.9098	        	        	        	        	       0	(  3  0  3)	  0  1 :  1
    138.4975	        	        	        	        	       0	(  2  1  4)	  0  1 :  1
    138.6494	        	        	        	        	       0	(  3  0  3)	  0  2 :  1
    139.2488	        	        	        	        	       0	(  2  1  4)	  0  2 :  1
    142.8977	        	        	        	        	       0	(  2  2  0)	  0  1 :  1
    143.7480	        	        	        	        	       0	(  2  2  0)	  0  2 :  1
