ZnO hexagonal   Chi2:  1.7269  CELL:    3.25021   3.25021   5.20706   90.0000   90.0000  120.0000   SPGR: P 63 m c               TEMP:      0.00
  1   3291     1.54060     1.54439     0.00000     0.02787     0.00000    0
    56     0     1
       0.00000      30.00000
 2Theta	Yobs	Ycal	Yobs-Ycal	Backg	Posr	(hkl)	K
     20.0231	  282.00	  251.64	-2078.87	  190.78
     20.0565	  199.00	  251.63	-2078.87	  190.77
     20.0900	  222.00	  251.63	-2078.87	  190.77
     20.1234	  260.00	  251.62	-2078.87	  190.77
     20.1568	  208.00	  251.62	-2078.87	  190.76
     20.1902	  233.00	  251.61	-2078.87	  190.76
     20.2236	  227.00	  251.61	-2078.87	  190.75
     20.2571	  249.00	  251.61	-2078.87	  190.75
     20.2905	  235.00	  251.60	-2078.87	  190.74
     20.3239	  210.00	  251.60	-2078.87	  190.74
     20.3573	  243.00	  251.59	-2078.87	  190.73
     20.3908	  237.00	  251.59	-2078.87	  190.73
     20.4242	  243.00	  251.58	-2078.87	  190.72
     20.4576	  250.00	  251.58	-2078.87	  190.72
     20.4910	  203.00	  251.57	-2078.87	  190.71
     20.5245	  260.00	  251.57	-2078.87	  190.71
     20.5579	  230.00	  251.56	-2078.87	  190.70
     20.5913	  218.00	  251.56	-2078.87	  190.70
     20.6247	  220.00	  251.55	-2078.87	  190.69
     20.6581	  219.00	  251.55	-2078.87	  190.69
     20.6916	  232.00	  251.54	-2078.87	  190.68
     20.7250	  221.00	  251.54	-2078.87	  190.68
     20.7584	  233.00	  251.53	-2078.87	  190.68
     20.7918	  246.00	  251.53	-2078.87	  190.67
     20.8253	  232.00	  251.52	-2078.87	  190.67
     20.8587	  237.00	  251.52	-2078.87	  190.66
     20.8921	  232.00	  251.51	-2078.87	  190.66
     20.9255	  251.00	  251.51	-2078.87	  190.65
     20.9589	  235.00	  251.51	-2078.87	  190.65
     20.9924	  251.00	  251.50	-2078.87	  190.64
     21.0258	  234.00	  251.50	-2078.87	  190.64
     21.0592	  221.00	  251.49	-2078.87	  190.63
     21.0926	  251.00	  251.49	-2078.87	  190.63
     21.1261	  276.00	  251.48	-2078.87	  190.62
     21.1595	  248.00	  251.48	-2078.87	  190.62
     21.1929	  248.00	  251.47	-2078.87	  190.61
     21.2263	  239.00	  251.47	-2078.87	  190.61
     21.2597	  255.00	  251.46	-2078.87	  190.60
     21.2932	  223.00	  251.46	-2078.87	  190.60
     21.3266	  250.00	  251.45	-2078.87	  190.59
     21.3600	  242.00	  251.45	-2078.87	  190.59
     21.3934	  220.00	  251.44	-2078.87	  190.58
     21.4269	  231.00	  251.44	-2078.87	  190.58
     21.4603	  249.00	  251.43	-2078.87	  190.57
     21.4937	  209.00	  251.43	-2078.87	  190.57
     21.5271	  224.00	  251.42	-2078.87	  190.56
     21.5605	  246.00	  251.42	-2078.87	  190.56
     21.5940	  245.00	  251.41	-2078.87	  190.56
     21.6274	  237.00	  251.41	-2078.87	  190.55
     21.6608	  240.00	  251.40	-2078.87	  190.55
     21.6942	  230.00	  251.40	-2078.87	  190.54
     21.7277	  237.00	  251.39	-2078.87	  190.54
     21.7611	  209.00	  251.39	-2078.87	  190.53
     21.7945	  233.00	  251.38	-2078.87	  190.53
     21.8279	  253.00	  251.38	-2078.87	  190.52
     21.8614	  232.00	  251.37	-2078.87	  190.52
     21.8948	  210.00	  251.37	-2078.87	  190.51
     21.9282	  234.00	  251.37	-2078.87	  190.51
     21.9616	  238.00	  251.36	-2078.87	  190.50
     21.9950	  239.00	  251.36	-2078.87	  190.50
     22.0285	  259.00	  251.35	-2078.87	  190.49
     22.0619	  215.00	  251.35	-2078.87	  190.49
     22.0953	  280.00	  251.34	-2078.87	  190.48
     22.1287	  252.00	  251.34	-2078.87	  190.48
     22.1622	  240.00	  251.33	-2078.87	  190.47
     22.1956	  222.00	  251.33	-2078.87	  190.47
     22.2290	  230.00	  251.32	-2078.87	  190.46
     22.2624	  240.00	  251.32	-2078.87	  190.46
     22.2958	  225.00	  251.31	-2078.87	  190.45
     22.3293	  194.00	  251.31	-2078.87	  190.45
     22.3627	  234.00	  251.30	-2078.87	  190.44
     22.3961	  239.00	  251.30	-2078.87	  190.44
     22.4295	  231.00	  251.29	-2078.87	  190.43
     22.4630	  242.00	  251.29	-2078.87	  190.43
     22.4964	  227.00	  251.28	-2078.87	  190.42
     22.5298	  251.00	  251.28	-2078.87	  190.42
     22.5632	  227.00	  251.27	-2078.87	  190.41
     22.5966	  215.00	  251.27	-2078.87	  190.41
     22.6301	  274.00	  251.26	-2078.87	  190.40
     22.6635	  257.00	  251.26	-2078.87	  190.40
     22.6969	  233.00	  251.25	-2078.87	  190.39
     22.7303	  230.00	  251.25	-2078.87	  190.39
     22.7638	  203.00	  251.24	-2078.87	  190.38
     22.7972	  231.00	  251.24	-2078.87	  190.38
     22.8306	  245.00	  251.23	-2078.87	  190.37
     22.8640	  257.00	  251.23	-2078.87	  190.37
     22.8974	  257.00	  251.22	-2078.87	  190.36
     22.9309	  242.00	  251.22	-2078.87	  190.36
     22.9643	  251.00	  251.21	-2078.87	  190.35
     22.9977	  226.00	  251.21	-2078.87	  190.35
     23.0311	  220.00	  251.20	-2078.87	  190.34
     23.0646	  243.00	  251.20	-2078.87	  190.34
     23.0980	  234.00	  251.19	-2078.87	  190.33
     23.1314	  250.00	  251.19	-2078.87	  190.33
     23.1648	  220.00	  251.18	-2078.87	  190.32
     23.1983	  260.00	  251.18	-2078.87	  190.32
     23.2317	  256.00	  251.17	-2078.87	  190.31
     23.2651	  256.00	  251.17	-2078.87	  190.31
     23.2985	  236.00	  251.16	-2078.87	  190.30
     23.3319	  233.00	  251.16	-2078.87	  190.30
     23.3654	  224.00	  251.15	-2078.87	  190.29
     23.3988	  259.00	  251.15	-2078.87	  190.29
     23.4322	  225.00	  251.14	-2078.87	  190.28
     23.4656	  232.00	  251.14	-2078.87	  190.28
     23.4991	  226.00	  251.13	-2078.87	  190.27
     23.5325	  238.00	  251.13	-2078.87	  190.27
     23.5659	  208.00	  251.12	-2078.87	  190.26
     23.5993	  211.00	  251.12	-2078.87	  190.26
     23.6327	  247.00	  251.11	-2078.87	  190.25
     23.6662	  248.00	  251.11	-2078.87	  190.25
     23.6996	  229.00	  251.10	-2078.87	  190.24
     23.7330	  217.00	  251.10	-2078.87	  190.24
     23.7664	  243.00	  251.09	-2078.87	  190.23
     23.7999	  242.00	  251.09	-2078.87	  190.23
     23.8333	  244.00	  251.08	-2078.87	  190.22
     23.8667	  227.00	  251.08	-2078.87	  190.22
     23.9001	  266.00	  251.07	-2078.87	  190.21
     23.9335	  236.00	  251.07	-2078.87	  190.21
     23.9670	  237.00	  251.06	-2078.87	  190.20
     24.0004	  255.00	  251.06	-2078.87	  190.20
     24.0338	  257.00	  251.05	-2078.87	  190.19
     24.0672	  232.00	  251.05	-2078.87	  190.19
     24.1007	  227.00	  251.04	-2078.87	  190.18
     24.1341	  199.00	  251.04	-2078.87	  190.18
     24.1675	  233.00	  251.03	-2078.87	  190.17
     24.2009	  225.00	  251.03	-2078.87	  190.17
     24.2344	  229.00	  251.02	-2078.87	  190.16
     24.2678	  260.00	  251.02	-2078.87	  190.16
     24.3012	  247.00	  251.01	-2078.87	  190.15
     24.3346	  217.00	  251.01	-2078.87	  190.15
     24.3680	  226.00	  251.00	-2078.87	  190.14
     24.4015	  244.00	  251.00	-2078.87	  190.14
     24.4349	  198.00	  250.99	-2078.87	  190.13
     24.4683	  260.00	  250.99	-2078.87	  190.13
     24.5017	  263.00	  250.98	-2078.87	  190.12
     24.5352	  227.00	  250.98	-2078.87	  190.12
     24.5686	  232.00	  250.97	-2078.87	  190.11
     24.6020	  239.00	  250.97	-2078.87	  190.11
     24.6354	  266.00	  250.96	-2078.87	  190.10
     24.6688	  217.00	  250.96	-2078.87	  190.10
     24.7023	  231.00	  250.95	-2078.87	  190.09
     24.7357	  274.00	  250.95	-2078.87	  190.09
     24.7691	  234.00	  250.94	-2078.87	  190.08
     24.8025	  246.00	  250.94	-2078.87	  190.08
     24.8360	  249.00	  250.93	-2078.87	  190.07
     24.8694	  246.00	  250.93	-2078.87	  190.07
     24.9028	  234.00	  250.92	-2078.87	  190.06
     24.9362	  221.00	  250.92	-2078.87	  190.06
     24.9696	  223.00	  250.91	-2078.87	  190.05
     25.0031	  251.00	  250.91	-2078.87	  190.05
     25.0365	  263.00	  250.90	-2078.87	  190.04
     25.0699	  213.00	  250.90	-2078.87	  190.04
     25.1033	  220.00	  250.89	-2078.87	  190.03
     25.1368	  251.00	  250.89	-2078.87	  190.03
     25.1702	  236.00	  250.88	-2078.87	  190.02
     25.2036	  248.00	  250.88	-2078.87	  190.02
     25.2370	  209.00	  250.87	-2078.87	  190.01
     25.2705	  211.00	  250.87	-2078.87	  190.01
     25.3039	  209.00	  250.86	-2078.87	  190.00
     25.3373	  242.00	  250.86	-2078.87	  190.00
     25.3707	  258.00	  250.85	-2078.87	  189.99
     25.4041	  242.00	  250.84	-2078.87	  189.99
     25.4376	  248.00	  250.84	-2078.87	  189.98
     25.4710	  236.00	  250.83	-2078.87	  189.98
     25.5044	  244.00	  250.83	-2078.87	  189.97
     25.5378	  270.00	  250.82	-2078.87	  189.97
     25.5713	  246.00	  250.82	-2078.87	  189.96
     25.6047	  244.00	  250.81	-2078.87	  189.96
     25.6381	  233.00	  250.81	-2078.87	  189.95
     25.6715	  245.00	  250.80	-2078.87	  189.95
     25.7049	  219.00	  250.80	-2078.87	  189.94
     25.7384	  269.00	  250.79	-2078.87	  189.93
     25.7718	  231.00	  250.79	-2078.87	  189.93
     25.8052	  216.00	  250.78	-2078.87	  189.92
     25.8386	  226.00	  250.78	-2078.87	  189.92
     25.8721	  243.00	  250.77	-2078.87	  189.91
     25.9055	  261.00	  250.77	-2078.87	  189.91
     25.9389	  226.00	  250.76	-2078.87	  189.90
     25.9723	  247.00	  250.76	-2078.87	  189.90
     26.0057	  244.00	  250.75	-2078.87	  189.89
     26.0392	  239.00	  250.75	-2078.87	  189.89
     26.0726	  234.00	  250.74	-2078.87	  189.88
     26.1060	  263.00	  250.74	-2078.87	  189.88
     26.1394	  240.00	  250.73	-2078.87	  189.87
     26.1729	  226.00	  250.73	-2078.87	  189.87
     26.2063	  250.00	  250.72	-2078.87	  189.86
     26.2397	  262.00	  250.72	-2078.87	  189.86
     26.2731	  252.00	  250.71	-2078.87	  189.85
     26.3065	  232.00	  250.71	-2078.87	  189.85
     26.3400	  238.00	  250.70	-2078.87	  189.84
     26.3734	  250.00	  250.70	-2078.87	  189.84
     26.4068	  240.00	  250.69	-2078.87	  189.83
     26.4402	  244.00	  250.68	-2078.87	  189.83
     26.4737	  229.00	  250.68	-2078.87	  189.82
     26.5071	  223.00	  250.67	-2078.87	  189.82
     26.5405	  234.00	  250.67	-2078.87	  189.81
     26.5739	  238.00	  250.66	-2078.87	  189.81
     26.6074	  265.00	  250.66	-2078.87	  189.80
     26.6408	  252.00	  250.65	-2078.87	  189.80
     26.6742	  247.00	  250.65	-2078.87	  189.79
     26.7076	  249.00	  250.64	-2078.87	  189.78
     26.7410	  222.00	  250.64	-2078.87	  189.78
     26.7745	  258.00	  250.63	-2078.87	  189.77
     26.8079	  224.00	  250.63	-2078.87	  189.77
     26.8413	  250.00	  250.62	-2078.87	  189.76
     26.8747	  245.00	  250.62	-2078.87	  189.76
     26.9082	  238.00	  250.61	-2078.87	  189.75
     26.9416	  257.00	  250.61	-2078.87	  189.75
     26.9750	  219.00	  250.60	-2078.87	  189.74
     27.0084	  226.00	  250.60	-2078.87	  189.74
     27.0418	  215.00	  250.59	-2078.87	  189.73
     27.0753	  206.00	  250.59	-2078.87	  189.73
     27.1087	  220.00	  250.58	-2078.87	  189.72
     27.1421	  240.00	  250.58	-2078.87	  189.72
     27.1755	  232.00	  250.57	-2078.87	  189.71
     27.2090	  211.00	  250.57	-2078.87	  189.71
     27.2424	  223.00	  250.56	-2078.87	  189.70
     27.2758	  252.00	  250.55	-2078.87	  189.70
     27.3092	  246.00	  250.55	-2078.87	  189.69
     27.3426	  255.00	  250.54	-2078.87	  189.69
     27.3761	  248.00	  250.54	-2078.87	  189.68
     27.4095	  259.00	  250.53	-2078.87	  189.67
     27.4429	  231.00	  250.53	-2078.87	  189.67
     27.4763	  234.00	  250.52	-2078.87	  189.66
     27.5098	  219.00	  250.52	-2078.87	  189.66
     27.5432	  249.00	  250.51	-2078.87	  189.65
     27.5766	  234.00	  250.51	-2078.87	  189.65
     27.6100	  255.00	  250.50	-2078.87	  189.64
     27.6434	  258.00	  250.50	-2078.87	  189.64
     27.6769	  238.00	  250.49	-2078.87	  189.63
     27.7103	  252.00	  250.49	-2078.87	  189.63
     27.7437	  224.00	  250.48	-2078.87	  189.62
     27.7771	  242.00	  250.48	-2078.87	  189.62
     27.8106	  253.00	  250.47	-2078.87	  189.61
     27.8440	  230.00	  250.47	-2078.87	  189.61
     27.8774	  256.00	  250.46	-2078.87	  189.60
     27.9108	  231.00	  250.45	-2078.87	  189.60
     27.9443	  259.00	  250.45	-2078.87	  189.59
     27.9777	  243.00	  250.44	-2078.87	  189.59
     28.0111	  250.00	  250.44	-2078.87	  189.58
     28.0445	  231.00	  250.43	-2078.87	  189.57
     28.0779	  219.00	  250.43	-2078.87	  189.57
     28.1114	  230.00	  250.42	-2078.87	  189.56
     28.1448	  224.00	  250.42	-2078.87	  189.56
     28.1782	  235.00	  250.41	-2078.87	  189.55
     28.2116	  224.00	  250.41	-2078.87	  189.55
     28.2451	  257.00	  250.40	-2078.87	  189.54
     28.2785	  238.00	  250.40	-2078.87	  189.54
     28.3119	  250.00	  250.39	-2078.87	  189.53
     28.3453	  234.00	  250.39	-2078.87	  189.53
     28.3787	  257.00	  250.38	-2078.87	  189.52
     28.4122	  231.00	  250.38	-2078.87	  189.52
     28.4456	  210.00	  250.37	-2078.87	  189.51
     28.4790	  248.00	  250.36	-2078.87	  189.51
     28.5124	  229.00	  250.36	-2078.87	  189.50
     28.5459	  220.00	  250.35	-2078.87	  189.50
     28.5793	  240.00	  250.35	-2078.87	  189.49
     28.6127	  276.00	  250.34	-2078.87	  189.48
     28.6461	  226.00	  250.34	-2078.87	  189.48
     28.6795	  226.00	  250.33	-2078.87	  189.47
     28.7130	  236.00	  250.33	-2078.87	  189.47
     28.7464	  258.00	  250.32	-2078.87	  189.46
     28.7798	  253.00	  250.32	-2078.87	  189.46
     28.8132	  247.00	  250.31	-2078.87	  189.45
     28.8467	  242.00	  250.31	-2078.87	  189.45
     28.8801	  245.00	  250.30	-2078.87	  189.44
     28.9135	  220.00	  250.30	-2078.87	  189.44
     28.9469	  219.00	  250.29	-2078.87	  189.43
     28.9804	  263.00	  250.29	-2078.87	  189.43
     29.0138	  234.00	  250.28	-2078.87	  189.42
     29.0472	  272.00	  250.27	-2078.87	  189.42
     29.0806	  213.00	  250.27	-2078.87	  189.41
     29.1140	  222.00	  250.26	-2078.87	  189.41
     29.1475	  223.00	  250.26	-2078.87	  189.40
     29.1809	  276.00	  250.25	-2078.87	  189.39
     29.2143	  275.00	  250.25	-2078.87	  189.39
     29.2477	  265.00	  250.24	-2078.87	  189.38
     29.2812	  227.00	  250.24	-2078.87	  189.38
     29.3146	  210.00	  250.23	-2078.87	  189.37
     29.3480	  260.00	  250.23	-2078.87	  189.37
     29.3814	  250.00	  250.22	-2078.87	  189.36
     29.4148	  246.00	  250.22	-2078.87	  189.36
     29.4483	  239.00	  250.21	-2078.87	  189.35
     29.4817	  247.00	  250.21	-2078.87	  189.35
     29.5151	  226.00	  250.20	-2078.87	  189.34
     29.5485	  253.00	  250.19	-2078.87	  189.34
     29.5820	  230.00	  250.19	-2078.87	  189.33
     29.6154	  239.00	  250.18	-2078.87	  189.33
     29.6488	  223.00	  250.18	-2078.87	  189.32
     29.6822	  260.00	  250.17	-2078.87	  189.31
     29.7156	  259.00	  250.17	-2078.87	  189.31
     29.7491	  242.00	  250.16	-2078.87	  189.30
     29.7825	  227.00	  250.16	-2078.87	  189.30
     29.8159	  264.00	  250.15	-2078.87	  189.29
     29.8493	  208.00	  250.15	-2078.87	  189.29
     29.8828	  231.00	  250.14	-2078.87	  189.28
     29.9162	  235.00	  250.14	-2078.87	  189.28
     29.9496	  239.00	  250.13	-2078.87	  189.27
     29.9830	  260.00	  250.12	-2078.87	  189.27
     30.0164	  249.00	  250.12	-2079.99	  189.26
     30.0499	  264.00	  253.49	-2068.35	  189.26
     30.0833	  232.00	  253.61	-2100.48	  189.25
     30.1167	  243.00	  253.75	-2089.61	  189.24
     30.1501	  256.00	  253.89	-2076.76	  189.24
     30.1836	  229.00	  254.04	-2103.91	  189.23
     30.2170	  238.00	  254.20	-2095.07	  189.23
     30.2504	  264.00	  254.37	-2069.24	  189.22
     30.2838	  259.00	  254.56	-2074.42	  189.22
     30.3173	  269.00	  254.75	-2064.62	  189.21
     30.3507	  234.00	  254.96	-2099.83	  189.21
     30.3841	  250.00	  255.19	-2084.06	  189.20
     30.4175	  256.00	  255.43	-2078.30	  189.20
     30.4509	  260.00	  255.69	-2074.56	  189.19
     30.4844	  237.00	  255.97	-2097.84	  189.19
     30.5178	  242.00	  256.28	-2093.14	  189.18
     30.5512	  247.00	  256.60	-2088.47	  189.17
     30.5846	  256.00	  256.96	-2079.83	  189.17
     30.6181	  225.00	  257.34	-2111.21	  189.16
     30.6515	  298.00	  257.76	-2038.63	  189.16
     30.6849	  278.00	  258.22	-2059.09	  189.15
     30.7183	  297.00	  258.72	-2040.59	  189.15
     30.7517	  343.00	  259.27	-1995.14	  189.14
     30.7852	  273.00	  259.88	-2065.74	  189.14
     30.8186	  264.00	  260.54	-2075.41	  189.13
     30.8520	  262.00	  261.28	-2078.14	  189.13
     30.8854	  264.00	  262.09	-2076.96	  189.12
     30.9189	  264.00	  263.01	-2077.87	  189.12
     30.9523	  264.00	  264.02	-2078.89	  189.11
     30.9857	  266.00	  265.67	-2078.53	  189.10
     31.0191	  264.00	  266.97	-2081.84	  189.10
     31.0525	  280.00	  268.44	-2067.31	  189.09
     31.0860	  310.00	  270.37	-2039.24	  189.09
     31.1194	  286.00	  272.30	-2065.17	  189.08
     31.1528	  300.00	  274.53	-2053.40	  189.08
     31.1862	  271.00	  277.12	-2084.98	  189.07
     31.2197	  312.00	  280.14	-2047.01	  189.07
     31.2531	  284.00	  283.72	-2078.59	  189.06
     31.2865	  327.00	  287.98	-2039.85	  189.06
     31.3199	  304.00	  293.13	-2067.99	  189.05
     31.3534	  274.00	  299.41	-2104.28	  189.04
     31.3868	  328.00	  307.18	-2058.05	  189.04
     31.4202	  319.00	  316.97	-2076.84	  189.03
     31.4536	  336.00	  329.52	-2072.39	  189.03
     31.4870	  380.00	  345.97	-2044.84	  189.02
     31.5205	  409.00	  368.14	-2038.01	  189.02
     31.5539	  430.00	  399.35	-2048.21	  189.01
     31.5873	  532.00	  447.60	-1994.47	  189.01
     31.6207	  654.00	  537.12	-1961.98	  189.00
     31.6542	  861.00	  734.99	-1952.86	  189.00
     31.6876	 1239.00	 1172.63	-2012.50	  188.99
     31.7210	 2085.00	 1986.34	-1980.21	  188.99
     31.7544	 3426.00	 3119.84	-1772.70	  188.98
     31.7878	 4752.00	 4043.36	-1370.23	  188.97
     31.8213	 4701.00	 4088.23	-1466.10	  188.97
     31.8547	 4050.00	 3546.86	-1575.73	  188.96
     31.8881	 3103.00	 2728.66	-1704.53	  188.96
     31.9215	 2068.00	 1821.23	-1832.09	  188.95
     31.9550	 1276.00	 1136.54	-1939.41	  188.95
     31.9884	  785.00	  736.03	-2029.90	  188.94
     32.0218	  553.00	  537.69	-2063.56	  188.94
     32.0552	  465.00	  444.48	-2058.35	  188.93
     32.0886	  444.00	  395.68	-2030.54	  188.93
     32.1221	  338.00	  365.20	-2106.07	  188.92
     32.1555	  330.00	  343.84	-2092.70	  188.91
     32.1889	  337.00	  328.03	-2069.90	  188.91
     32.2223	  297.00	  315.97	-2097.84	  188.90
     32.2558	  299.00	  306.58	-2086.44	  188.90
     32.2892	  302.00	  299.11	-2075.98	  188.89
     32.3226	  305.00	  293.09	-2066.96	  188.89
     32.3560	  300.00	  288.17	-2067.03	  188.88
     32.3895	  292.00	  284.09	-2070.96	  188.88
     32.4229	  266.00	  280.69	-2093.55	  188.87
     32.4563	  283.00	  277.81	-2073.68	  188.87
     32.4897	  265.00	  275.37	-2089.24	  188.86
     32.5231	  291.00	  273.28	-2061.15	  188.85
     32.5566	  279.00	  271.48	-2071.35	  188.85
     32.5900	  288.00	  269.93	-2060.79	  188.84
     32.6234	  283.00	  268.58	-2064.44	  188.84
     32.6568	  286.00	  267.40	-2060.26	  188.83
     32.6903	  235.00	  266.37	-2110.23	  188.83
     32.7237	  251.00	  265.47	-2093.33	  188.82
     32.7571	  245.00	  264.68	-2098.54	  188.82
     32.7905	  266.00	  263.98	-2076.85	  188.81
     32.8239	  267.00	  264.69	-2076.56	  188.81
     32.8574	  260.00	  264.19	-2083.06	  188.80
     32.8908	  259.00	  264.40	-2084.27	  188.79
     32.9242	  237.00	  264.05	-2105.91	  188.79
     32.9576	  275.00	  263.75	-2067.62	  188.78
     32.9911	  238.00	  263.51	-2104.38	  188.78
     33.0245	  264.00	  263.32	-2078.18	  188.77
     33.0579	  265.00	  263.17	-2077.04	  188.77
     33.0913	  242.00	  263.08	-2099.94	  188.76
     33.1247	  271.00	  263.03	-2070.89	  188.76
     33.1582	  279.00	  263.02	-2062.89	  188.75
     33.1916	  278.00	  263.05	-2063.92	  188.75
     33.2250	  289.00	  263.13	-2053.00	  188.74
     33.2584	  296.00	  263.26	-2046.12	  188.73
     33.2919	  261.00	  263.43	-2081.29	  188.73
     33.3253	  284.00	  263.64	-2058.51	  188.72
     33.3587	  310.00	  263.91	-2032.78	  188.72
     33.3921	  287.00	  264.23	-2056.10	  188.71
     33.4255	  293.00	  264.61	-2050.48	  188.71
     33.4590	  263.00	  265.05	-2080.92	  188.70
     33.4924	  286.00	  265.56	-2058.43	  188.70
     33.5258	  264.00	  266.15	-2081.01	  188.69
     33.5592	  294.00	  266.82	-2051.68	  188.68
     33.5927	  272.00	  267.58	-2074.45	  188.68
     33.6261	  264.00	  268.46	-2083.33	  188.67
     33.6595	  312.00	  269.46	-2036.33	  188.67
     33.6929	  292.00	  270.61	-2057.47	  188.66
     33.7264	  285.00	  271.92	-2065.79	  188.66
     33.7598	  324.00	  273.44	-2028.31	  188.65
     33.7932	  298.00	  275.19	-2056.06	  188.65
     33.8266	  247.00	  277.24	-2109.10	  188.64
     33.8600	  296.00	  279.63	-2062.50	  188.64
     33.8935	  279.00	  282.45	-2082.32	  188.63
     33.9269	  272.00	  285.80	-2092.67	  188.62
     33.9603	  291.00	  289.83	-2077.70	  188.62
     33.9937	  302.00	  294.72	-2071.59	  188.61
     34.0272	  298.00	  300.74	-2081.61	  188.61
     34.0606	  283.00	  308.26	-2104.13	  188.60
     34.0940	  312.00	  317.81	-2084.68	  188.60
     34.1274	  315.00	  330.20	-2094.06	  188.59
     34.1608	  325.00	  346.66	-2100.53	  188.59
     34.1943	  418.00	  369.32	-2030.18	  188.58
     34.2277	  445.00	  402.73	-2036.60	  188.57
     34.2611	  433.00	  459.81	-2105.67	  188.57
     34.2945	  622.00	  578.71	-2035.58	  188.56
     34.3280	  792.00	  846.66	-2133.53	  188.56
     34.3614	 1182.00	 1384.50	-2281.37	  188.55
     34.3948	 2115.00	 2231.05	-2194.91	  188.55
     34.4282	 3248.00	 3128.13	-1958.99	  188.54
     34.4616	 3759.00	 3460.11	-1779.98	  188.54
     34.4951	 3431.00	 3156.86	-1804.72	  188.53
     34.5285	 2758.00	 2641.00	-1961.86	  188.53
     34.5619	 1968.00	 1959.85	-2070.71	  188.52
     34.5953	 1173.00	 1297.47	-2203.33	  188.51
     34.6288	  795.00	  839.03	-2122.90	  188.51
     34.6622	  513.00	  584.39	-2150.26	  188.50
     34.6956	  449.00	  461.41	-2091.27	  188.50
     34.7290	  352.00	  402.29	-2129.15	  188.49
     34.7625	  378.00	  369.43	-2070.30	  188.49
     34.7959	  314.00	  348.00	-2112.87	  188.48
     34.8293	  353.00	  332.72	-2058.59	  188.48
     34.8627	  307.00	  321.38	-2093.25	  188.47
     34.8961	  329.00	  312.79	-2062.65	  188.46
     34.9296	  291.00	  306.17	-2094.03	  188.46
     34.9630	  355.00	  301.02	-2024.88	  188.45
     34.9964	  383.00	  296.98	-1992.85	  188.45
     35.0298	  352.00	  293.82	-2020.69	  188.44
     35.0633	  378.00	  291.37	-1992.23	  188.44
     35.0967	  390.00	  289.48	-1978.35	  188.43
     35.1301	  323.00	  288.07	-2043.94	  188.43
     35.1635	  333.00	  287.07	-2032.94	  188.42
     35.1969	  294.00	  286.43	-2071.30	  188.42
     35.2304	  350.00	  286.12	-2014.99	  188.41
     35.2638	  326.00	  286.12	-2038.99	  188.40
     35.2972	  325.00	  285.83	-2039.69	  188.40
     35.3306	  334.00	  286.40	-2031.27	  188.39
     35.3641	  322.00	  286.98	-2043.85	  188.39
     35.3975	  317.00	  288.14	-2050.01	  188.38
     35.4309	  355.00	  289.62	-2013.49	  188.38
     35.4643	  336.00	  291.44	-2034.31	  188.37
     35.4977	  322.00	  293.64	-2050.50	  188.37
     35.5312	  286.00	  296.25	-2089.12	  188.36
     35.5646	  315.00	  299.36	-2063.22	  188.35
     35.5980	  323.00	  303.02	-2058.89	  188.35
     35.6314	  312.00	  307.35	-2074.21	  188.34
     35.6649	  363.00	  312.47	-2028.33	  188.34
     35.6983	  316.00	  318.55	-2081.41	  188.33
     35.7317	  345.00	  325.80	-2059.67	  188.33
     35.7651	  330.00	  334.53	-2083.39	  188.32
     35.7985	  331.00	  345.11	-2092.97	  188.32
     35.8320	  329.00	  358.06	-2107.93	  188.31
     35.8654	  387.00	  374.15	-2066.02	  188.30
     35.8988	  386.00	  394.39	-2087.26	  188.30
     35.9322	  458.00	  420.32	-2041.19	  188.29
     35.9657	  457.00	  454.23	-2076.10	  188.29
     35.9991	  524.00	  499.72	-2054.59	  188.28
     36.0325	  605.00	  563.26	-2037.13	  188.28
     36.0659	  715.00	  659.72	-2023.59	  188.27
     36.0993	  988.00	  833.19	-1924.06	  188.27
     36.1328	 1250.00	 1208.02	-2036.88	  188.26
     36.1662	 1883.00	 2038.60	-2234.47	  188.25
     36.1996	 3182.00	 3617.68	-2514.55	  188.25
     36.2330	 5229.00	 5908.65	-2758.52	  188.24
     36.2665	 7496.00	 7978.92	-2561.78	  188.24
     36.2999	 7884.00	 8315.47	-2510.33	  188.23
     36.3333	 6824.00	 7351.74	-2606.60	  188.23
     36.3667	 5435.00	 6062.30	-2706.16	  188.22
     36.4002	 4121.00	 4384.28	-2342.15	  188.22
     36.4336	 2596.00	 2775.08	-2257.95	  188.21
     36.4670	 1498.00	 1666.33	-2247.20	  188.20
     36.5004	  986.00	 1051.32	-2144.19	  188.20
     36.5338	  717.00	  753.61	-2115.48	  188.19
     36.5673	  595.00	  608.55	-2092.42	  188.19
     36.6007	  500.00	  526.46	-2105.33	  188.18
     36.6341	  438.00	  471.98	-2112.84	  188.18
     36.6675	  367.00	  432.53	-2144.40	  188.17
     36.7010	  346.00	  402.81	-2135.68	  188.17
     36.7344	  370.00	  379.80	-2088.66	  188.16
     36.7678	  323.00	  361.63	-2117.50	  188.16
     36.8012	  341.00	  347.03	-2084.90	  188.15
     36.8346	  323.00	  335.12	-2090.98	  188.14
     36.8681	  331.00	  325.27	-2073.14	  188.14
     36.9015	  318.00	  317.04	-2077.90	  188.13
     36.9349	  278.00	  310.08	-2110.95	  188.13
     36.9683	  329.00	  304.15	-2054.02	  188.12
     37.0018	  279.00	  299.05	-2098.92	  188.12
     37.0352	  290.00	  294.64	-2083.50	  188.11
     37.0686	  276.00	  290.79	-2093.66	  188.11
     37.1020	  276.00	  287.41	-2090.28	  188.10
     37.1355	  282.00	  284.43	-2081.30	  188.09
     37.1689	  289.00	  281.79	-2071.66	  188.09
     37.2023	  279.00	  279.44	-2079.30	  188.08
     37.2357	  274.00	  277.33	-2082.20	  188.08
     37.2691	  322.00	  275.44	-2032.30	  188.07
     37.3026	  253.00	  273.73	-2099.60	  188.07
     37.3360	  278.00	  272.18	-2073.05	  188.06
     37.3694	  252.00	  270.78	-2097.64	  188.06
     37.4028	  250.00	  269.50	-2098.36	  188.05
     37.4363	  293.00	  268.33	-2054.20	  188.04
     37.4697	  246.00	  267.26	-2100.12	  188.04
     37.5031	  265.00	  266.27	-2080.14	  188.03
     37.5365	  250.00	  265.36	-2094.23	  188.03
     37.5699	  269.00	  264.53	-2074.39	  188.02
     37.6034	  273.00	  263.75	-2069.62	  188.02
     37.6368	  244.00	  263.04	-2097.90	  188.01
     37.6702	  255.00	  262.37	-2086.23	  188.01
     37.7036	  275.00	  261.75	-2065.61	  188.00
     37.7371	  236.00	  261.17	-2104.04	  187.99
     37.7705	  257.00	  260.63	-2082.49	  187.99
     37.8039	  262.00	  260.12	-2076.99	  187.98
     37.8373	  243.00	  259.65	-2095.51	  187.98
     37.8707	  262.00	  259.20	-2076.07	  187.97
     37.9042	  262.00	  258.78	-2075.65	  187.97
     37.9376	  245.00	  257.90	-2091.77	  187.96
     37.9710	  259.00	  257.54	-2077.41	  187.96
     38.0044	  294.00	  257.20	-2042.07	  187.95
     38.0379	  291.00	  256.63	-2044.50	  187.94
     38.0713	  255.00	  256.33	-2080.20	  187.94
     38.1047	  273.00	  256.05	-2061.92	  187.93
     38.1381	  223.00	  255.78	-2111.65	  187.93
     38.1715	  255.00	  255.53	-2079.40	  187.92
     38.2050	  273.00	  255.29	-2061.15	  187.92
     38.2384	  259.00	  255.06	-2074.93	  187.91
     38.2718	  242.00	  254.84	-2091.71	  187.91
     38.3052	  243.00	  254.63	-2090.50	  187.90
     38.3387	  218.00	  254.44	-2115.30	  187.89
     38.3721	  237.00	  254.25	-2096.12	  187.89
     38.4055	  229.00	  254.07	-2103.94	  187.88
     38.4389	  267.00	  253.90	-2065.76	  187.88
     38.4724	  237.00	  253.73	-2095.60	  187.87
     38.5058	  256.00	  253.58	-2076.44	  187.87
     38.5392	  260.00	  253.43	-2072.29	  187.86
     38.5726	  230.00	  253.28	-2102.15	  187.86
     38.6060	  280.00	  253.15	-2052.01	  187.85
     38.6395	  244.00	  253.02	-2087.88	  187.84
     38.6729	  255.00	  252.89	-2076.76	  187.84
     38.7063	  253.00	  252.77	-2078.63	  187.83
     38.7397	  262.00	  252.65	-2069.52	  187.83
     38.7732	  288.00	  252.54	-2043.41	  187.82
     38.8066	  258.00	  252.43	-2073.30	  187.82
     38.8400	  249.00	  252.33	-2082.19	  187.81
     38.8734	  261.00	  252.23	-2070.09	  187.81
     38.9068	  235.00	  252.13	-2096.00	  187.80
     38.9403	  225.00	  252.04	-2105.90	  187.79
     38.9737	  260.00	  251.95	-2070.81	  187.79
     39.0071	  242.00	  251.86	-2088.73	  187.78
     39.0405	  242.00	  251.78	-2088.64	  187.78
     39.0740	  267.00	  251.70	-2063.56	  187.77
     39.1074	  247.00	  251.62	-2083.48	  187.77
     39.1408	  235.00	  251.54	-2095.41	  187.76
     39.1742	  225.00	  251.47	-2105.33	  187.76
     39.2076	  236.00	  251.40	-2094.26	  187.75
     39.2411	  221.00	  251.33	-2109.20	  187.74
     39.2745	  251.00	  251.26	-2079.13	  187.74
     39.3079	  217.00	  251.20	-2113.06	  187.73
     39.3413	  257.00	  251.13	-2073.00	  187.73
     39.3748	  249.00	  251.07	-2080.94	  187.72
     39.4082	  233.00	  251.01	-2096.88	  187.72
     39.4416	  240.00	  250.96	-2089.82	  187.71
     39.4750	  240.00	  250.90	-2089.77	  187.71
     39.5084	  211.00	  250.85	-2118.71	  187.70
     39.5419	  232.00	  250.80	-2097.66	  187.69
     39.5753	  237.00	  250.74	-2092.61	  187.69
     39.6087	  229.00	  250.69	-2100.56	  187.68
     39.6421	  274.00	  250.65	-2055.51	  187.68
     39.6756	  232.00	  250.60	-2097.47	  187.67
     39.7090	  257.00	  250.55	-2072.42	  187.67
     39.7424	  233.00	  250.51	-2096.37	  187.66
     39.7758	  243.00	  249.19	-2085.05	  187.66
     39.8093	  240.00	  249.17	-2088.03	  187.65
     39.8427	  243.00	  249.15	-2085.02	  187.64
     39.8761	  253.00	  248.50	-2074.36	  187.64
     39.9095	  248.00	  248.49	-2079.36	  187.63
     39.9429	  261.00	  248.49	-2066.35	  187.63
     39.9764	  210.00	  248.48	-2117.35	  187.62
     40.0098	  267.00	  248.48	-2060.34	  187.62
     40.0432	  247.00	  248.47	-2080.34	  187.61
     40.0766	  246.00	  248.46	-2081.33	  187.61
     40.1101	  252.00	  248.46	-2075.33	  187.60
     40.1435	  225.00	  248.45	-2102.32	  187.59
     40.1769	  213.00	  248.45	-2114.31	  187.59
     40.2103	  232.00	  248.44	-2095.31	  187.58
     40.2437	  272.00	  248.44	-2055.30	  187.58
     40.2772	  238.00	  248.43	-2089.30	  187.57
     40.3106	  242.00	  248.43	-2085.29	  187.57
     40.3440	  245.00	  248.42	-2082.29	  187.56
     40.3774	  240.00	  248.41	-2087.28	  187.56
     40.4109	  251.00	  248.41	-2076.28	  187.55
     40.4443	  252.00	  248.40	-2075.27	  187.54
     40.4777	  258.00	  248.40	-2069.27	  187.54
     40.5111	  235.00	  248.39	-2092.26	  187.53
     40.5445	  253.00	  248.39	-2074.25	  187.53
     40.5780	  246.00	  248.38	-2081.25	  187.52
     40.6114	  231.00	  248.38	-2096.24	  187.52
     40.6448	  234.00	  248.37	-2093.24	  187.51
     40.6782	  238.00	  248.36	-2089.23	  187.51
     40.7117	  250.00	  248.36	-2077.23	  187.50
     40.7451	  248.00	  248.35	-2079.22	  187.50
     40.7785	  234.00	  248.35	-2093.22	  187.49
     40.8119	  237.00	  248.34	-2090.21	  187.48
     40.8454	  221.00	  248.34	-2106.20	  187.48
     40.8788	  237.00	  248.33	-2090.20	  187.47
     40.9122	  260.00	  248.33	-2067.19	  187.47
     40.9456	  251.00	  248.32	-2076.19	  187.46
     40.9790	  245.00	  248.32	-2082.18	  187.46
     41.0125	  277.00	  248.31	-2050.18	  187.45
     41.0459	  265.00	  248.30	-2062.17	  187.45
     41.0793	  245.00	  248.30	-2082.17	  187.44
     41.1127	  208.00	  248.29	-2119.16	  187.43
     41.1462	  220.00	  248.29	-2107.15	  187.43
     41.1796	  245.00	  248.28	-2082.15	  187.42
     41.2130	  257.00	  248.28	-2070.14	  187.42
     41.2464	  232.00	  248.27	-2095.14	  187.41
     41.2798	  236.00	  248.27	-2091.13	  187.41
     41.3133	  208.00	  248.26	-2119.13	  187.40
     41.3467	  239.00	  248.25	-2088.12	  187.40
     41.3801	  244.00	  248.25	-2083.12	  187.39
     41.4135	  223.00	  248.24	-2104.11	  187.38
     41.4470	  218.00	  248.24	-2109.10	  187.38
     41.4804	  249.00	  248.23	-2078.10	  187.37
     41.5138	  233.00	  248.23	-2094.09	  187.37
     41.5472	  237.00	  248.22	-2090.09	  187.36
     41.5807	  246.00	  248.22	-2081.08	  187.36
     41.6141	  208.00	  248.21	-2119.08	  187.35
     41.6475	  205.00	  248.20	-2122.07	  187.35
     41.6809	  242.00	  248.20	-2085.07	  187.34
     41.7143	  232.00	  248.19	-2095.06	  187.33
     41.7478	  230.00	  248.19	-2097.05	  187.33
     41.7812	  213.00	  248.18	-2114.05	  187.32
     41.8146	  247.00	  248.18	-2080.04	  187.32
     41.8480	  222.00	  248.17	-2105.04	  187.31
     41.8815	  239.00	  248.17	-2088.03	  187.31
     41.9149	  223.00	  248.16	-2104.03	  187.30
     41.9483	  259.00	  248.15	-2068.02	  187.30
     41.9817	  242.00	  248.15	-2085.02	  187.29
     42.0151	  258.00	  248.14	-2069.01	  187.28
     42.0486	  266.00	  248.14	-2061.01	  187.28
     42.0820	  230.00	  248.13	-2097.00	  187.27
     42.1154	  220.00	  248.13	-2106.99	  187.27
     42.1488	  247.00	  248.12	-2079.99	  187.26
     42.1823	  219.00	  248.12	-2107.98	  187.26
     42.2157	  234.00	  248.11	-2092.98	  187.25
     42.2491	  248.00	  248.11	-2078.97	  187.25
     42.2825	  257.00	  248.10	-2069.97	  187.24
     42.3159	  225.00	  248.09	-2101.96	  187.24
     42.3494	  266.00	  248.09	-2060.96	  187.23
     42.3828	  242.00	  248.08	-2084.95	  187.22
     42.4162	  247.00	  248.08	-2079.94	  187.22
     42.4496	  234.00	  248.07	-2092.94	  187.21
     42.4831	  240.00	  248.07	-2086.93	  187.21
     42.5165	  227.00	  248.06	-2099.93	  187.20
     42.5499	  229.00	  248.06	-2097.92	  187.20
     42.5833	  252.00	  248.05	-2074.92	  187.19
     42.6167	  233.00	  248.04	-2093.91	  187.19
     42.6502	  219.00	  248.04	-2107.91	  187.18
     42.6836	  245.00	  248.03	-2081.90	  187.17
     42.7170	  259.00	  248.03	-2067.90	  187.17
     42.7504	  234.00	  248.02	-2092.89	  187.16
     42.7839	  246.00	  248.02	-2080.88	  187.16
     42.8173	  232.00	  248.01	-2094.88	  187.15
     42.8507	  250.00	  248.01	-2076.87	  187.15
     42.8841	  256.00	  248.00	-2070.87	  187.14
     42.9175	  238.00	  247.99	-2088.86	  187.14
     42.9510	  212.00	  247.99	-2114.86	  187.13
     42.9844	  240.00	  247.98	-2086.85	  187.13
     43.0178	  256.00	  247.98	-2070.85	  187.12
     43.0512	  235.00	  247.97	-2091.84	  187.11
     43.0847	  239.00	  247.97	-2087.83	  187.11
     43.1181	  237.00	  247.96	-2089.83	  187.10
     43.1515	  230.00	  247.96	-2096.82	  187.10
     43.1849	  257.00	  247.95	-2069.82	  187.09
     43.2184	  249.00	  247.95	-2077.81	  187.09
     43.2518	  246.00	  247.94	-2080.81	  187.08
     43.2852	  227.00	  247.93	-2099.80	  187.08
     43.3186	  237.00	  247.93	-2089.80	  187.07
     43.3520	  242.00	  247.92	-2084.79	  187.06
     43.3855	  236.00	  247.92	-2090.78	  187.06
     43.4189	  257.00	  247.91	-2069.78	  187.05
     43.4523	  234.00	  247.91	-2092.77	  187.05
     43.4857	  236.00	  247.90	-2090.77	  187.04
     43.5192	  235.00	  247.90	-2091.76	  187.04
     43.5526	  266.00	  247.89	-2060.76	  187.03
     43.5860	  292.00	  247.89	-2034.75	  187.03
     43.6194	  223.00	  247.88	-2103.75	  187.02
     43.6528	  238.00	  247.87	-2088.74	  187.02
     43.6863	  217.00	  247.87	-2109.74	  187.01
     43.7197	  246.00	  247.86	-2080.73	  187.00
     43.7531	  234.00	  247.86	-2092.72	  187.00
     43.7865	  249.00	  247.85	-2077.72	  186.99
     43.8200	  232.00	  247.85	-2094.71	  186.99
     43.8534	  245.00	  247.84	-2081.71	  186.98
     43.8868	  225.00	  247.84	-2101.70	  186.98
     43.9202	  239.00	  247.83	-2087.70	  186.97
     43.9536	  238.00	  247.82	-2088.69	  186.97
     43.9871	  229.00	  247.82	-2097.69	  186.96
     44.0205	  246.00	  248.09	-2080.96	  186.95
     44.0539	  263.00	  248.09	-2063.96	  186.95
     44.0873	  233.00	  248.09	-2093.96	  186.94
     44.1208	  242.00	  248.23	-2085.10	  186.94
     44.1542	  260.00	  248.23	-2067.10	  186.93
     44.1876	  227.00	  248.23	-2100.10	  186.93
     44.2210	  264.00	  248.24	-2063.11	  186.92
     44.2544	  265.00	  248.24	-2062.11	  186.92
     44.2879	  222.00	  248.25	-2105.11	  186.91
     44.3213	  238.00	  248.25	-2089.12	  186.91
     44.3547	  246.00	  248.26	-2081.12	  186.90
     44.3881	  232.00	  248.26	-2095.13	  186.89
     44.4216	  246.00	  248.27	-2081.13	  186.89
     44.4550	  260.00	  248.27	-2067.14	  186.88
     44.4884	  231.00	  248.28	-2096.14	  186.88
     44.5218	  264.00	  248.28	-2063.15	  186.87
     44.5553	  225.00	  248.29	-2102.16	  186.87
     44.5887	  234.00	  248.30	-2093.16	  186.86
     44.6221	  213.00	  248.30	-2114.17	  186.86
     44.6555	  275.00	  248.31	-2052.18	  186.85
     44.6889	  213.00	  248.32	-2114.19	  186.85
     44.7224	  246.00	  248.33	-2081.20	  186.84
     44.7558	  224.00	  248.34	-2103.21	  186.83
     44.7892	  242.00	  248.35	-2085.22	  186.83
     44.8226	  234.00	  248.36	-2093.23	  186.82
     44.8561	  246.00	  248.37	-2081.24	  186.82
     44.8895	  237.00	  248.38	-2090.25	  186.81
     44.9229	  283.00	  248.40	-2044.26	  186.81
     44.9563	  244.00	  248.41	-2083.28	  186.80
     44.9897	  236.00	  248.42	-2091.29	  186.80
     45.0232	  251.00	  248.44	-2076.30	  186.79
     45.0566	  225.00	  248.45	-2102.32	  186.79
     45.0900	  273.00	  248.47	-2054.33	  186.78
     45.1234	  237.00	  248.49	-2090.35	  186.77
     45.1569	  272.00	  248.50	-2055.37	  186.77
     45.1903	  266.00	  248.52	-2061.39	  186.76
     45.2237	  217.00	  248.54	-2110.41	  186.76
     45.2571	  240.00	  248.56	-2087.43	  186.75
     45.2906	  242.00	  248.59	-2085.45	  186.75
     45.3240	  252.00	  248.61	-2075.48	  186.74
     45.3574	  260.00	  248.63	-2067.50	  186.74
     45.3908	  258.00	  248.66	-2069.53	  186.73
     45.4242	  252.00	  248.69	-2075.55	  186.73
     45.4577	  258.00	  248.72	-2069.58	  186.72
     45.4911	  230.00	  248.75	-2097.62	  186.71
     45.5245	  252.00	  248.78	-2075.65	  186.71
     45.5579	  226.00	  248.82	-2101.68	  186.70
     45.5914	  238.00	  248.85	-2089.72	  186.70
     45.6248	  234.00	  248.89	-2093.76	  186.69
     45.6582	  255.00	  248.93	-2072.80	  186.69
     45.6916	  253.00	  248.98	-2074.84	  186.68
     45.7250	  230.00	  249.02	-2097.89	  186.68
     45.7585	  260.00	  249.07	-2067.94	  186.67
     45.7919	  250.00	  249.12	-2077.99	  186.67
     45.8253	  255.00	  249.18	-2073.05	  186.66
     45.8587	  276.00	  249.24	-2052.10	  186.66
     45.8922	  248.00	  249.30	-2080.17	  186.65
     45.9256	  223.00	  249.37	-2105.23	  186.64
     45.9590	  256.00	  249.44	-2072.30	  186.64
     45.9924	  234.00	  249.51	-2094.38	  186.63
     46.0258	  244.00	  249.60	-2084.46	  186.63
     46.0593	  232.00	  249.68	-2096.55	  186.62
     46.0927	  265.00	  249.78	-2063.64	  186.62
     46.1261	  224.00	  249.88	-2104.74	  186.61
     46.1595	  262.00	  249.98	-2066.85	  186.61
     46.1930	  257.00	  250.10	-2071.97	  186.60
     46.2264	  216.00	  250.22	-2113.09	  186.60
     46.2598	  252.00	  250.36	-2077.23	  186.59
     46.2932	  261.00	  250.50	-2068.37	  186.58
     46.3266	  237.00	  250.66	-2092.53	  186.58
     46.3601	  249.00	  250.83	-2080.70	  186.57
     46.3935	  240.00	  251.02	-2089.89	  186.57
     46.4269	  239.00	  251.22	-2091.09	  186.56
     46.4603	  275.00	  251.44	-2055.31	  186.56
     46.4938	  264.00	  251.68	-2066.55	  186.55
     46.5272	  248.00	  251.95	-2082.82	  186.55
     46.5606	  250.00	  252.24	-2081.11	  186.54
     46.5940	  272.00	  252.57	-2059.43	  186.54
     46.6274	  255.00	  252.92	-2076.79	  186.53
     46.6609	  238.00	  253.32	-2094.19	  186.53
     46.6943	  270.00	  253.76	-2062.63	  186.52
     46.7277	  261.00	  254.25	-2072.12	  186.51
     46.7611	  243.00	  254.81	-2090.68	  186.51
     46.7946	  264.00	  255.44	-2070.31	  186.50
     46.8280	  243.00	  256.15	-2092.02	  186.50
     46.8614	  264.00	  256.96	-2071.83	  186.49
     46.8948	  237.00	  257.89	-2099.76	  186.49
     46.9283	  265.00	  258.97	-2072.84	  186.48
     46.9617	  266.00	  260.22	-2073.09	  186.48
     46.9951	  260.00	  261.69	-2080.55	  186.47
     47.0285	  277.00	  263.42	-2065.29	  186.47
     47.0619	  259.00	  265.49	-2085.36	  186.46
     47.0954	  320.00	  268.00	-2026.86	  186.46
     47.1288	  289.00	  271.06	-2060.92	  186.45
     47.1622	  275.00	  274.85	-2078.72	  186.44
     47.1956	  287.00	  279.63	-2071.50	  186.44
     47.2291	  292.00	  285.79	-2072.65	  186.43
     47.2625	  277.00	  293.88	-2095.74	  186.43
     47.2959	  299.00	  304.85	-2084.72	  186.42
     47.3293	  356.00	  320.64	-2043.51	  186.42
     47.3627	  383.00	  346.32	-2042.19	  186.41
     47.3962	  418.00	  396.73	-2057.59	  186.41
     47.4296	  515.00	  506.98	-2070.84	  186.40
     47.4630	  796.00	  731.94	-2014.81	  186.40
     47.4964	 1048.00	 1105.11	-2135.98	  186.39
     47.5299	 1518.00	 1550.65	-2111.52	  186.39
     47.5633	 1823.00	 1801.12	-2056.99	  186.38
     47.5967	 1668.00	 1678.87	-2089.74	  186.38
     47.6301	 1399.00	 1452.52	-2132.39	  186.37
     47.6636	 1230.00	 1308.64	-2157.50	  186.36
     47.6970	 1131.00	 1144.13	-2091.99	  186.36
     47.7304	  839.00	  885.38	-2125.25	  186.35
     47.7638	  596.00	  639.26	-2122.13	  186.35
     47.7972	  430.00	  471.63	-2120.50	  186.34
     47.8307	  376.00	  379.65	-2082.52	  186.34
     47.8641	  326.00	  334.71	-2087.58	  186.33
     47.8975	  303.00	  311.82	-2087.69	  186.33
     47.9309	  284.00	  298.12	-2092.99	  186.32
     47.9644	  278.00	  288.70	-2089.56	  186.32
     47.9978	  290.00	  281.73	-2070.60	  186.31
     48.0312	  273.00	  276.39	-2082.26	  186.31
     48.0646	  239.00	  272.21	-2112.08	  186.30
     48.0980	  248.00	  268.87	-2099.73	  186.30
     48.1315	  270.00	  266.15	-2075.02	  186.29
     48.1649	  267.00	  263.92	-2075.79	  186.28
     48.1983	  256.00	  262.06	-2084.92	  186.28
     48.2317	  252.00	  260.49	-2087.35	  186.27
     48.2652	  252.00	  259.15	-2086.02	  186.27
     48.2986	  258.00	  258.01	-2078.88	  186.26
     48.3320	  277.00	  257.02	-2058.89	  186.26
     48.3654	  243.00	  256.16	-2092.02	  186.25
     48.3988	  255.00	  255.40	-2079.27	  186.25
     48.4323	  235.00	  254.74	-2098.60	  186.24
     48.4657	  270.00	  254.15	-2063.02	  186.24
     48.4991	  236.00	  253.62	-2096.49	  186.23
     48.5325	  245.00	  253.16	-2087.02	  186.23
     48.5660	  239.00	  252.73	-2092.60	  186.22
     48.5994	  267.00	  252.35	-2064.22	  186.22
     48.6328	  236.00	  252.01	-2094.88	  186.21
     48.6662	  270.00	  251.70	-2060.56	  186.20
     48.6996	  242.00	  251.41	-2088.28	  186.20
     48.7331	  253.00	  251.15	-2077.02	  186.19
     48.7665	  249.00	  250.92	-2080.78	  186.19
     48.7999	  227.00	  250.70	-2102.56	  186.18
     48.8333	  274.00	  250.49	-2055.36	  186.18
     48.8668	  253.00	  250.31	-2076.18	  186.17
     48.9002	  244.00	  250.14	-2085.00	  186.17
     48.9336	  240.00	  249.98	-2088.84	  186.16
     48.9670	  261.00	  249.83	-2067.69	  186.16
     49.0005	  269.00	  249.69	-2059.56	  186.15
     49.0339	  278.00	  249.56	-2050.43	  186.15
     49.0673	  246.00	  249.44	-2082.31	  186.14
     49.1007	  246.00	  249.33	-2082.19	  186.14
     49.1341	  246.00	  249.22	-2082.09	  186.13
     49.1676	  245.00	  249.12	-2082.99	  186.13
     49.2010	  249.00	  249.03	-2078.89	  186.12
     49.2344	  227.00	  248.94	-2100.81	  186.11
     49.2678	  249.00	  248.85	-2078.72	  186.11
     49.3013	  275.00	  248.78	-2052.64	  186.10
     49.3347	  246.00	  248.70	-2081.57	  186.10
     49.3681	  239.00	  248.63	-2088.50	  186.09
     49.4015	  276.00	  248.56	-2051.43	  186.09
     49.4349	  237.00	  248.50	-2090.37	  186.08
     49.4684	  247.00	  248.44	-2080.31	  186.08
     49.5018	  255.00	  248.38	-2072.25	  186.07
     49.5352	  257.00	  248.33	-2070.19	  186.07
     49.5686	  249.00	  248.27	-2078.14	  186.06
     49.6021	  229.00	  248.22	-2098.09	  186.06
     49.6355	  262.00	  248.18	-2065.04	  186.05
     49.6689	  271.00	  248.13	-2056.00	  186.05
     49.7023	  217.00	  248.09	-2109.95	  186.04
     49.7357	  221.00	  248.04	-2105.91	  186.04
     49.7692	  282.00	  248.00	-2044.87	  186.03
     49.8026	  222.00	  247.96	-2104.83	  186.03
     49.8360	  271.00	  247.93	-2055.79	  186.02
     49.8694	  230.00	  247.89	-2096.76	  186.01
     49.9029	  219.00	  247.86	-2107.72	  186.01
     49.9363	  222.00	  247.82	-2104.69	  186.00
     49.9697	  230.00	  247.79	-2096.66	  186.00
     50.0031	  234.00	  247.76	-2092.63	  185.99
     50.0366	  270.00	  247.73	-2056.60	  185.99
     50.0700	  248.00	  247.70	-2078.57	  185.98
     50.1034	  246.00	  247.67	-2080.54	  185.98
     50.1368	  247.00	  247.65	-2079.51	  185.97
     50.1702	  226.00	  247.62	-2100.49	  185.97
     50.2037	  262.00	  247.59	-2064.46	  185.96
     50.2371	  252.00	  247.57	-2074.44	  185.96
     50.2705	  240.00	  247.55	-2086.41	  185.95
     50.3039	  207.00	  247.52	-2119.39	  185.95
     50.3374	  234.00	  247.50	-2092.37	  185.94
     50.3708	  220.00	  247.48	-2106.34	  185.94
     50.4042	  224.00	  247.46	-2102.32	  185.93
     50.4376	  233.00	  247.44	-2093.30	  185.93
     50.4710	  243.00	  247.41	-2083.28	  185.92
     50.5045	  230.00	  247.40	-2096.26	  185.92
     50.5379	  256.00	  247.38	-2070.24	  185.91
     50.5713	  235.00	  247.36	-2091.22	  185.91
     50.6047	  245.00	  247.34	-2081.21	  185.90
     50.6382	  251.00	  247.32	-2075.19	  185.89
     50.6716	  243.00	  247.30	-2083.17	  185.89
     50.7050	  243.00	  247.29	-2083.15	  185.88
     50.7384	  260.00	  247.27	-2066.14	  185.88
     50.7718	  256.00	  247.25	-2070.12	  185.87
     50.8053	  246.00	  247.24	-2080.10	  185.87
     50.8387	  216.00	  247.22	-2110.09	  185.86
     50.8721	  239.00	  247.21	-2087.07	  185.86
     50.9055	  232.00	  247.19	-2094.06	  185.85
     50.9390	  264.00	  247.18	-2062.04	  185.85
     50.9724	  210.00	  247.16	-2116.03	  185.84
     51.0058	  262.00	  247.15	-2064.01	  185.84
     51.0392	  265.00	  247.13	-2061.00	  185.83
     51.0726	  280.00	  247.12	-2045.99	  185.83
     51.1061	  258.00	  247.11	-2067.97	  185.82
     51.1395	  250.00	  246.82	-2075.69	  185.82
     51.1729	  221.00	  246.81	-2104.68	  185.81
     51.2063	  219.00	  246.81	-2106.67	  185.81
     51.2398	  259.00	  246.80	-2066.66	  185.80
     51.2732	  258.00	  246.66	-2067.52	  185.80
     51.3066	  232.00	  246.65	-2093.52	  185.79
     51.3400	  265.00	  246.65	-2060.51	  185.79
     51.3735	  229.00	  246.64	-2096.51	  185.78
     51.4069	  246.00	  246.63	-2079.50	  185.78
     51.4403	  233.00	  246.63	-2092.50	  185.77
     51.4737	  234.00	  246.62	-2091.49	  185.77
     51.5071	  230.00	  246.62	-2095.49	  185.76
     51.5406	  246.00	  246.61	-2079.48	  185.76
     51.5740	  235.00	  246.61	-2090.48	  185.75
     51.6074	  229.00	  246.60	-2096.47	  185.75
     51.6408	  239.00	  246.60	-2086.47	  185.74
     51.6743	  224.00	  246.59	-2101.46	  185.73
     51.7077	  242.00	  246.59	-2083.46	  185.73
     51.7411	  247.00	  246.58	-2078.45	  185.72
     51.7745	  266.00	  246.58	-2059.45	  185.72
     51.8079	  252.00	  246.57	-2073.44	  185.71
     51.8414	  245.00	  246.57	-2080.44	  185.71
     51.8748	  203.00	  246.56	-2122.43	  185.70
     51.9082	  252.00	  246.56	-2073.42	  185.70
     51.9416	  237.00	  246.55	-2088.42	  185.69
     51.9751	  249.00	  246.55	-2076.41	  185.69
     52.0085	  238.00	  246.54	-2087.41	  185.68
     52.0419	  250.00	  246.54	-2075.40	  185.68
     52.0753	  236.00	  246.53	-2089.40	  185.67
     52.1087	  232.00	  246.53	-2093.39	  185.67
     52.1422	  229.00	  246.52	-2096.39	  185.66
     52.1756	  236.00	  246.52	-2089.38	  185.66
     52.2090	  233.00	  246.51	-2092.38	  185.65
     52.2424	  256.00	  246.51	-2069.37	  185.65
     52.2759	  237.00	  246.50	-2088.37	  185.64
     52.3093	  222.00	  246.50	-2103.36	  185.64
     52.3427	  246.00	  246.49	-2079.36	  185.63
     52.3761	  217.00	  246.49	-2108.35	  185.63
     52.4096	  244.00	  246.48	-2081.35	  185.62
     52.4430	  252.00	  246.48	-2073.34	  185.62
     52.4764	  220.00	  246.47	-2105.34	  185.61
     52.5098	  234.00	  246.47	-2091.33	  185.61
     52.5432	  242.00	  246.46	-2083.33	  185.60
     52.5767	  230.00	  246.46	-2095.32	  185.60
     52.6101	  265.00	  246.45	-2060.32	  185.59
     52.6435	  224.00	  246.45	-2101.31	  185.59
     52.6769	  223.00	  246.44	-2102.31	  185.58
     52.7104	  204.00	  246.44	-2121.30	  185.58
     52.7438	  243.00	  246.43	-2082.30	  185.57
     52.7772	  234.00	  246.43	-2091.29	  185.57
     52.8106	  248.00	  246.42	-2077.29	  185.56
     52.8440	  232.00	  246.42	-2093.28	  185.56
     52.8775	  256.00	  246.41	-2069.28	  185.55
     52.9109	  238.00	  246.41	-2087.27	  185.55
     52.9443	  249.00	  246.40	-2076.27	  185.54
     52.9777	  234.00	  246.77	-2091.63	  185.54
     53.0112	  206.00	  246.77	-2119.64	  185.53
     53.0446	  218.00	  246.77	-2107.64	  185.53
     53.0780	  260.00	  246.77	-2065.64	  185.52
     53.1114	  255.00	  246.96	-2070.83	  185.52
     53.1448	  233.00	  246.96	-2092.83	  185.51
     53.1783	  242.00	  246.97	-2083.84	  185.51
     53.2117	  235.00	  246.98	-2090.84	  185.50
     53.2451	  243.00	  246.98	-2082.85	  185.50
     53.2785	  255.00	  246.99	-2070.86	  185.49
     53.3120	  234.00	  247.00	-2091.87	  185.49
     53.3454	  248.00	  247.01	-2077.88	  185.48
     53.3788	  247.00	  247.02	-2078.88	  185.48
     53.4122	  224.00	  247.03	-2101.89	  185.47
     53.4456	  259.00	  247.04	-2066.90	  185.47
     53.4791	  215.00	  247.05	-2110.91	  185.46
     53.5125	  263.00	  247.06	-2062.92	  185.46
     53.5459	  230.00	  247.07	-2095.93	  185.45
     53.5793	  244.00	  247.08	-2081.95	  185.45
     53.6128	  258.00	  247.09	-2067.96	  185.44
     53.6462	  272.00	  247.10	-2053.97	  185.44
     53.6796	  231.00	  247.12	-2094.98	  185.43
     53.7130	  247.00	  247.13	-2079.00	  185.43
     53.7465	  245.00	  247.15	-2081.01	  185.42
     53.7799	  236.00	  247.16	-2090.03	  185.42
     53.8133	  261.00	  247.18	-2065.04	  185.41
     53.8467	  229.00	  247.19	-2097.06	  185.41
     53.8801	  218.00	  247.21	-2108.08	  185.40
     53.9136	  224.00	  247.23	-2102.10	  185.40
     53.9470	  266.00	  247.25	-2060.11	  185.39
     53.9804	  255.00	  247.27	-2071.13	  185.39
     54.0138	  247.00	  247.29	-2079.16	  185.38
     54.0473	  220.00	  247.31	-2106.18	  185.38
     54.0807	  264.00	  247.33	-2062.20	  185.37
     54.1141	  288.00	  247.36	-2038.23	  185.37
     54.1475	  225.00	  247.38	-2101.25	  185.36
     54.1809	  258.00	  247.41	-2068.28	  185.36
     54.2144	  255.00	  247.44	-2071.31	  185.35
     54.2478	  246.00	  247.47	-2080.33	  185.35
     54.2812	  222.00	  247.50	-2104.37	  185.34
     54.3146	  264.00	  247.53	-2062.40	  185.34
     54.3481	  252.00	  247.56	-2074.43	  185.33
     54.3815	  230.00	  247.60	-2096.47	  185.33
     54.4149	  249.00	  247.64	-2077.50	  185.32
     54.4483	  257.00	  247.68	-2069.54	  185.32
     54.4818	  255.00	  247.72	-2071.59	  185.31
     54.5152	  242.00	  247.76	-2084.63	  185.31
     54.5486	  278.00	  247.81	-2048.68	  185.30
     54.5820	  251.00	  247.86	-2075.72	  185.30
     54.6154	  260.00	  247.91	-2066.77	  185.29
     54.6489	  274.00	  247.96	-2052.83	  185.29
     54.6823	  273.00	  248.02	-2053.89	  185.28
     54.7157	  229.00	  248.08	-2097.95	  185.28
     54.7491	  240.00	  248.14	-2087.01	  185.27
     54.7825	  261.00	  248.21	-2066.08	  185.27
     54.8160	  280.00	  248.28	-2047.15	  185.26
     54.8494	  284.00	  248.36	-2043.22	  185.26
     54.8828	  258.00	  248.44	-2069.30	  185.25
     54.9162	  272.00	  248.52	-2055.39	  185.25
     54.9497	  255.00	  248.61	-2072.48	  185.24
     54.9831	  277.00	  248.71	-2050.58	  185.24
     55.0165	  265.00	  248.81	-2062.68	  185.23
     55.0499	  271.00	  248.92	-2056.79	  185.23
     55.0834	  242.00	  249.04	-2085.91	  185.22
     55.1168	  269.00	  249.16	-2059.03	  185.22
     55.1502	  248.00	  249.30	-2080.16	  185.21
     55.1836	  278.00	  249.44	-2050.31	  185.21
     55.2170	  235.00	  249.59	-2093.46	  185.20
     55.2505	  236.00	  249.76	-2092.62	  185.20
     55.2839	  235.00	  249.93	-2093.80	  185.19
     55.3173	  238.00	  250.13	-2090.99	  185.19
     55.3507	  250.00	  250.33	-2079.20	  185.18
     55.3842	  244.00	  250.56	-2085.42	  185.18
     55.4176	  248.00	  250.80	-2081.67	  185.17
     55.4510	  263.00	  251.06	-2066.93	  185.17
     55.4844	  267.00	  251.35	-2063.21	  185.17
     55.5178	  290.00	  251.66	-2040.53	  185.16
     55.5513	  258.00	  252.00	-2072.87	  185.16
     55.5847	  277.00	  252.38	-2054.24	  185.15
     55.6181	  284.00	  252.79	-2047.65	  185.15
     55.6515	  250.00	  253.24	-2082.11	  185.14
     55.6850	  285.00	  253.74	-2047.61	  185.14
     55.7184	  258.00	  254.30	-2075.17	  185.13
     55.7518	  255.00	  254.92	-2078.79	  185.13
     55.7852	  275.00	  255.62	-2059.49	  185.12
     55.8186	  262.00	  256.40	-2073.27	  185.12
     55.8521	  274.00	  257.28	-2062.15	  185.11
     55.8855	  253.00	  258.28	-2084.15	  185.11
     55.9189	  280.00	  259.42	-2058.29	  185.10
     55.9523	  237.00	  260.73	-2102.60	  185.10
     55.9858	  240.00	  262.25	-2101.11	  185.09
     56.0192	  277.00	  264.00	-2065.87	  185.09
     56.0526	  294.00	  266.07	-2050.93	  185.08
     56.0860	  238.00	  268.51	-2109.38	  185.08
     56.1195	  291.00	  271.43	-2059.29	  185.07
     56.1529	  270.00	  274.95	-2083.82	  185.07
     56.1863	  272.00	  279.27	-2086.13	  185.06
     56.2197	  316.00	  284.63	-2047.49	  185.06
     56.2531	  290.00	  291.40	-2080.27	  185.05
     56.2866	  320.00	  300.12	-2058.99	  185.05
     56.3200	  341.00	  311.63	-2049.50	  185.04
     56.3534	  392.00	  327.39	-2014.25	  185.04
     56.3868	  448.00	  350.56	-1981.43	  185.04
     56.4203	  457.00	  389.93	-2011.80	  185.03
     56.4537	  527.00	  469.20	-2021.07	  185.03
     56.4871	  731.00	  638.15	-1986.02	  185.02
     56.5205	 1088.00	  962.04	-1952.90	  185.02
     56.5539	 1514.00	 1459.05	-2023.92	  185.01
     56.5874	 2285.00	 1991.28	-1785.15	  185.01
     56.6208	 2526.00	 2196.14	-1749.01	  185.00
     56.6542	 2181.00	 1937.61	-1835.48	  185.00
     56.6876	 1635.00	 1604.42	-2048.29	  184.99
     56.7211	 1465.00	 1455.74	-2069.60	  184.99
     56.7545	 1583.00	 1415.93	-1911.79	  184.98
     56.7879	 1373.00	 1247.28	-1953.15	  184.98
     56.8213	 1028.00	  948.41	-1999.28	  184.97
     56.8547	  709.00	  675.98	-2045.84	  184.97
     56.8882	  517.00	  495.60	-2057.47	  184.96
     56.9216	  425.00	  397.97	-2051.84	  184.96
     56.9550	  377.00	  349.69	-2051.55	  184.95
     56.9884	  310.00	  324.21	-2093.08	  184.95
     57.0219	  330.00	  308.44	-2057.31	  184.95
     57.0553	  289.00	  297.37	-2087.23	  184.94
     57.0887	  253.00	  289.08	-2114.94	  184.94
     57.1221	  287.00	  282.66	-2074.53	  184.93
     57.1555	  299.00	  277.59	-2057.46	  184.93
     57.1890	  284.00	  273.50	-2068.37	  184.92
     57.2224	  288.00	  270.16	-2061.03	  184.92
     57.2558	  304.00	  267.40	-2042.26	  184.91
     57.2892	  271.00	  265.08	-2072.95	  184.91
     57.3227	  296.00	  263.11	-2045.98	  184.90
     57.3561	  243.00	  261.44	-2097.30	  184.90
     57.3895	  272.00	  259.99	-2066.86	  184.89
     57.4229	  282.00	  258.74	-2055.60	  184.89
     57.4564	  258.00	  257.64	-2078.51	  184.88
     57.4898	  291.00	  256.68	-2044.54	  184.88
     57.5232	  244.00	  255.83	-2090.69	  184.87
     57.5566	  273.00	  255.07	-2060.94	  184.87
     57.5900	  272.00	  254.40	-2061.26	  184.87
     57.6235	  224.00	  253.79	-2108.66	  184.86
     57.6569	  243.00	  253.25	-2089.11	  184.86
     57.6903	  255.00	  252.75	-2076.62	  184.85
     57.7237	  274.00	  252.31	-2057.17	  184.85
     57.7572	  262.00	  251.90	-2068.77	  184.84
     57.7906	  273.00	  251.53	-2057.40	  184.84
     57.8240	  249.00	  251.19	-2081.06	  184.83
     57.8574	  240.00	  250.88	-2089.75	  184.83
     57.8908	  232.00	  250.60	-2097.46	  184.82
     57.9243	  256.00	  250.33	-2073.20	  184.82
     57.9577	  253.00	  250.09	-2075.96	  184.81
     57.9911	  282.00	  249.86	-2046.73	  184.81
     58.0245	  249.00	  249.65	-2079.52	  184.80
     58.0580	  270.00	  249.46	-2058.33	  184.80
     58.0914	  227.00	  249.28	-2101.15	  184.80
     58.1248	  271.00	  249.11	-2056.98	  184.79
     58.1582	  253.00	  248.95	-2074.82	  184.79
     58.1917	  230.00	  248.80	-2097.67	  184.78
     58.2251	  270.00	  248.66	-2057.53	  184.78
     58.2585	  239.00	  248.53	-2088.40	  184.77
     58.2919	  236.00	  248.41	-2091.28	  184.77
     58.3253	  248.00	  248.29	-2079.16	  184.76
     58.3588	  261.00	  248.18	-2066.05	  184.76
     58.3922	  262.00	  248.08	-2064.95	  184.75
     58.4256	  248.00	  247.98	-2078.85	  184.75
     58.4590	  236.00	  247.89	-2090.76	  184.74
     58.4925	  258.00	  247.80	-2068.67	  184.74
     58.5259	  245.00	  247.72	-2081.59	  184.74
     58.5593	  251.00	  247.64	-2075.51	  184.73
     58.5927	  269.00	  247.57	-2057.43	  184.73
     58.6261	  262.00	  247.49	-2064.36	  184.72
     58.6596	  260.00	  247.43	-2066.29	  184.72
     58.6930	  240.00	  247.36	-2086.23	  184.71
     58.7264	  225.00	  247.30	-2101.17	  184.71
     58.7598	  237.00	  247.24	-2089.11	  184.70
     58.7933	  242.00	  247.18	-2084.05	  184.70
     58.8267	  213.00	  247.13	-2113.00	  184.69
     58.8601	  253.00	  247.08	-2072.94	  184.69
     58.8935	  249.00	  247.03	-2076.89	  184.69
     58.9269	  264.00	  246.98	-2061.84	  184.68
     58.9604	  218.00	  246.93	-2107.80	  184.68
     58.9938	  239.00	  246.89	-2086.75	  184.67
     59.0272	  258.00	  246.84	-2067.71	  184.67
     59.0606	  227.00	  246.80	-2098.67	  184.66
     59.0941	  249.00	  246.76	-2076.63	  184.66
     59.1275	  247.00	  246.73	-2078.59	  184.65
     59.1609	  256.00	  247.02	-2069.89	  184.65
     59.1943	  245.00	  246.99	-2080.86	  184.64
     59.2277	  255.00	  246.96	-2070.83	  184.64
     59.2612	  233.00	  246.94	-2092.80	  184.64
     59.2946	  237.00	  246.91	-2088.78	  184.63
     59.3280	  257.00	  247.05	-2068.92	  184.63
     59.3614	  238.00	  247.03	-2087.90	  184.62
     59.3949	  255.00	  247.01	-2070.88	  184.62
     59.4283	  220.00	  246.99	-2105.86	  184.61
     59.4617	  239.00	  246.98	-2086.85	  184.61
     59.4951	  256.00	  246.96	-2069.83	  184.60
     59.5285	  244.00	  246.95	-2081.82	  184.60
     59.5620	  237.00	  246.94	-2088.80	  184.60
     59.5954	  219.00	  246.92	-2106.79	  184.59
     59.6288	  243.00	  246.91	-2082.78	  184.59
     59.6622	  270.00	  246.90	-2055.77	  184.58
     59.6957	  253.00	  246.89	-2072.76	  184.58
     59.7291	  229.00	  246.88	-2096.75	  184.57
     59.7625	  277.00	  246.88	-2048.74	  184.57
     59.7959	  261.00	  246.87	-2064.74	  184.56
     59.8294	  226.00	  246.87	-2099.73	  184.56
     59.8628	  250.00	  246.86	-2075.73	  184.56
     59.8962	  262.00	  246.86	-2063.73	  184.55
     59.9296	  229.00	  246.86	-2096.72	  184.55
     59.9630	  259.00	  246.86	-2066.72	  184.54
     59.9965	  243.00	  246.86	-2082.72	  184.54
     60.0299	  236.00	  246.86	-2089.72	  184.53
     60.0633	  261.00	  246.86	-2064.73	  184.53
     60.0967	  258.00	  246.86	-2067.73	  184.52
     60.1302	  286.00	  246.87	-2039.73	  184.52
     60.1636	  260.00	  246.87	-2065.74	  184.52
     60.1970	  229.00	  246.88	-2096.75	  184.51
     60.2304	  242.00	  246.89	-2083.75	  184.51
     60.2638	  262.00	  246.89	-2063.76	  184.50
     60.2973	  224.00	  246.54	-2101.41	  184.50
     60.3307	  246.00	  246.56	-2079.43	  184.49
     60.3641	  273.00	  246.58	-2052.45	  184.49
     60.3975	  264.00	  246.60	-2061.47	  184.48
     60.4310	  255.00	  246.44	-2070.31	  184.48
     60.4644	  249.00	  246.46	-2076.33	  184.48
     60.4978	  297.00	  246.49	-2028.36	  184.47
     60.5312	  253.00	  246.52	-2072.39	  184.47
     60.5647	  258.00	  246.55	-2067.42	  184.46
     60.5981	  238.00	  246.58	-2087.45	  184.46
     60.6315	  261.00	  246.61	-2064.48	  184.45
     60.6649	  238.00	  246.65	-2087.51	  184.45
     60.6983	  256.00	  246.68	-2069.55	  184.45
     60.7318	  270.00	  246.72	-2055.59	  184.44
     60.7652	  255.00	  246.76	-2070.63	  184.44
     60.7986	  261.00	  246.80	-2064.67	  184.43
     60.8320	  265.00	  246.85	-2060.71	  184.43
     60.8654	  263.00	  246.89	-2062.76	  184.42
     60.8989	  256.00	  246.94	-2069.81	  184.42
     60.9323	  270.00	  246.99	-2055.86	  184.41
     60.9657	  232.00	  247.05	-2093.92	  184.41
     60.9991	  236.00	  247.11	-2089.97	  184.41
     61.0326	  256.00	  247.17	-2070.04	  184.40
     61.0660	  256.00	  247.23	-2070.10	  184.40
     61.0994	  256.00	  247.30	-2070.17	  184.39
     61.1328	  251.00	  247.38	-2075.24	  184.39
     61.1663	  245.00	  247.45	-2081.32	  184.38
     61.1997	  261.00	  247.53	-2065.40	  184.38
     61.2331	  272.00	  247.62	-2054.49	  184.38
     61.2665	  213.00	  247.71	-2113.58	  184.37
     61.2999	  259.00	  247.81	-2067.68	  184.37
     61.3334	  274.00	  247.92	-2052.79	  184.36
     61.3668	  271.00	  248.03	-2055.90	  184.36
     61.4002	  235.00	  248.15	-2092.02	  184.35
     61.4336	  224.00	  248.28	-2103.15	  184.35
     61.4671	  257.00	  248.42	-2070.29	  184.35
     61.5005	  269.00	  248.57	-2058.44	  184.34
     61.5339	  269.00	  248.73	-2058.59	  184.34
     61.5673	  244.00	  248.90	-2083.77	  184.33
     61.6007	  266.00	  249.09	-2061.95	  184.33
     61.6342	  265.00	  249.29	-2063.15	  184.32
     61.6676	  251.00	  249.50	-2077.37	  184.32
     61.7010	  269.00	  249.74	-2059.60	  184.32
     61.7344	  288.00	  249.99	-2040.86	  184.31
     61.7679	  274.00	  250.27	-2055.14	  184.31
     61.8013	  292.00	  250.58	-2037.44	  184.30
     61.8347	  255.00	  250.91	-2074.78	  184.30
     61.8681	  272.00	  251.28	-2058.15	  184.30
     61.9016	  251.00	  251.68	-2079.55	  184.29
     61.9350	  261.00	  252.13	-2069.99	  184.29
     61.9684	  255.00	  252.62	-2076.49	  184.28
     62.0018	  256.00	  253.17	-2076.04	  184.28
     62.0352	  304.00	  253.79	-2028.65	  184.27
     62.0687	  282.00	  254.47	-2051.34	  184.27
     62.1021	  260.00	  255.25	-2074.12	  184.27
     62.1355	  260.00	  256.13	-2074.99	  184.26
     62.1689	  276.00	  257.12	-2059.99	  184.26
     62.2024	  277.00	  258.27	-2060.13	  184.25
     62.2358	  282.00	  259.58	-2056.45	  184.25
     62.2692	  288.00	  261.11	-2051.97	  184.24
     62.3026	  264.00	  262.89	-2077.76	  184.24
     62.3360	  303.00	  264.99	-2040.86	  184.24
     62.3695	  288.00	  267.49	-2058.36	  184.23
     62.4029	  252.00	  270.50	-2097.37	  184.23
     62.4363	  280.00	  274.16	-2073.03	  184.22
     62.4697	  288.00	  278.68	-2069.55	  184.22
     62.5032	  304.00	  284.35	-2059.22	  184.22
     62.5366	  347.00	  291.60	-2023.46	  184.21
     62.5700	  355.00	  301.07	-2024.93	  184.21
     62.6034	  361.00	  313.83	-2031.70	  184.20
     62.6368	  421.00	  332.17	-1990.04	  184.20
     62.6703	  433.00	  361.75	-2007.61	  184.19
     62.7037	  518.00	  418.25	-1979.12	  184.19
     62.7371	  658.00	  536.62	-1957.48	  184.19
     62.7705	  838.00	  769.30	-2010.16	  184.18
     62.8040	 1299.00	 1150.25	-1930.12	  184.18
     62.8374	 1746.00	 1617.89	-1950.76	  184.17
     62.8708	 2237.00	 1922.46	-1764.33	  184.17
     62.9042	 2035.00	 1803.05	-1846.91	  184.17
     62.9377	 1471.00	 1463.93	-2071.80	  184.16
     62.9711	 1168.00	 1229.54	-2140.40	  184.16
     63.0045	 1217.00	 1187.82	-2049.69	  184.15
     63.0379	 1288.00	 1212.51	-2003.37	  184.15
     63.0713	 1197.00	 1097.45	-1979.32	  184.15
     63.1048	  976.00	  854.95	-1957.82	  184.14
     63.1382	  639.00	  624.89	-2064.76	  184.14
     63.1716	  450.00	  468.44	-2097.31	  184.13
     63.2050	  373.00	  381.62	-2087.48	  184.13
     63.2384	  373.00	  337.95	-2043.81	  184.13
     63.2719	  327.00	  314.94	-2066.81	  184.12
     63.3053	  291.00	  300.88	-2088.75	  184.12
     63.3387	  290.00	  291.09	-2079.95	  184.11
     63.3721	  298.00	  283.76	-2064.63	  184.11
     63.4056	  256.00	  278.09	-2100.96	  184.10
     63.4390	  282.00	  273.60	-2070.47	  184.10
     63.4724	  291.00	  269.98	-2057.85	  184.10
     63.5058	  286.00	  267.02	-2059.89	  184.09
     63.5393	  298.00	  264.56	-2045.43	  184.09
     63.5727	  301.00	  262.50	-2040.36	  184.08
     63.6061	  262.00	  260.75	-2077.62	  184.08
     63.6395	  286.00	  259.25	-2052.12	  184.08
     63.6729	  294.00	  257.96	-2042.83	  184.07
     63.7064	  262.00	  256.84	-2073.71	  184.07
     63.7398	  285.00	  255.87	-2049.73	  184.06
     63.7732	  270.00	  255.00	-2063.87	  184.06
     63.8066	  245.00	  254.24	-2088.11	  184.06
     63.8401	  278.00	  253.57	-2054.43	  184.05
     63.8735	  273.00	  252.96	-2058.83	  184.05
     63.9069	  248.00	  252.42	-2083.29	  184.04
     63.9403	  248.00	  251.94	-2082.80	  184.04
     63.9737	  297.00	  251.50	-2033.36	  184.04
     64.0072	  247.00	  251.10	-2082.97	  184.03
     64.0406	  258.00	  250.74	-2071.61	  184.03
     64.0740	  253.00	  250.41	-2076.28	  184.02
     64.1074	  259.00	  250.11	-2069.98	  184.02
     64.1409	  282.00	  249.83	-2046.70	  184.02
     64.1743	  256.00	  249.90	-2072.76	  184.01
     64.2077	  274.00	  249.67	-2054.54	  184.01
     64.2411	  248.00	  249.46	-2080.33	  184.01
     64.2746	  245.00	  249.27	-2083.14	  184.00
     64.3080	  266.00	  249.09	-2061.96	  184.00
     64.3414	  243.00	  248.93	-2084.80	  183.99
     64.3748	  290.00	  248.94	-2037.81	  183.99
     64.4082	  238.00	  248.80	-2089.67	  183.99
     64.4417	  243.00	  248.68	-2084.55	  183.98
     64.4751	  238.00	  248.56	-2089.43	  183.98
     64.5085	  225.00	  248.46	-2102.32	  183.97
     64.5419	  255.00	  248.36	-2072.23	  183.97
     64.5754	  236.00	  248.27	-2091.14	  183.97
     64.6088	  249.00	  248.19	-2078.05	  183.96
     64.6422	  245.00	  248.11	-2081.98	  183.96
     64.6756	  264.00	  248.04	-2062.91	  183.95
     64.7090	  253.00	  247.98	-2073.84	  183.95
     64.7425	  249.00	  247.92	-2077.79	  183.95
     64.7759	  226.00	  247.87	-2100.74	  183.94
     64.8093	  234.00	  247.82	-2092.69	  183.94
     64.8427	  267.00	  247.78	-2059.65	  183.93
     64.8762	  274.00	  247.75	-2052.61	  183.93
     64.9096	  259.00	  247.72	-2067.58	  183.93
     64.9430	  261.00	  247.69	-2065.56	  183.92
     64.9764	  264.00	  247.67	-2062.54	  183.92
     65.0098	  239.00	  247.65	-2087.52	  183.92
     65.0433	  230.00	  247.64	-2096.51	  183.91
     65.0767	  265.00	  247.63	-2061.50	  183.91
     65.1101	  243.00	  247.63	-2083.50	  183.90
     65.1435	  262.00	  247.64	-2064.50	  183.90
     65.1770	  283.00	  247.64	-2043.51	  183.90
     65.2104	  250.00	  247.66	-2076.53	  183.89
     65.2438	  245.00	  247.68	-2081.54	  183.89
     65.2772	  264.00	  247.70	-2062.57	  183.88
     65.3106	  316.00	  247.90	-2010.77	  183.88
     65.3441	  283.00	  247.94	-2043.81	  183.88
     65.3775	  277.00	  247.99	-2049.86	  183.87
     65.4109	  246.00	  248.05	-2080.92	  183.87
     65.4443	  299.00	  248.12	-2027.98	  183.87
     65.4778	  280.00	  248.28	-2047.14	  183.86
     65.5112	  269.00	  248.36	-2058.23	  183.86
     65.5446	  277.00	  248.46	-2050.33	  183.85
     65.5780	  270.00	  248.58	-2057.45	  183.85
     65.6115	  264.00	  248.71	-2063.57	  183.85
     65.6449	  252.00	  248.86	-2075.72	  183.84
     65.6783	  289.00	  249.02	-2038.89	  183.84
     65.7117	  300.00	  249.22	-2028.09	  183.84
     65.7451	  264.00	  249.44	-2064.31	  183.83
     65.7786	  266.00	  249.70	-2062.57	  183.83
     65.8120	  266.00	  250.00	-2062.86	  183.82
     65.8454	  238.00	  250.35	-2091.21	  183.82
     65.8788	  267.00	  250.76	-2062.63	  183.82
     65.9123	  273.00	  251.25	-2057.12	  183.81
     65.9457	  282.00	  251.85	-2048.72	  183.81
     65.9791	  252.00	  252.58	-2079.44	  183.81
     66.0125	  259.00	  253.48	-2073.35	  183.80
     66.0459	  290.00	  254.62	-2043.49	  183.80
     66.0794	  242.00	  256.09	-2092.96	  183.79
     66.1128	  273.00	  258.05	-2063.92	  183.79
     66.1462	  282.00	  260.81	-2057.67	  183.79
     66.1796	  288.00	  265.14	-2056.01	  183.78
     66.2131	  293.00	  273.17	-2059.04	  183.78
     66.2465	  316.00	  289.67	-2052.53	  183.78
     66.2799	  374.00	  322.19	-2027.05	  183.77
     66.3133	  378.00	  376.65	-2077.52	  183.77
     66.3467	  459.00	  447.00	-2066.87	  183.77
     66.3802	  530.00	  501.15	-2050.01	  183.76
     66.4136	  562.00	  494.02	-2010.89	  183.76
     66.4470	  458.00	  442.09	-2062.96	  183.75
     66.4804	  438.00	  397.58	-2038.44	  183.75
     66.5139	  367.00	  383.28	-2095.15	  183.75
     66.5473	  453.00	  391.14	-2017.01	  183.74
     66.5807	  399.00	  391.11	-2070.98	  183.74
     66.6141	  391.00	  363.61	-2051.48	  183.74
     66.6476	  357.00	  326.24	-2048.10	  183.73
     66.6810	  318.00	  296.00	-2056.86	  183.73
     66.7144	  292.00	  277.22	-2064.08	  183.73
     66.7478	  282.00	  267.36	-2064.22	  183.72
     66.7812	  255.00	  262.32	-2086.19	  183.72
     66.8147	  285.00	  259.73	-2053.60	  183.71
     66.8481	  251.00	  258.18	-2086.04	  183.71
     66.8815	  274.00	  257.16	-2062.03	  183.71
     66.9149	  269.00	  256.49	-2066.36	  183.70
     66.9484	  239.00	  256.07	-2095.94	  183.70
     66.9818	  275.00	  255.85	-2059.72	  183.70
     67.0152	  258.00	  255.79	-2076.65	  183.69
     67.0486	  244.00	  255.86	-2090.73	  183.69
     67.0820	  298.00	  256.06	-2036.93	  183.69
     67.1155	  263.00	  256.38	-2072.25	  183.68
     67.1489	  282.00	  256.81	-2053.68	  183.68
     67.1823	  270.00	  257.36	-2066.23	  183.67
     67.2157	  272.00	  258.04	-2064.91	  183.67
     67.2492	  284.00	  258.86	-2053.73	  183.67
     67.2826	  258.00	  259.84	-2080.70	  183.66
     67.3160	  286.00	  260.99	-2053.86	  183.66
     67.3494	  267.00	  262.36	-2074.23	  183.66
     67.3828	  272.00	  263.99	-2070.85	  183.65
     67.4163	  239.00	  265.92	-2105.79	  183.65
     67.4497	  283.00	  268.23	-2064.10	  183.65
     67.4831	  283.00	  271.03	-2066.89	  183.64
     67.5165	  269.00	  274.43	-2084.30	  183.64
     67.5500	  294.00	  278.63	-2063.50	  183.64
     67.5834	  285.00	  283.89	-2077.75	  183.63
     67.6168	  325.00	  290.57	-2044.44	  183.63
     67.6502	  324.00	  299.26	-2054.13	  183.63
     67.6836	  337.00	  310.90	-2052.76	  183.62
     67.7171	  352.00	  327.35	-2054.22	  183.62
     67.7505	  360.00	  353.34	-2072.21	  183.62
     67.7839	  434.00	  401.43	-2046.30	  183.61
     67.8173	  538.00	  499.97	-2040.83	  183.61
     67.8508	  696.00	  693.95	-2076.82	  183.60
     67.8842	 1035.00	 1019.55	-2063.42	  183.60
     67.9176	 1409.00	 1443.36	-2113.23	  183.60
     67.9510	 1756.00	 1778.75	-2101.62	  183.59
     67.9845	 1732.00	 1750.34	-2097.20	  183.59
     68.0179	 1376.00	 1435.34	-2138.21	  183.59
     68.0513	 1008.00	 1148.45	-2219.32	  183.58
     68.0847	 1007.00	 1042.10	-2113.96	  183.58
     68.1181	 1012.00	 1087.90	-2154.77	  183.58
     68.1516	 1154.00	 1121.74	-2046.61	  183.57
     68.1850	  946.00	  991.59	-2124.46	  183.57
     68.2184	  723.00	  767.59	-2123.45	  183.57
     68.2518	  537.00	  570.16	-2112.02	  183.56
     68.2853	  396.00	  440.30	-2123.17	  183.56
     68.3187	  399.00	  369.17	-2049.03	  183.56
     68.3521	  374.00	  333.24	-2038.11	  183.55
     68.3855	  306.00	  314.08	-2086.94	  183.55
     68.4189	  290.00	  302.34	-2091.21	  183.55
     68.4524	  279.00	  294.30	-2094.16	  183.54
     68.4858	  275.00	  288.49	-2092.36	  183.54
     68.5192	  283.00	  284.27	-2080.13	  183.54
     68.5526	  277.00	  281.23	-2083.10	  183.53
     68.5861	  253.00	  279.17	-2105.04	  183.53
     68.6195	  282.00	  277.94	-2074.80	  183.53
     68.6529	  259.00	  277.47	-2097.34	  183.52
     68.6863	  298.00	  277.78	-2058.64	  183.52
     68.7197	  280.00	  278.94	-2077.81	  183.52
     68.7532	  294.00	  281.05	-2065.92	  183.51
     68.7866	  310.00	  284.39	-2053.26	  183.51
     68.8200	  278.00	  289.42	-2090.29	  183.51
     68.8534	  342.00	  297.08	-2033.95	  183.50
     68.8869	  320.00	  309.80	-2068.67	  183.50
     68.9203	  357.00	  334.03	-2055.90	  183.50
     68.9537	  424.00	  384.27	-2039.14	  183.49
     68.9871	  474.00	  483.69	-2088.56	  183.49
     69.0206	  601.00	  651.28	-2129.15	  183.49
     69.0540	  843.00	  871.05	-2106.92	  183.48
     69.0874	 1026.00	 1049.45	-2102.32	  183.48
     69.1208	 1003.00	 1041.37	-2117.24	  183.48
     69.1542	  856.00	  877.35	-2100.22	  183.47
     69.1877	  635.00	  720.91	-2164.78	  183.47
     69.2211	  619.00	  656.72	-2116.59	  183.47
     69.2545	  552.00	  677.72	-2204.58	  183.46
     69.2879	  678.00	  706.36	-2107.23	  183.46
     69.3214	  594.00	  653.82	-2138.68	  183.46
     69.3548	  553.00	  539.91	-2065.78	  183.45
     69.3882	  433.00	  431.81	-2077.67	  183.45
     69.4216	  361.00	  357.50	-2075.36	  183.45
     69.4550	  292.00	  315.43	-2102.30	  183.44
     69.4885	  319.00	  293.81	-2053.67	  183.44
     69.5219	  249.00	  282.26	-2112.13	  183.44
     69.5553	  257.00	  275.18	-2097.05	  183.43
     69.5887	  236.00	  270.23	-2113.10	  183.43
     69.6222	  274.00	  266.51	-2071.38	  183.43
     69.6556	  248.00	  263.60	-2094.47	  183.43
     69.6890	  272.00	  261.28	-2068.14	  183.42
     69.7224	  246.00	  259.38	-2092.25	  183.42
     69.7558	  260.00	  257.82	-2076.68	  183.42
     69.7893	  252.00	  256.50	-2083.37	  183.41
     69.8227	  269.00	  255.39	-2065.26	  183.41
     69.8561	  263.00	  254.44	-2070.31	  183.41
     69.8895	  223.00	  253.62	-2109.48	  183.40
     69.9230	  273.00	  252.90	-2058.76	  183.40
     69.9564	  269.00	  252.27	-2062.13	  183.40
     69.9898	  255.00	  251.71	-2075.58	  183.39
     70.0232	  255.00	  251.22	-2075.08	  183.39
     70.0566	  284.00	  250.78	-2045.64	  183.39
     70.0901	  270.00	  250.38	-2059.25	  183.38
     70.1235	  259.00	  250.02	-2069.89	  183.38
     70.1569	  243.00	  249.70	-2085.56	  183.38
     70.1903	  250.00	  249.35	-2078.22	  183.37
     70.2238	  267.00	  249.08	-2060.95	  183.37
     70.2572	  257.00	  248.84	-2070.71	  183.37
     70.2906	  232.00	  248.61	-2095.48	  183.37
     70.3240	  244.00	  248.41	-2083.27	  183.36
     70.3575	  236.00	  248.19	-2091.06	  183.36
     70.3909	  233.00	  248.02	-2093.88	  183.36
     70.4243	  248.00	  247.85	-2078.72	  183.35
     70.4577	  240.00	  247.70	-2086.57	  183.35
     70.4911	  239.00	  247.56	-2087.43	  183.35
     70.5246	  252.00	  247.43	-2074.30	  183.34
     70.5580	  252.00	  247.31	-2074.17	  183.34
     70.5914	  243.00	  247.19	-2083.06	  183.34
     70.6248	  257.00	  247.09	-2068.95	  183.33
     70.6583	  277.00	  246.99	-2048.85	  183.33
     70.6917	  242.00	  246.89	-2083.76	  183.33
     70.7251	  226.00	  246.81	-2099.67	  183.33
     70.7585	  225.00	  246.72	-2100.59	  183.32
     70.7919	  261.00	  246.65	-2064.51	  183.32
     70.8254	  266.00	  246.57	-2059.44	  183.32
     70.8588	  242.00	  246.51	-2083.37	  183.31
     70.8922	  244.00	  246.44	-2081.31	  183.31
     70.9256	  244.00	  246.38	-2081.25	  183.31
     70.9591	  261.00	  246.33	-2064.19	  183.30
     70.9925	  232.00	  246.27	-2093.14	  183.30
     71.0259	  273.00	  246.23	-2052.09	  183.30
     71.0593	  258.00	  246.18	-2067.05	  183.30
     71.0928	  235.00	  246.14	-2090.00	  183.29
     71.1262	  244.00	  246.10	-2080.97	  183.29
     71.1596	  226.00	  246.06	-2098.93	  183.29
     71.1930	  260.00	  246.03	-2064.90	  183.28
     71.2264	  266.00	  246.00	-2058.86	  183.28
     71.2599	  251.00	  245.97	-2073.84	  183.28
     71.2933	  262.00	  245.95	-2062.81	  183.27
     71.3267	  237.00	  245.92	-2087.79	  183.27
     71.3601	  263.00	  245.91	-2061.77	  183.27
     71.3936	  259.00	  245.89	-2065.76	  183.27
     71.4270	  233.00	  245.88	-2091.75	  183.26
     71.4604	  247.00	  245.87	-2077.74	  183.26
     71.4938	  236.00	  245.86	-2088.73	  183.26
     71.5272	  251.00	  245.86	-2073.73	  183.25
     71.5607	  251.00	  245.87	-2073.73	  183.25
     71.5941	  238.00	  245.87	-2086.74	  183.25
     71.6275	  258.00	  245.88	-2066.75	  183.25
     71.6609	  242.00	  245.90	-2082.77	  183.24
     71.6944	  267.00	  245.93	-2057.79	  183.24
     71.7278	  259.00	  245.95	-2065.82	  183.24
     71.7612	  275.00	  245.99	-2049.86	  183.23
     71.7946	  275.00	  245.73	-2049.59	  183.23
     71.8280	  234.00	  245.79	-2090.66	  183.23
     71.8615	  247.00	  245.86	-2077.73	  183.23
     71.8949	  246.00	  245.95	-2078.81	  183.22
     71.9283	  249.00	  246.05	-2075.91	  183.22
     71.9617	  249.00	  246.01	-2075.88	  183.22
     71.9952	  225.00	  246.16	-2100.02	  183.21
     72.0286	  248.00	  246.33	-2077.20	  183.21
     72.0620	  274.00	  246.54	-2051.41	  183.21
     72.0954	  257.00	  246.79	-2068.66	  183.21
     72.1288	  235.00	  247.10	-2090.96	  183.20
     72.1623	  257.00	  247.48	-2069.34	  183.20
     72.1957	  256.00	  247.95	-2070.82	  183.20
     72.2291	  262.00	  248.56	-2065.43	  183.19
     72.2625	  257.00	  249.34	-2071.21	  183.19
     72.2960	  277.00	  250.39	-2052.26	  183.19
     72.3294	  231.00	  251.86	-2099.73	  183.19
     72.3628	  261.00	  254.15	-2072.02	  183.18
     72.3962	  236.00	  258.27	-2101.14	  183.18
     72.4296	  267.00	  266.56	-2078.43	  183.18
     72.4631	  286.00	  282.84	-2075.70	  183.18
     72.4965	  292.00	  310.62	-2097.48	  183.17
     72.5299	  354.00	  348.44	-2073.30	  183.17
     72.5633	  395.00	  382.78	-2066.65	  183.17
     72.5968	  349.00	  388.01	-2117.88	  183.16
     72.6302	  354.00	  361.48	-2086.34	  183.16
     72.6636	  314.00	  330.47	-2095.33	  183.16
     72.6970	  305.00	  313.43	-2087.30	  183.16
     72.7305	  301.00	  313.44	-2091.31	  183.15
     72.7639	  315.00	  322.15	-2086.02	  183.15
     72.7973	  317.00	  323.14	-2085.01	  183.15
     72.8307	  301.00	  308.29	-2086.16	  183.15
     72.8641	  280.00	  287.82	-2086.69	  183.14
     72.8976	  260.00	  271.06	-2089.93	  183.14
     72.9310	  237.00	  260.24	-2102.11	  183.14
     72.9644	  236.00	  254.44	-2097.31	  183.13
     72.9978	  259.00	  251.45	-2071.32	  183.13
     73.0313	  255.00	  249.83	-2073.70	  183.13
     73.0647	  269.00	  248.76	-2058.63	  183.13
     73.0981	  263.00	  247.99	-2063.86	  183.12
     73.1315	  232.00	  247.32	-2094.19	  183.12
     73.1649	  279.00	  246.86	-2046.73	  183.12
     73.1984	  236.00	  246.50	-2089.36	  183.12
     73.2318	  261.00	  246.20	-2064.06	  183.11
     73.2652	  238.00	  245.97	-2086.84	  183.11
     73.2986	  236.00	  245.77	-2088.63	  183.11
     73.3321	  258.00	  245.59	-2066.46	  183.11
     73.3655	  244.00	  245.44	-2080.31	  183.10
     73.3989	  226.00	  245.31	-2098.18	  183.10
     73.4323	  253.00	  245.20	-2071.07	  183.10
     73.4658	  239.00	  245.10	-2084.97	  183.10
     73.4992	  229.00	  245.02	-2094.89	  183.09
     73.5326	  269.00	  244.94	-2054.81	  183.09
     73.5660	  251.00	  244.88	-2072.74	  183.09
     73.5994	  250.00	  244.82	-2073.68	  183.09
     73.6329	  252.00	  244.76	-2071.63	  183.08
     73.6663	  231.00	  244.71	-2092.58	  183.08
     73.6997	  227.00	  244.67	-2096.54	  183.08
     73.7331	  248.00	  244.63	-2075.50	  183.08
     73.7665	  242.00	  244.60	-2081.46	  183.07
     73.8000	  252.00	  244.56	-2071.43	  183.07
     73.8334	  277.00	  244.53	-2046.40	  183.07
     73.8668	  232.00	  244.51	-2091.37	  183.07
     73.9002	  233.00	  244.48	-2090.35	  183.06
     73.9337	  233.00	  244.46	-2090.33	  183.06
     73.9671	  238.00	  244.44	-2085.30	  183.06
     74.0005	  242.00	  244.42	-2081.29	  183.06
     74.0339	  245.00	  244.40	-2078.27	  183.05
     74.0674	  262.00	  244.38	-2061.25	  183.05
     74.1008	  235.00	  244.37	-2088.24	  183.05
     74.1342	  265.00	  244.35	-2058.22	  183.05
     74.1676	  240.00	  244.34	-2083.21	  183.04
     74.2010	  253.00	  244.33	-2070.20	  183.04
     74.2345	  239.00	  244.32	-2084.19	  183.04
     74.2679	  239.00	  244.31	-2084.18	  183.04
     74.3013	  232.00	  244.30	-2091.17	  183.03
     74.3347	  235.00	  244.29	-2088.16	  183.03
     74.3682	  246.00	  244.28	-2077.15	  183.03
     74.4016	  273.00	  244.28	-2050.14	  183.03
     74.4350	  265.00	  244.27	-2058.14	  183.02
     74.4684	  248.00	  244.27	-2075.13	  183.02
     74.5018	  227.00	  244.26	-2096.13	  183.02
     74.5353	  245.00	  244.26	-2078.12	  183.02
     74.5687	  259.00	  244.25	-2064.12	  183.01
     74.6021	  238.00	  244.25	-2085.12	  183.01
     74.6355	  231.00	  244.25	-2092.11	  183.01
     74.6690	  245.00	  244.24	-2078.11	  183.01
     74.7024	  240.00	  244.24	-2083.11	  183.00
     74.7358	  245.00	  244.24	-2078.11	  183.00
     74.7692	  269.00	  244.24	-2054.11	  183.00
     74.8027	  218.00	  244.24	-2105.11	  183.00
     74.8361	  224.00	  244.24	-2099.11	  182.99
     74.8695	  250.00	  244.24	-2073.11	  182.99
     74.9029	  244.00	  244.24	-2079.11	  182.99
     74.9363	  253.00	  244.24	-2070.11	  182.99
     74.9698	  236.00	  244.25	-2087.11	  182.99
     75.0032	  266.00	  244.25	-2057.12	  182.98
     75.0366	  256.00	  244.25	-2067.12	  182.98
     75.0700	  253.00	  244.26	-2070.13	  182.98
     75.1035	  249.00	  244.26	-2074.13	  182.98
     75.1369	  232.00	  244.27	-2091.14	  182.97
     75.1703	  264.00	  244.28	-2059.14	  182.97
     75.2037	  278.00	  244.28	-2045.15	  182.97
     75.2371	  249.00	  244.29	-2074.16	  182.97
     75.2706	  234.00	  244.30	-2089.17	  182.96
     75.3040	  237.00	  244.31	-2086.18	  182.96
     75.3374	  237.00	  244.32	-2086.19	  182.96
     75.3708	  239.00	  244.34	-2084.20	  182.96
     75.4043	  273.00	  244.35	-2050.22	  182.96
     75.4377	  258.00	  244.36	-2065.23	  182.95
     75.4711	  240.00	  244.38	-2083.25	  182.95
     75.5045	  262.00	  244.40	-2061.26	  182.95
     75.5379	  273.00	  244.42	-2050.28	  182.95
     75.5714	  231.00	  244.44	-2092.30	  182.94
     75.6048	  256.00	  244.46	-2067.32	  182.94
     75.6382	  196.00	  244.48	-2127.35	  182.94
     75.6716	  217.00	  244.51	-2106.38	  182.94
     75.7051	  251.00	  244.54	-2072.40	  182.94
     75.7385	  255.00	  244.57	-2068.44	  182.93
     75.7719	  257.00	  244.60	-2066.47	  182.93
     75.8053	  250.00	  244.64	-2073.51	  182.93
     75.8387	  251.00	  244.68	-2072.55	  182.93
     75.8722	  237.00	  244.73	-2086.59	  182.92
     75.9056	  258.00	  244.78	-2065.64	  182.92
     75.9390	  221.00	  244.83	-2102.70	  182.92
     75.9724	  251.00	  244.89	-2072.76	  182.92
     76.0059	  219.00	  244.96	-2104.82	  182.92
     76.0393	  244.00	  245.03	-2079.90	  182.91
     76.0727	  245.00	  245.11	-2078.98	  182.91
     76.1061	  223.00	  245.21	-2101.07	  182.91
     76.1395	  247.00	  245.31	-2077.18	  182.91
     76.1730	  242.00	  245.42	-2082.29	  182.91
     76.2064	  245.00	  245.55	-2079.42	  182.90
     76.2398	  246.00	  245.70	-2078.57	  182.90
     76.2732	  219.00	  245.87	-2105.74	  182.90
     76.3067	  221.00	  246.07	-2103.93	  182.90
     76.3401	  225.00	  246.29	-2100.16	  182.90
     76.3735	  210.00	  246.55	-2115.42	  182.89
     76.4069	  224.00	  246.86	-2101.73	  182.89
     76.4404	  251.00	  247.22	-2075.09	  182.89
     76.4738	  233.00	  247.62	-2093.49	  182.89
     76.5072	  243.00	  248.14	-2084.01	  182.89
     76.5406	  232.00	  248.77	-2095.64	  182.88
     76.5740	  270.00	  249.56	-2058.43	  182.88
     76.6075	  230.00	  250.55	-2099.42	  182.88
     76.6409	  244.00	  251.82	-2086.68	  182.88
     76.6743	  257.00	  253.47	-2075.34	  182.88
     76.7077	  252.00	  255.77	-2082.63	  182.87
     76.7412	  275.00	  259.22	-2063.09	  182.87
     76.7746	  263.00	  265.18	-2081.05	  182.87
     76.8080	  291.00	  276.78	-2064.64	  182.87
     76.8414	  283.00	  299.53	-2095.40	  182.87
     76.8748	  341.00	  339.57	-2077.44	  182.86
     76.9083	  364.00	  397.63	-2112.50	  182.86
     76.9417	  448.00	  459.18	-2090.04	  182.86
     76.9751	  451.00	  486.65	-2114.51	  182.86
     77.0085	  466.00	  456.19	-2069.06	  182.86
     77.0420	  378.00	  401.22	-2102.09	  182.85
     77.0754	  306.00	  359.65	-2132.52	  182.85
     77.1088	  330.00	  345.55	-2094.41	  182.85
     77.1422	  330.00	  355.53	-2104.40	  182.85
     77.1757	  352.00	  372.71	-2099.58	  182.85
     77.2091	  343.00	  371.61	-2107.48	  182.84
     77.2425	  334.00	  345.42	-2090.28	  182.84
     77.2759	  311.00	  312.51	-2080.37	  182.84
     77.3093	  291.00	  286.28	-2074.15	  182.84
     77.3428	  234.00	  269.69	-2114.56	  182.84
     77.3762	  245.00	  260.64	-2094.50	  182.83
     77.4096	  243.00	  255.88	-2091.75	  182.83
     77.4430	  247.00	  253.19	-2085.06	  182.83
     77.4765	  219.00	  251.45	-2111.31	  182.83
     77.5099	  238.00	  250.19	-2091.06	  182.83
     77.5433	  248.00	  249.23	-2080.10	  182.82
     77.5767	  234.00	  248.47	-2093.34	  182.82
     77.6101	  236.00	  247.88	-2090.75	  182.82
     77.6436	  234.00	  247.39	-2092.25	  182.82
     77.6770	  232.00	  246.98	-2093.84	  182.82
     77.7104	  233.00	  246.63	-2092.50	  182.82
     77.7438	  234.00	  246.34	-2091.21	  182.81
     77.7773	  267.00	  246.09	-2057.96	  182.81
     77.8107	  257.00	  245.88	-2067.74	  182.81
     77.8441	  246.00	  245.69	-2078.56	  182.81
     77.8775	  238.00	  245.53	-2086.40	  182.81
     77.9109	  236.00	  245.38	-2088.25	  182.81
     77.9444	  234.00	  245.26	-2090.12	  182.80
     77.9778	  235.00	  245.15	-2089.01	  182.80
     78.0112	  256.00	  245.04	-2067.91	  182.80
     78.0446	  280.00	  244.95	-2043.82	  182.80
     78.0781	  258.00	  244.87	-2065.74	  182.80
     78.1115	  261.00	  244.80	-2062.67	  182.79
     78.1449	  213.00	  244.73	-2110.60	  182.79
     78.1783	  256.00	  244.67	-2067.54	  182.79
     78.2117	  233.00	  244.62	-2090.48	  182.79
     78.2452	  259.00	  244.57	-2064.43	  182.79
     78.2786	  211.00	  244.52	-2112.39	  182.79
     78.3120	  235.00	  244.48	-2088.34	  182.78
     78.3454	  225.00	  244.44	-2098.30	  182.78
     78.3789	  267.00	  244.40	-2056.27	  182.78
     78.4123	  255.00	  244.37	-2068.23	  182.78
     78.4457	  247.00	  244.34	-2076.20	  182.78
     78.4791	  239.00	  244.31	-2084.18	  182.78
     78.5126	  288.00	  244.28	-2035.15	  182.77
     78.5460	  246.00	  244.26	-2077.12	  182.77
     78.5794	  249.00	  244.23	-2074.10	  182.77
     78.6128	  247.00	  244.21	-2076.08	  182.77
     78.6462	  243.00	  244.19	-2080.06	  182.77
     78.6797	  251.00	  244.17	-2072.04	  182.77
     78.7131	  250.00	  244.16	-2073.02	  182.76
     78.7465	  250.00	  244.14	-2073.01	  182.76
     78.7799	  258.00	  244.12	-2064.99	  182.76
     78.8134	  232.00	  244.11	-2090.98	  182.76
     78.8468	  243.00	  244.10	-2079.96	  182.76
     78.8802	  231.00	  244.09	-2091.95	  182.76
     78.9136	  245.00	  244.07	-2077.94	  182.75
     78.9470	  272.00	  244.06	-2050.93	  182.75
     78.9805	  260.00	  244.05	-2062.92	  182.75
     79.0139	  244.00	  244.04	-2078.91	  182.75
     79.0473	  243.00	  244.04	-2079.90	  182.75
     79.0807	  233.00	  244.03	-2089.90	  182.75
     79.1142	  252.00	  244.02	-2070.89	  182.75
     79.1476	  238.00	  244.01	-2084.88	  182.74
     79.1810	  252.00	  244.01	-2070.88	  182.74
     79.2144	  278.00	  244.00	-2044.87	  182.74
     79.2478	  245.00	  244.00	-2077.87	  182.74
     79.2813	  240.00	  243.99	-2082.86	  182.74
     79.3147	  249.00	  243.99	-2073.86	  182.74
     79.3481	  239.00	  243.99	-2083.85	  182.73
     79.3815	  242.00	  243.99	-2080.85	  182.73
     79.4150	  213.00	  243.98	-2109.85	  182.73
     79.4484	  227.00	  243.98	-2095.85	  182.73
     79.4818	  257.00	  243.98	-2065.85	  182.73
     79.5152	  224.00	  243.98	-2098.85	  182.73
     79.5487	  211.00	  243.98	-2111.85	  182.73
     79.5821	  239.00	  243.98	-2083.85	  182.72
     79.6155	  239.00	  243.98	-2083.85	  182.72
     79.6489	  240.00	  243.99	-2082.85	  182.72
     79.6823	  275.00	  243.99	-2047.86	  182.72
     79.7158	  224.00	  243.99	-2098.86	  182.72
     79.7492	  237.00	  244.00	-2085.86	  182.72
     79.7826	  235.00	  244.00	-2087.87	  182.72
     79.8160	  236.00	  244.01	-2086.87	  182.71
     79.8494	  239.00	  244.01	-2083.88	  182.71
     79.8829	  231.00	  244.02	-2091.89	  182.71
     79.9163	  266.00	  244.03	-2056.90	  182.71
     79.9497	  227.00	  244.04	-2095.91	  182.71
     79.9831	  264.00	  244.05	-2058.92	  182.71
     80.0166	  242.00	  244.06	-2080.93	  182.71
     80.0500	  266.00	  244.07	-2056.94	  182.70
     80.0834	  248.00	  244.09	-2074.95	  182.70
     80.1168	  234.00	  244.10	-2088.97	  182.70
     80.1503	  250.00	  244.12	-2072.99	  182.70
     80.1837	  223.00	  244.14	-2100.01	  182.70
     80.2171	  220.00	  244.16	-2103.03	  182.70
     80.2505	  248.00	  244.19	-2075.05	  182.70
     80.2839	  248.00	  244.21	-2075.08	  182.70
     80.3174	  219.00	  244.24	-2104.11	  182.69
     80.3508	  262.00	  244.27	-2061.14	  182.69
     80.3842	  219.00	  244.31	-2104.17	  182.69
     80.4176	  248.00	  244.35	-2075.21	  182.69
     80.4511	  217.00	  244.39	-2106.26	  182.69
     80.4845	  227.00	  244.44	-2096.30	  182.69
     80.5179	  246.00	  244.49	-2077.36	  182.69
     80.5513	  221.00	  244.55	-2102.42	  182.69
     80.5847	  226.00	  244.62	-2097.49	  182.68
     80.6182	  242.00	  244.70	-2081.57	  182.68
     80.6516	  256.00	  244.79	-2067.65	  182.68
     80.6850	  246.00	  244.89	-2077.75	  182.68
     80.7184	  225.00	  245.00	-2098.87	  182.68
     80.7519	  269.00	  245.13	-2055.00	  182.68
     80.7853	  239.00	  245.29	-2085.15	  182.68
     80.8187	  264.00	  245.46	-2060.33	  182.68
     80.8521	  253.00	  245.67	-2071.54	  182.67
     80.8856	  271.00	  245.93	-2053.79	  182.67
     80.9190	  262.00	  246.23	-2063.09	  182.67
     80.9524	  209.00	  246.54	-2116.41	  182.67
     80.9858	  242.00	  246.99	-2083.86	  182.67
     81.0192	  220.00	  247.55	-2106.42	  182.67
     81.0527	  247.00	  248.26	-2080.13	  182.67
     81.0861	  233.00	  249.19	-2095.06	  182.67
     81.1195	  213.00	  250.44	-2116.31	  182.67
     81.1529	  256.00	  252.25	-2075.12	  182.66
     81.1864	  266.00	  255.19	-2068.06	  182.66
     81.2198	  269.00	  260.71	-2070.58	  182.66
     81.2532	  283.00	  271.45	-2067.32	  182.66
     81.2866	  269.00	  290.97	-2100.83	  182.66
     81.3200	  304.00	  321.28	-2096.14	  182.66
     81.3535	  316.00	  358.37	-2121.24	  182.66
     81.3869	  384.00	  386.13	-2081.00	  182.66
     81.4203	  374.00	  382.59	-2087.46	  182.66
     81.4537	  358.00	  352.94	-2073.81	  182.65
     81.4872	  273.00	  321.58	-2127.45	  182.65
     81.5206	  269.00	  302.72	-2112.59	  182.65
     81.5540	  247.00	  299.64	-2131.51	  182.65
     81.5874	  310.00	  308.60	-2077.47	  182.65
     81.6208	  294.00	  319.92	-2104.79	  182.65
     81.6543	  310.00	  319.75	-2088.62	  182.65
     81.6877	  278.00	  304.78	-2105.64	  182.65
     81.7211	  260.00	  285.58	-2104.44	  182.65
     81.7545	  253.00	  269.95	-2095.82	  182.64
     81.7880	  252.00	  259.81	-2086.68	  182.64
     81.8214	  264.00	  254.12	-2068.98	  182.64
     81.8548	  269.00	  251.09	-2060.96	  182.64
     81.8882	  247.00	  249.39	-2081.25	  182.64
     81.9217	  279.00	  248.29	-2048.16	  182.64
     81.9551	  283.00	  247.51	-2043.38	  182.64
     81.9885	  234.00	  246.92	-2091.79	  182.64
     82.0219	  256.00	  246.45	-2069.32	  182.64
     82.0553	  249.00	  246.08	-2075.94	  182.64
     82.0888	  244.00	  245.77	-2080.64	  182.64
     82.1222	  248.00	  245.52	-2076.38	  182.63
     82.1556	  217.00	  245.30	-2107.17	  182.63
     82.1890	  220.00	  245.12	-2103.99	  182.63
     82.2225	  235.00	  244.97	-2088.83	  182.63
     82.2559	  232.00	  244.83	-2091.70	  182.63
     82.2893	  256.00	  244.72	-2067.58	  182.63
     82.3227	  252.00	  244.62	-2071.48	  182.63
     82.3561	  270.00	  244.53	-2053.39	  182.63
     82.3896	  250.00	  244.45	-2073.31	  182.63
     82.4230	  225.00	  244.38	-2098.24	  182.63
     82.4564	  247.00	  244.31	-2076.18	  182.63
     82.4898	  250.00	  244.26	-2073.12	  182.62
     82.5233	  229.00	  244.21	-2094.07	  182.62
     82.5567	  249.00	  244.16	-2074.03	  182.62
     82.5901	  260.00	  244.12	-2062.98	  182.62
     82.6235	  235.00	  244.08	-2087.95	  182.62
     82.6569	  234.00	  244.04	-2088.91	  182.62
     82.6904	  257.00	  244.01	-2065.88	  182.62
     82.7238	  232.00	  243.98	-2090.85	  182.62
     82.7572	  258.00	  243.95	-2064.82	  182.62
     82.7906	  230.00	  243.93	-2092.80	  182.62
     82.8241	  242.00	  243.90	-2080.77	  182.62
     82.8575	  245.00	  243.88	-2077.75	  182.62
     82.8909	  219.00	  243.86	-2103.73	  182.61
     82.9243	  243.00	  243.84	-2079.71	  182.61
     82.9577	  262.00	  243.83	-2060.69	  182.61
     82.9912	  229.00	  243.81	-2093.68	  182.61
     83.0246	  252.00	  243.79	-2070.66	  182.61
     83.0580	  240.00	  243.78	-2082.65	  182.61
     83.0914	  269.00	  243.77	-2053.63	  182.61
     83.1249	  229.00	  243.75	-2093.62	  182.61
     83.1583	  251.00	  243.74	-2071.61	  182.61
     83.1917	  233.00	  243.73	-2089.60	  182.61
     83.2251	  238.00	  243.72	-2084.59	  182.61
     83.2586	  247.00	  243.71	-2075.58	  182.61
     83.2920	  264.00	  243.70	-2058.57	  182.61
     83.3254	  260.00	  243.69	-2062.56	  182.61
     83.3588	  217.00	  243.68	-2105.55	  182.61
     83.3922	  238.00	  243.67	-2084.54	  182.60
     83.4257	  280.00	  243.67	-2042.53	  182.60
     83.4591	  260.00	  243.66	-2062.52	  182.60
     83.4925	  251.00	  243.65	-2071.52	  182.60
     83.5259	  246.00	  243.64	-2076.51	  182.60
     83.5594	  256.00	  243.64	-2066.50	  182.60
     83.5928	  225.00	  243.63	-2097.50	  182.60
     83.6262	  245.00	  243.63	-2077.49	  182.60
     83.6596	  225.00	  243.62	-2097.49	  182.60
     83.6930	  250.00	  243.61	-2072.48	  182.60
     83.7265	  220.00	  243.61	-2102.48	  182.60
     83.7599	  237.00	  243.60	-2085.47	  182.60
     83.7933	  263.00	  243.60	-2059.47	  182.60
     83.8267	  226.00	  243.59	-2096.46	  182.60
     83.8602	  236.00	  243.59	-2086.46	  182.60
     83.8936	  225.00	  243.59	-2097.45	  182.60
     83.9270	  233.00	  243.58	-2089.45	  182.60
     83.9604	  253.00	  243.58	-2069.44	  182.59
     83.9939	  226.00	  243.57	-2096.44	  182.59
     84.0273	  235.00	  243.57	-2087.44	  182.59
     84.0607	  270.00	  243.57	-2052.43	  182.59
     84.0941	  255.00	  243.56	-2067.43	  182.59
     84.1275	  240.00	  243.56	-2082.43	  182.59
     84.1610	  224.00	  243.56	-2098.42	  182.59
     84.1944	  245.00	  243.55	-2077.42	  182.59
     84.2278	  234.00	  243.55	-2088.42	  182.59
     84.2612	  235.00	  243.55	-2087.41	  182.59
     84.2946	  278.00	  243.54	-2044.41	  182.59
     84.3281	  262.00	  243.54	-2060.41	  182.59
     84.3615	  277.00	  243.54	-2045.41	  182.59
     84.3949	  240.00	  243.54	-2082.40	  182.59
     84.4283	  246.00	  243.53	-2076.40	  182.59
     84.4618	  222.00	  243.53	-2100.40	  182.59
     84.4952	  257.00	  243.53	-2065.40	  182.59
     84.5286	  239.00	  243.53	-2083.39	  182.59
     84.5620	  266.00	  243.53	-2056.39	  182.59
     84.5955	  219.00	  243.52	-2103.39	  182.59
     84.6289	  237.00	  243.52	-2085.39	  182.59
     84.6623	  243.00	  243.52	-2079.39	  182.59
     84.6957	  230.00	  243.52	-2092.38	  182.58
     84.7291	  244.00	  243.52	-2078.38	  182.58
     84.7626	  236.00	  243.51	-2086.38	  182.58
     84.7960	  257.00	  243.51	-2065.38	  182.58
     84.8294	  255.00	  243.51	-2067.38	  182.58
     84.8628	  280.00	  243.51	-2042.38	  182.58
     84.8963	  240.00	  243.51	-2082.37	  182.58
     84.9297	  255.00	  243.51	-2067.37	  182.58
     84.9631	  234.00	  243.50	-2088.37	  182.58
     84.9965	  248.00	  243.50	-2074.37	  182.58
     85.0299	  236.00	  243.50	-2086.37	  182.58
     85.0634	  235.00	  243.50	-2087.37	  182.58
     85.0968	  244.00	  243.50	-2078.36	  182.58
     85.1302	  238.00	  243.50	-2084.36	  182.58
     85.1636	  223.00	  243.50	-2099.36	  182.58
     85.1971	  244.00	  243.49	-2078.36	  182.58
     85.2305	  259.00	  243.49	-2063.36	  182.58
     85.2639	  235.00	  243.49	-2087.36	  182.58
     85.2973	  219.00	  243.49	-2103.36	  182.58
     85.3307	  222.00	  243.49	-2100.36	  182.58
     85.3642	  238.00	  243.49	-2084.36	  182.58
     85.3976	  232.00	  243.59	-2090.45	  182.58
     85.4310	  236.00	  243.59	-2086.45	  182.58
     85.4644	  236.00	  243.56	-2086.42	  182.58
     85.4979	  271.00	  243.56	-2051.43	  182.58
     85.5313	  240.00	  243.56	-2082.43	  182.58
     85.5647	  256.00	  243.56	-2066.43	  182.58
     85.5981	  275.00	  243.56	-2047.43	  182.58
     85.6316	  236.00	  243.56	-2086.43	  182.58
     85.6650	  252.00	  243.61	-2070.48	  182.58
     85.6984	  219.00	  243.60	-2103.47	  182.58
     85.7318	  233.00	  243.60	-2089.47	  182.58
     85.7652	  239.00	  243.61	-2083.47	  182.58
     85.7987	  208.00	  243.61	-2114.48	  182.58
     85.8321	  247.00	  243.61	-2075.48	  182.58
     85.8655	  249.00	  243.62	-2073.48	  182.58
     85.8989	  223.00	  243.62	-2099.49	  182.58
     85.9324	  246.00	  243.62	-2076.49	  182.58
     85.9658	  232.00	  243.63	-2090.49	  182.58
     85.9992	  247.00	  243.63	-2075.50	  182.58
     86.0326	  255.00	  243.63	-2067.50	  182.58
     86.0660	  270.00	  243.64	-2052.50	  182.58
     86.0995	  264.00	  243.64	-2058.51	  182.58
     86.1329	  227.00	  243.64	-2095.51	  182.58
     86.1663	  231.00	  243.65	-2091.51	  182.58
     86.1997	  218.00	  243.65	-2104.52	  182.58
     86.2332	  229.00	  243.66	-2093.52	  182.58
     86.2666	  256.00	  243.66	-2066.53	  182.58
     86.3000	  245.00	  243.66	-2077.53	  182.58
     86.3334	  226.00	  243.67	-2096.54	  182.58
     86.3668	  238.00	  243.67	-2084.54	  182.58
     86.4003	  236.00	  243.68	-2086.55	  182.58
     86.4337	  219.00	  243.68	-2103.55	  182.58
     86.4671	  258.00	  243.69	-2064.56	  182.58
     86.5005	  285.00	  243.69	-2037.56	  182.58
     86.5340	  264.00	  243.70	-2058.57	  182.58
     86.5674	  227.00	  243.71	-2095.57	  182.58
     86.6008	  240.00	  243.71	-2082.58	  182.58
     86.6342	  232.00	  243.72	-2090.58	  182.58
     86.6676	  257.00	  243.72	-2065.59	  182.58
     86.7011	  263.00	  243.73	-2059.60	  182.58
     86.7345	  259.00	  243.74	-2063.60	  182.58
     86.7679	  233.00	  243.74	-2089.61	  182.58
     86.8013	  235.00	  243.75	-2087.62	  182.58
     86.8348	  257.00	  243.76	-2065.63	  182.58
     86.8682	  237.00	  243.77	-2085.63	  182.58
     86.9016	  258.00	  243.78	-2064.64	  182.58
     86.9350	  251.00	  243.78	-2071.65	  182.58
     86.9685	  232.00	  243.79	-2090.66	  182.58
     87.0019	  285.00	  243.80	-2037.67	  182.58
     87.0353	  251.00	  243.81	-2071.68	  182.58
     87.0687	  229.00	  243.82	-2093.69	  182.58
     87.1021	  244.00	  243.83	-2078.70	  182.58
     87.1356	  227.00	  243.84	-2095.71	  182.58
     87.1690	  248.00	  243.85	-2074.72	  182.58
     87.2024	  243.00	  243.86	-2079.73	  182.58
     87.2358	  236.00	  243.88	-2086.74	  182.58
     87.2693	  221.00	  243.89	-2101.75	  182.58
     87.3027	  222.00	  243.90	-2100.77	  182.58
     87.3361	  272.00	  243.91	-2050.78	  182.58
     87.3695	  248.00	  243.93	-2074.79	  182.58
     87.4029	  250.00	  243.94	-2072.81	  182.58
     87.4364	  255.00	  243.96	-2067.82	  182.58
     87.4698	  246.00	  243.97	-2076.84	  182.58
     87.5032	  220.00	  243.99	-2102.86	  182.58
     87.5366	  231.00	  244.01	-2091.87	  182.58
     87.5701	  232.00	  244.03	-2090.89	  182.58
     87.6035	  243.00	  244.05	-2079.91	  182.58
     87.6369	  266.00	  244.07	-2056.93	  182.58
     87.6703	  249.00	  244.09	-2073.95	  182.58
     87.7038	  233.00	  244.11	-2089.98	  182.58
     87.7372	  257.00	  244.13	-2066.00	  182.58
     87.7706	  251.00	  244.16	-2072.02	  182.58
     87.8040	  276.00	  244.18	-2047.05	  182.58
     87.8374	  258.00	  244.21	-2065.08	  182.59
     87.8709	  257.00	  244.24	-2066.10	  182.59
     87.9043	  222.00	  244.27	-2101.14	  182.59
     87.9377	  259.00	  244.30	-2064.17	  182.59
     87.9711	  250.00	  244.33	-2073.20	  182.59
     88.0045	  245.00	  244.37	-2078.24	  182.59
     88.0380	  233.00	  244.41	-2090.27	  182.59
     88.0714	  225.00	  244.45	-2098.32	  182.59
     88.1048	  229.00	  244.49	-2094.36	  182.59
     88.1382	  252.00	  244.54	-2071.40	  182.59
     88.1717	  244.00	  244.59	-2079.45	  182.59
     88.2051	  239.00	  244.64	-2084.51	  182.59
     88.2385	  248.00	  244.69	-2075.56	  182.59
     88.2719	  240.00	  244.75	-2083.62	  182.59
     88.3054	  220.00	  244.82	-2103.69	  182.59
     88.3388	  245.00	  244.89	-2078.75	  182.59
     88.3722	  238.00	  244.96	-2085.83	  182.59
     88.4056	  207.00	  245.04	-2116.91	  182.59
     88.4390	  230.00	  245.13	-2094.00	  182.59
     88.4725	  247.00	  245.26	-2077.12	  182.59
     88.5059	  237.00	  245.36	-2087.23	  182.59
     88.5393	  242.00	  245.47	-2082.34	  182.59
     88.5727	  260.00	  245.59	-2064.46	  182.60
     88.6062	  248.00	  245.73	-2076.59	  182.60
     88.6396	  240.00	  245.87	-2084.74	  182.60
     88.6730	  250.00	  246.04	-2074.90	  182.60
     88.7064	  282.00	  246.21	-2043.08	  182.60
     88.7398	  223.00	  246.41	-2102.28	  182.60
     88.7733	  251.00	  246.65	-2074.52	  182.60
     88.8067	  265.00	  246.90	-2060.76	  182.60
     88.8401	  256.00	  247.17	-2070.04	  182.60
     88.8735	  223.00	  247.48	-2103.35	  182.60
     88.9070	  240.00	  247.84	-2086.70	  182.60
     88.9404	  233.00	  248.24	-2094.11	  182.60
     88.9738	  264.00	  248.70	-2063.57	  182.60
     89.0072	  234.00	  249.24	-2094.10	  182.60
     89.0406	  239.00	  249.86	-2089.72	  182.60
     89.0741	  280.00	  250.59	-2049.45	  182.60
     89.1075	  265.00	  251.45	-2065.32	  182.61
     89.1409	  261.00	  252.48	-2070.35	  182.61
     89.1743	  270.00	  253.73	-2062.60	  182.61
     89.2078	  271.00	  255.27	-2063.14	  182.61
     89.2412	  245.00	  257.18	-2091.05	  182.61
     89.2746	  274.00	  259.61	-2064.48	  182.61
     89.3080	  256.00	  262.77	-2085.64	  182.61
     89.3415	  277.00	  267.07	-2068.94	  182.61
     89.3749	  302.00	  273.41	-2050.28	  182.61
     89.4083	  338.00	  283.97	-2024.83	  182.61
     89.4417	  298.00	  303.36	-2084.23	  182.61
     89.4751	  347.00	  339.50	-2071.37	  182.61
     89.5086	  461.00	  401.59	-2019.46	  182.61
     89.5420	  490.00	  493.40	-2082.27	  182.61
     89.5754	  654.00	  601.78	-2026.65	  182.62
     89.6088	  740.00	  681.44	-2020.31	  182.62
     89.6423	  686.00	  672.81	-2065.68	  182.62
     89.6757	  577.00	  586.86	-2088.73	  182.62
     89.7091	  457.00	  488.20	-2110.07	  182.62
     89.7425	  425.00	  417.56	-2071.43	  182.62
     89.7759	  376.00	  387.77	-2090.63	  182.62
     89.8094	  376.00	  396.46	-2099.33	  182.62
     89.8428	  374.00	  431.83	-2136.70	  182.62
     89.8762	  465.00	  470.98	-2084.84	  182.62
     89.9096	  458.00	  479.17	-2100.03	  182.62
     89.9431	  478.00	  442.42	-2043.29	  182.62
     89.9765	  394.00	  386.85	-2071.72	  182.63
     90.0099	  369.00	  337.48	-2047.34	  182.63
     90.0433	  305.00	  302.86	-2076.73	  182.63
     90.0767	  275.00	  282.01	-2085.88	  182.63
     90.1102	  289.00	  270.45	-2060.32	  182.63
     90.1436	  239.00	  264.00	-2103.86	  182.63
     90.1770	  246.00	  260.03	-2092.90	  182.63
     90.2104	  317.00	  257.31	-2019.17	  182.63
     90.2439	  252.00	  255.27	-2082.14	  182.63
     90.2773	  226.00	  253.68	-2106.55	  182.63
     90.3107	  261.00	  252.41	-2070.28	  182.63
     90.3441	  264.00	  251.37	-2066.24	  182.64
     90.3775	  252.00	  250.52	-2077.39	  182.64
     90.4110	  274.00	  249.80	-2054.67	  182.64
     90.4444	  243.00	  249.20	-2085.07	  182.64
     90.4778	  249.00	  248.68	-2078.55	  182.64
     90.5112	  238.00	  248.24	-2089.11	  182.64
     90.5447	  247.00	  247.86	-2079.72	  182.64
     90.5781	  252.00	  247.52	-2074.39	  182.64
     90.6115	  231.00	  247.23	-2095.09	  182.64
     90.6449	  253.00	  246.97	-2072.83	  182.65
     90.6784	  237.00	  246.74	-2088.60	  182.65
     90.7118	  244.00	  246.53	-2081.40	  182.65
     90.7452	  227.00	  246.35	-2098.22	  182.65
     90.7786	  242.00	  246.19	-2083.05	  182.65
     90.8120	  246.00	  246.04	-2078.91	  182.65
     90.8455	  248.00	  245.91	-2076.78	  182.65
     90.8789	  237.00	  245.79	-2087.66	  182.65
     90.9123	  260.00	  245.81	-2064.68	  182.65
     90.9457	  267.00	  245.71	-2057.58	  182.66
     90.9792	  256.00	  245.63	-2068.49	  182.66
     91.0126	  245.00	  245.55	-2079.42	  182.66
     91.0460	  204.00	  245.48	-2120.35	  182.66
     91.0794	  263.00	  245.42	-2061.28	  182.66
     91.1128	  234.00	  245.36	-2090.23	  182.66
     91.1463	  265.00	  245.31	-2059.17	  182.66
     91.1797	  226.00	  245.26	-2098.13	  182.66
     91.2131	  249.00	  245.28	-2075.15	  182.66
     91.2465	  251.00	  245.25	-2073.12	  182.67
     91.2800	  249.00	  245.22	-2075.09	  182.67
     91.3134	  257.00	  245.19	-2067.06	  182.67
     91.3468	  221.00	  245.17	-2103.04	  182.67
     91.3802	  266.00	  245.15	-2058.02	  182.67
     91.4137	  288.00	  245.14	-2036.00	  182.67
     91.4471	  251.00	  245.13	-2072.99	  182.67
     91.4805	  257.00	  245.12	-2066.99	  182.67
     91.5139	  277.00	  245.12	-2046.98	  182.68
     91.5473	  260.00	  245.12	-2063.98	  182.68
     91.5808	  234.00	  245.12	-2089.99	  182.68
     91.6142	  235.00	  245.13	-2089.00	  182.68
     91.6476	  267.00	  245.14	-2057.01	  182.68
     91.6810	  233.00	  245.16	-2091.03	  182.68
     91.7145	  245.00	  245.18	-2079.05	  182.68
     91.7479	  243.00	  245.21	-2081.08	  182.69
     91.7813	  260.00	  245.24	-2064.11	  182.69
     91.8147	  246.00	  245.28	-2078.14	  182.69
     91.8481	  246.00	  245.32	-2078.19	  182.69
     91.8816	  235.00	  245.37	-2089.24	  182.69
     91.9150	  258.00	  245.43	-2066.30	  182.69
     91.9484	  225.00	  245.50	-2099.36	  182.69
     91.9818	  234.00	  245.57	-2090.44	  182.69
     92.0153	  274.00	  245.66	-2050.53	  182.70
     92.0487	  237.00	  245.76	-2087.63	  182.70
     92.0821	  263.00	  245.88	-2061.75	  182.70
     92.1155	  266.00	  246.02	-2058.88	  182.70
     92.1489	  221.00	  246.17	-2104.04	  182.70
     92.1824	  238.00	  246.35	-2087.22	  182.70
     92.2158	  262.00	  246.57	-2063.43	  182.70
     92.2492	  257.00	  246.82	-2068.68	  182.71
     92.2826	  272.00	  247.12	-2053.98	  182.71
     92.3161	  270.00	  247.47	-2056.34	  182.71
     92.3495	  227.00	  247.91	-2099.78	  182.71
     92.3829	  259.00	  248.44	-2068.31	  182.71
     92.4163	  245.00	  249.11	-2082.97	  182.71
     92.4497	  248.00	  249.95	-2080.82	  182.72
     92.4832	  261.00	  251.05	-2068.92	  182.72
     92.5166	  272.00	  252.55	-2059.42	  182.72
     92.5500	  263.00	  254.77	-2070.64	  182.72
     92.5834	  260.00	  258.48	-2077.34	  182.72
     92.6169	  247.00	  265.21	-2097.08	  182.72
     92.6503	  300.00	  277.54	-2056.40	  182.72
     92.6837	  329.00	  298.30	-2048.17	  182.73
     92.7171	  353.00	  328.56	-2054.43	  182.73
     92.7505	  367.00	  364.07	-2075.94	  182.73
     92.7840	  420.00	  390.62	-2049.48	  182.73
     92.8174	  384.00	  389.10	-2083.97	  182.73
     92.8508	  407.00	  361.71	-2033.58	  182.73
     92.8842	  344.00	  328.69	-2063.55	  182.74
     92.9177	  294.00	  303.56	-2088.42	  182.74
     92.9511	  315.00	  290.91	-2054.77	  182.74
     92.9845	  285.00	  290.62	-2084.49	  182.74
     93.0179	  285.00	  300.08	-2093.95	  182.74
     93.0514	  342.00	  314.18	-2051.04	  182.74
     93.0848	  340.00	  323.69	-2062.56	  182.75
     93.1182	  326.00	  319.08	-2071.95	  182.75
     93.1516	  314.00	  302.95	-2067.82	  182.75
     93.1850	  277.00	  285.02	-2086.89	  182.75
     93.2185	  262.00	  270.78	-2087.64	  182.75
     93.2519	  246.00	  261.36	-2094.23	  182.75
     93.2853	  251.00	  255.86	-2083.73	  182.76
     93.3187	  283.00	  252.80	-2048.67	  182.76
     93.3522	  239.00	  251.04	-2090.91	  182.76
     93.3856	  230.00	  249.92	-2098.79	  182.76
     93.4190	  238.00	  249.13	-2089.99	  182.76
     93.4524	  249.00	  248.53	-2078.40	  182.77
     93.4858	  263.00	  248.07	-2063.94	  182.77
     93.5193	  242.00	  247.71	-2084.57	  182.77
     93.5527	  249.00	  247.41	-2077.28	  182.77
     93.5861	  232.00	  247.18	-2094.05	  182.77
     93.6195	  262.00	  246.99	-2063.86	  182.77
     93.6530	  252.00	  246.84	-2073.70	  182.78
     93.6864	  243.00	  246.72	-2082.58	  182.78
     93.7198	  234.00	  246.62	-2091.49	  182.78
     93.7532	  245.00	  246.55	-2080.41	  182.78
     93.7867	  222.00	  246.49	-2103.36	  182.78
     93.8201	  258.00	  246.45	-2067.32	  182.79
     93.8535	  244.00	  246.43	-2081.30	  182.79
     93.8869	  244.00	  246.32	-2081.19	  182.79
     93.9203	  239.00	  246.33	-2086.19	  182.79
     93.9538	  227.00	  246.34	-2098.21	  182.79
     93.9872	  247.00	  246.37	-2078.24	  182.80
     94.0206	  245.00	  246.41	-2080.28	  182.80
     94.0540	  260.00	  246.47	-2065.33	  182.80
     94.0874	  205.00	  246.53	-2120.40	  182.80
     94.1209	  245.00	  246.68	-2080.55	  182.80
     94.1543	  285.00	  246.77	-2040.64	  182.81
     94.1877	  244.00	  246.83	-2081.69	  182.81
     94.2211	  255.00	  246.95	-2070.81	  182.81
     94.2546	  255.00	  247.08	-2070.95	  182.81
     94.2880	  269.00	  247.23	-2057.10	  182.81
     94.3214	  240.00	  247.40	-2086.27	  182.82
     94.3548	  246.00	  247.60	-2080.46	  182.82
     94.3883	  244.00	  247.81	-2082.68	  182.82
     94.4217	  245.00	  248.09	-2081.96	  182.82
     94.4551	  232.00	  248.36	-2095.23	  182.82
     94.4885	  233.00	  248.67	-2094.54	  182.83
     94.5219	  250.00	  249.02	-2077.89	  182.83
     94.5554	  256.00	  249.41	-2072.28	  182.83
     94.5888	  238.00	  249.86	-2090.73	  182.83
     94.6222	  256.00	  250.37	-2073.24	  182.83
     94.6556	  262.00	  250.96	-2067.83	  182.84
     94.6891	  239.00	  251.65	-2091.51	  182.84
     94.7225	  252.00	  252.44	-2079.31	  182.84
     94.7559	  261.00	  253.37	-2071.24	  182.84
     94.7893	  256.00	  254.47	-2077.34	  182.84
     94.8227	  249.00	  255.79	-2085.66	  182.85
     94.8562	  287.00	  257.38	-2049.25	  182.85
     94.8896	  282.00	  259.33	-2056.20	  182.85
     94.9230	  269.00	  261.75	-2071.61	  182.85
     94.9564	  275.00	  264.80	-2068.67	  182.86
     94.9899	  256.00	  268.76	-2091.63	  182.86
     95.0233	  276.00	  274.12	-2076.99	  182.86
     95.0567	  279.00	  281.97	-2081.84	  182.86
     95.0901	  296.00	  294.81	-2077.68	  182.86
     95.1236	  311.00	  317.76	-2085.63	  182.87
     95.1570	  334.00	  359.39	-2104.26	  182.87
     95.1904	  428.00	  429.81	-2080.67	  182.87
     95.2238	  478.00	  534.19	-2135.06	  182.87
     95.2572	  642.00	  661.79	-2098.65	  182.88
     95.2907	  767.00	  769.84	-2081.71	  182.88
     95.3241	  768.00	  788.56	-2099.43	  182.88
     95.3575	  646.00	  704.27	-2137.14	  182.88
     95.3909	  567.00	  582.88	-2094.75	  182.88
     95.4244	  447.00	  480.41	-2112.27	  182.89
     95.4578	  412.00	  418.87	-2085.74	  182.89
     95.4912	  381.00	  401.32	-2099.18	  182.89
     95.5246	  431.00	  421.80	-2069.67	  182.89
     95.5580	  444.00	  468.32	-2103.19	  182.90
     95.5915	  513.00	  518.45	-2084.32	  182.90
     95.6249	  495.00	  535.60	-2119.47	  182.90
     95.6583	  504.00	  499.49	-2074.36	  182.90
     95.6917	  427.00	  435.24	-2087.10	  182.91
     95.7252	  370.00	  373.72	-2082.59	  182.91
     95.7586	  317.00	  327.90	-2089.77	  182.91
     95.7920	  303.00	  298.65	-2074.51	  182.91
     95.8254	  302.00	  281.72	-2058.59	  182.92
     95.8588	  247.00	  272.16	-2104.03	  182.92
     95.8923	  282.00	  266.43	-2063.30	  182.92
     95.9257	  237.00	  262.62	-2104.49	  182.92
     95.9591	  289.00	  259.83	-2049.70	  182.93
     95.9925	  263.00	  257.68	-2073.55	  182.93
     96.0260	  251.00	  255.97	-2083.84	  182.93
     96.0594	  242.00	  254.58	-2091.45	  182.93
     96.0928	  252.00	  253.43	-2080.30	  182.94
     96.1262	  256.00	  252.47	-2075.34	  182.94
     96.1597	  256.00	  251.67	-2074.53	  182.94
     96.1931	  222.00	  250.98	-2107.84	  182.94
     96.2265	  227.00	  250.39	-2102.25	  182.95
     96.2599	  243.00	  249.87	-2085.74	  182.95
     96.2933	  235.00	  249.43	-2093.30	  182.95
     96.3268	  234.00	  249.04	-2093.91	  182.95
     96.3602	  211.00	  248.70	-2116.56	  182.96
     96.3936	  206.00	  248.39	-2121.26	  182.96
     96.4270	  236.00	  248.12	-2090.99	  182.96
     96.4604	  276.00	  247.89	-2050.75	  182.96
     96.4939	  236.00	  247.67	-2090.54	  182.97
     96.5273	  265.00	  247.48	-2061.35	  182.97
     96.5607	  224.00	  247.31	-2102.18	  182.97
     96.5941	  250.00	  247.15	-2076.02	  182.97
     96.6276	  250.00	  247.02	-2075.88	  182.98
     96.6610	  217.00	  246.89	-2108.76	  182.98
     96.6944	  223.00	  246.78	-2102.65	  182.98
     96.7278	  231.00	  246.68	-2094.55	  182.99
     96.7613	  234.00	  246.59	-2091.46	  182.99
     96.7947	  260.00	  246.51	-2065.38	  182.99
     96.8281	  265.00	  246.44	-2060.31	  182.99
     96.8615	  245.00	  246.37	-2080.24	  183.00
     96.8949	  236.00	  246.32	-2089.19	  183.00
     96.9284	  259.00	  246.27	-2066.14	  183.00
     96.9618	  238.00	  246.23	-2087.09	  183.00
     96.9952	  248.00	  246.19	-2077.06	  183.01
     97.0286	  238.00	  246.16	-2087.03	  183.01
     97.0621	  263.00	  246.14	-2062.00	  183.01
     97.0955	  236.00	  246.12	-2088.99	  183.02
     97.1289	  255.00	  246.11	-2069.97	  183.02
     97.1623	  218.00	  246.07	-2106.93	  183.02
     97.1957	  253.00	  246.06	-2071.93	  183.02
     97.2292	  243.00	  246.07	-2081.94	  183.03
     97.2626	  235.00	  246.08	-2089.95	  183.03
     97.2960	  235.00	  246.09	-2089.96	  183.03
     97.3294	  249.00	  246.12	-2075.98	  183.04
     97.3629	  269.00	  246.14	-2056.01	  183.04
     97.3963	  233.00	  246.18	-2092.05	  183.04
     97.4297	  238.00	  246.22	-2087.09	  183.04
     97.4631	  255.00	  246.25	-2070.12	  183.05
     97.4966	  226.00	  246.31	-2099.18	  183.05
     97.5300	  267.00	  246.38	-2058.24	  183.05
     97.5634	  269.00	  246.45	-2056.32	  183.06
     97.5968	  233.00	  246.54	-2092.40	  183.06
     97.6302	  264.00	  246.63	-2061.50	  183.06
     97.6637	  249.00	  246.74	-2076.61	  183.06
     97.6971	  269.00	  246.87	-2056.74	  183.07
     97.7305	  231.00	  247.01	-2094.88	  183.07
     97.7639	  247.00	  247.17	-2079.04	  183.07
     97.7974	  252.00	  247.35	-2074.22	  183.08
     97.8308	  260.00	  247.56	-2066.42	  183.08
     97.8642	  260.00	  247.79	-2066.66	  183.08
     97.8976	  267.00	  248.06	-2059.92	  183.09
     97.9310	  260.00	  248.36	-2067.23	  183.09
     97.9645	  253.00	  248.72	-2074.58	  183.09
     97.9979	  251.00	  249.13	-2076.99	  183.10
     98.0313	  259.00	  249.60	-2069.47	  183.10
     98.0647	  240.00	  250.16	-2089.03	  183.10
     98.0982	  257.00	  250.83	-2072.70	  183.10
     98.1316	  253.00	  251.62	-2077.49	  183.11
     98.1650	  252.00	  252.58	-2079.45	  183.11
     98.1984	  244.00	  253.75	-2088.62	  183.11
     98.2318	  274.00	  255.21	-2060.07	  183.12
     98.2653	  270.00	  257.09	-2065.95	  183.12
     98.2987	  262.00	  259.46	-2076.33	  183.12
     98.3321	  282.00	  262.68	-2059.55	  183.13
     98.3655	  284.00	  267.40	-2062.27	  183.13
     98.3990	  284.00	  275.06	-2069.92	  183.13
     98.4324	  272.00	  288.56	-2095.43	  183.14
     98.4658	  316.00	  312.62	-2075.49	  183.14
     98.4992	  320.00	  352.74	-2111.60	  183.14
     98.5326	  349.00	  411.84	-2141.71	  183.15
     98.5661	  419.00	  484.66	-2144.53	  183.15
     98.5995	  477.00	  549.35	-2151.22	  183.15
     98.6329	  487.00	  567.52	-2159.39	  183.16
     98.6663	  492.00	  525.38	-2112.24	  183.16
     98.6998	  409.00	  455.98	-2125.85	  183.16
     98.7332	  357.00	  392.87	-2114.74	  183.17
     98.7666	  297.00	  350.60	-2132.46	  183.17
     98.8000	  279.00	  332.19	-2132.06	  183.17
     98.8335	  298.00	  335.59	-2116.46	  183.17
     98.8669	  336.00	  356.35	-2099.22	  183.18
     98.9003	  357.00	  386.80	-2108.67	  183.18
     98.9337	  394.00	  412.09	-2096.95	  183.18
     98.9671	  396.00	  412.26	-2095.13	  183.19
     99.0006	  364.00	  384.58	-2099.45	  183.19
     99.0340	  360.00	  346.87	-2065.74	  183.19
     99.0674	  312.00	  313.52	-2080.38	  183.20
     99.1008	  280.00	  289.47	-2088.34	  183.20
     99.1343	  267.00	  274.31	-2086.18	  183.21
     99.1677	  255.00	  265.49	-2089.36	  183.21
     99.2011	  244.00	  260.41	-2095.28	  183.21
     99.2345	  271.00	  257.29	-2065.15	  183.22
     99.2679	  246.00	  255.16	-2088.03	  183.22
     99.3014	  261.00	  253.58	-2071.45	  183.22
     99.3348	  262.00	  252.36	-2069.22	  183.23
     99.3682	  271.00	  251.37	-2059.24	  183.23
     99.4016	  248.00	  250.64	-2081.51	  183.23
     99.4351	  249.00	  249.98	-2079.85	  183.24
     99.4685	  265.00	  249.42	-2063.29	  183.24
     99.5019	  238.00	  248.95	-2089.81	  183.24
     99.5353	  246.00	  248.54	-2081.41	  183.25
     99.5687	  253.00	  248.19	-2074.06	  183.25
     99.6022	  263.00	  247.89	-2063.76	  183.25
     99.6356	  240.00	  247.63	-2086.49	  183.26
     99.6690	  269.00	  247.39	-2057.26	  183.26
     99.7024	  233.00	  247.19	-2093.05	  183.26
     99.7359	  261.00	  246.88	-2064.75	  183.27
     99.7693	  212.00	  246.76	-2113.63	  183.27
     99.8027	  265.00	  246.61	-2060.48	  183.28
     99.8361	  244.00	  246.49	-2081.35	  183.28
     99.8696	  235.00	  246.37	-2090.24	  183.28
     99.9030	  240.00	  246.27	-2085.13	  183.29
     99.9364	  236.00	  246.17	-2089.04	  183.29
     99.9698	  276.00	  246.09	-2048.95	  183.29
    100.0032	  230.00	  246.01	-2094.88	  183.30
    100.0367	  242.00	  245.94	-2082.81	  183.30
    100.0701	  220.00	  245.81	-2104.68	  183.30
    100.1035	  233.00	  245.76	-2091.62	  183.31
    100.1369	  246.00	  245.71	-2078.57	  183.31
    100.1704	  249.00	  245.66	-2075.53	  183.32
    100.2038	  247.00	  245.62	-2077.48	  183.32
    100.2372	  244.00	  245.58	-2080.44	  183.32
    100.2706	  233.00	  245.54	-2091.41	  183.33
    100.3040	  249.00	  245.51	-2075.38	  183.33
    100.3375	  239.00	  245.48	-2085.35	  183.33
    100.3709	  275.00	  245.45	-2049.32	  183.34
    100.4043	  238.00	  245.43	-2086.30	  183.34
    100.4377	  263.00	  245.41	-2061.28	  183.35
    100.4712	  251.00	  245.39	-2073.26	  183.35
    100.5046	  232.00	  245.37	-2092.24	  183.35
    100.5380	  255.00	  245.36	-2069.23	  183.36
    100.5714	  222.00	  245.35	-2102.21	  183.36
    100.6048	  240.00	  245.34	-2084.20	  183.36
    100.6383	  270.00	  245.33	-2054.19	  183.37
    100.6717	  225.00	  245.32	-2099.19	  183.37
    100.7051	  264.00	  245.31	-2060.18	  183.38
    100.7385	  237.00	  245.31	-2087.18	  183.38
    100.7720	  243.00	  245.31	-2081.17	  183.38
    100.8054	  256.00	  245.30	-2068.17	  183.39
    100.8388	  226.00	  245.30	-2098.17	  183.39
    100.8722	  253.00	  245.31	-2071.17	  183.40
    100.9056	  242.00	  245.31	-2082.18	  183.40
    100.9391	  229.00	  245.31	-2095.18	  183.40
    100.9725	  256.00	  245.32	-2068.19	  183.41
    101.0059	  273.00	  245.33	-2051.19	  183.41
    101.0393	  219.00	  245.33	-2105.20	  183.42
    101.0728	  277.00	  245.34	-2047.21	  183.42
    101.1062	  246.00	  245.35	-2078.22	  183.42
    101.1396	  249.00	  245.37	-2075.23	  183.43
    101.1730	  233.00	  245.38	-2091.25	  183.43
    101.2065	  265.00	  245.40	-2059.26	  183.44
    101.2399	  263.00	  245.41	-2061.28	  183.44
    101.2733	  236.00	  245.43	-2088.30	  183.44
    101.3067	  253.00	  245.45	-2071.32	  183.45
    101.3401	  278.00	  245.47	-2046.34	  183.45
    101.3736	  236.00	  245.50	-2088.36	  183.46
    101.4070	  256.00	  245.52	-2068.39	  183.46
    101.4404	  248.00	  245.55	-2076.42	  183.46
    101.4738	  266.00	  245.58	-2058.45	  183.47
    101.5073	  234.00	  245.61	-2090.48	  183.47
    101.5407	  246.00	  245.65	-2078.52	  183.48
    101.5741	  253.00	  245.69	-2071.55	  183.48
    101.6075	  232.00	  245.73	-2092.59	  183.48
    101.6409	  247.00	  245.77	-2077.64	  183.49
    101.6744	  242.00	  245.82	-2082.68	  183.49
    101.7078	  261.00	  245.87	-2063.73	  183.50
    101.7412	  251.00	  245.92	-2073.79	  183.50
    101.7746	  255.00	  245.98	-2069.85	  183.51
    101.8081	  264.00	  246.04	-2060.91	  183.51
    101.8415	  256.00	  246.11	-2068.98	  183.51
    101.8749	  253.00	  246.19	-2072.06	  183.52
    101.9083	  216.00	  246.27	-2109.14	  183.52
    101.9417	  257.00	  246.36	-2068.23	  183.53
    101.9752	  251.00	  246.46	-2074.32	  183.53
    102.0086	  209.00	  246.56	-2116.43	  183.53
    102.0420	  265.00	  246.68	-2060.55	  183.54
    102.0754	  250.00	  246.81	-2075.68	  183.54
    102.1089	  224.00	  246.96	-2101.82	  183.55
    102.1423	  238.00	  247.12	-2087.98	  183.55
    102.1757	  248.00	  247.30	-2078.16	  183.56
    102.2091	  285.00	  247.50	-2041.36	  183.56
    102.2426	  239.00	  247.72	-2087.59	  183.56
    102.2760	  250.00	  247.98	-2076.85	  183.57
    102.3094	  269.00	  248.28	-2058.14	  183.57
    102.3428	  212.00	  248.62	-2115.48	  183.58
    102.3762	  239.00	  249.01	-2088.88	  183.58
    102.4097	  248.00	  249.47	-2080.34	  183.59
    102.4431	  245.00	  250.02	-2083.89	  183.59
    102.4765	  262.00	  250.68	-2067.54	  183.60
    102.5099	  257.00	  251.47	-2073.34	  183.60
    102.5434	  233.00	  252.44	-2098.31	  183.60
    102.5768	  249.00	  253.69	-2083.55	  183.61
    102.6102	  277.00	  255.27	-2057.14	  183.61
    102.6436	  256.00	  257.43	-2080.29	  183.62
    102.6770	  283.00	  260.62	-2056.49	  183.62
    102.7105	  282.00	  265.83	-2062.70	  183.63
    102.7439	  284.00	  274.86	-2069.72	  183.63
    102.7773	  285.00	  290.40	-2084.27	  183.64
    102.8107	  345.00	  315.29	-2049.16	  183.64
    102.8442	  378.00	  350.60	-2051.47	  183.64
    102.8776	  369.00	  392.67	-2102.53	  183.65
    102.9110	  417.00	  428.71	-2090.57	  183.65
    102.9444	  418.00	  437.94	-2098.81	  183.66
    102.9778	  428.00	  413.75	-2064.62	  183.66
    103.0113	  352.00	  374.03	-2100.89	  183.67
    103.0447	  326.00	  336.93	-2089.80	  183.67
    103.0781	  325.00	  310.59	-2064.46	  183.68
    103.1115	  287.00	  296.82	-2088.69	  183.68
    103.1450	  299.00	  294.78	-2074.65	  183.69
    103.1784	  249.00	  302.67	-2132.53	  183.69
    103.2118	  332.00	  318.16	-2065.03	  183.70
    103.2452	  333.00	  336.49	-2082.36	  183.70
    103.2786	  334.00	  348.56	-2093.42	  183.70
    103.3121	  312.00	  344.77	-2111.63	  183.71
    103.3455	  316.00	  327.14	-2090.01	  183.71
    103.3789	  291.00	  305.89	-2093.76	  183.72
    103.4123	  285.00	  287.76	-2081.63	  183.72
    103.4458	  287.00	  274.89	-2066.76	  183.73
    103.4792	  235.00	  266.87	-2110.74	  183.73
    103.5126	  278.00	  262.31	-2063.18	  183.74
    103.5460	  270.00	  259.92	-2068.78	  183.74
    103.5795	  256.00	  258.71	-2081.58	  183.75
    103.6129	  248.00	  258.21	-2089.07	  183.75
    103.6463	  244.00	  258.16	-2093.03	  183.76
    103.6797	  250.00	  258.50	-2087.37	  183.76
    103.7131	  217.00	  259.22	-2121.09	  183.77
    103.7466	  247.00	  260.36	-2092.22	  183.77
    103.7800	  280.00	  261.99	-2060.86	  183.78
    103.8134	  290.00	  264.30	-2053.17	  183.78
    103.8468	  272.00	  267.65	-2074.52	  183.79
    103.8803	  282.00	  272.81	-2069.68	  183.79
    103.9137	  302.00	  281.43	-2058.30	  183.80
    103.9471	  309.00	  296.53	-2066.39	  183.80
    103.9805	  290.00	  322.53	-2111.40	  183.80
    104.0139	  380.00	  364.07	-2062.94	  183.81
    104.0474	  403.00	  422.90	-2098.77	  183.81
    104.0808	  449.00	  493.06	-2122.93	  183.82
    104.1142	  572.00	  553.97	-2060.84	  183.82
    104.1476	  555.00	  571.43	-2095.29	  183.83
    104.1811	  561.00	  532.82	-2050.68	  183.83
    104.2145	  471.00	  466.46	-2074.32	  183.84
    104.2479	  386.00	  403.00	-2095.87	  183.84
    104.2813	  346.00	  356.66	-2089.52	  183.85
    104.3148	  292.00	  330.88	-2117.75	  183.85
    104.3482	  326.00	  324.45	-2077.32	  183.86
    104.3816	  310.00	  334.74	-2103.60	  183.86
    104.4150	  356.00	  358.27	-2081.14	  183.87
    104.4484	  372.00	  388.79	-2095.65	  183.87
    104.4819	  381.00	  413.38	-2111.25	  183.88
    104.5153	  451.00	  414.69	-2042.55	  183.88
    104.5487	  364.00	  389.69	-2104.56	  183.89
    104.5821	  359.00	  353.80	-2073.67	  183.89
    104.6155	  310.00	  320.67	-2089.54	  183.90
    104.6490	  330.00	  295.67	-2044.54	  183.90
    104.6824	  298.00	  279.13	-2060.00	  183.91
    104.7158	  288.00	  269.08	-2059.95	  183.91
    104.7492	  277.00	  263.16	-2065.02	  183.92
    104.7827	  251.00	  259.53	-2087.40	  183.93
    104.8161	  243.00	  257.11	-2092.98	  183.93
    104.8495	  266.00	  255.35	-2068.22	  183.94
    104.8829	  256.00	  254.00	-2076.86	  183.94
    104.9164	  266.00	  252.91	-2065.78	  183.95
    104.9498	  238.00	  252.02	-2092.89	  183.95
    104.9832	  250.00	  251.29	-2080.15	  183.96
    105.0166	  242.00	  250.67	-2087.54	  183.96
    105.0500	  248.00	  250.14	-2081.01	  183.97
    105.0835	  250.00	  249.69	-2078.56	  183.97
    105.1169	  242.00	  249.31	-2086.17	  183.98
    105.1503	  240.00	  248.97	-2087.84	  183.98
    105.1837	  275.00	  248.67	-2052.54	  183.99
    105.2172	  229.00	  248.41	-2098.28	  183.99
    105.2506	  237.00	  248.18	-2090.05	  184.00
    105.2840	  232.00	  247.98	-2094.84	  184.00
    105.3174	  259.00	  247.79	-2067.66	  184.01
    105.3508	  229.00	  247.63	-2097.50	  184.01
    105.3843	  269.00	  247.53	-2057.39	  184.02
    105.4177	  223.00	  247.39	-2103.26	  184.02
    105.4511	  273.00	  247.28	-2053.14	  184.03
    105.4845	  258.00	  247.17	-2068.03	  184.04
    105.5180	  239.00	  247.07	-2086.93	  184.04
    105.5514	  263.00	  246.98	-2062.85	  184.05
    105.5848	  257.00	  246.90	-2068.76	  184.05
    105.6182	  232.00	  246.82	-2093.69	  184.06
    105.6516	  222.00	  246.76	-2103.62	  184.06
    105.6851	  244.00	  246.69	-2081.56	  184.07
    105.7185	  266.00	  246.64	-2059.50	  184.07
    105.7519	  231.00	  246.61	-2094.48	  184.08
    105.7853	  277.00	  246.56	-2048.43	  184.08
    105.8188	  232.00	  246.52	-2093.39	  184.09
    105.8522	  233.00	  246.48	-2092.35	  184.10
    105.8856	  283.00	  246.45	-2042.32	  184.10
    105.9190	  248.00	  246.42	-2077.29	  184.11
    105.9525	  233.00	  246.39	-2092.26	  184.11
    105.9859	  264.00	  246.37	-2061.23	  184.12
    106.0193	  256.00	  246.35	-2069.21	  184.12
    106.0527	  259.00	  246.33	-2066.19	  184.13
    106.0861	  218.00	  246.31	-2107.18	  184.13
    106.1196	  218.00	  246.30	-2107.17	  184.14
    106.1530	  250.00	  246.29	-2075.16	  184.15
    106.1864	  265.00	  246.28	-2060.15	  184.15
    106.2198	  239.00	  246.28	-2086.14	  184.16
    106.2533	  257.00	  246.27	-2068.14	  184.16
    106.2867	  266.00	  246.28	-2059.14	  184.17
    106.3201	  262.00	  246.28	-2063.15	  184.17
    106.3535	  256.00	  246.29	-2069.15	  184.18
    106.3869	  235.00	  246.30	-2090.16	  184.18
    106.4204	  232.00	  246.31	-2093.18	  184.19
    106.4538	  267.00	  246.33	-2058.19	  184.20
    106.4872	  253.00	  246.35	-2072.21	  184.20
    106.5206	  252.00	  246.37	-2073.24	  184.21
    106.5541	  244.00	  246.40	-2081.27	  184.21
    106.5875	  251.00	  246.44	-2074.30	  184.22
    106.6209	  266.00	  246.48	-2059.34	  184.22
    106.6543	  252.00	  246.52	-2073.39	  184.23
    106.6878	  255.00	  246.58	-2070.44	  184.24
    106.7212	  259.00	  246.64	-2066.51	  184.24
    106.7546	  257.00	  246.72	-2068.58	  184.25
    106.7880	  264.00	  246.80	-2061.67	  184.25
    106.8214	  251.00	  246.90	-2074.77	  184.26
    106.8549	  280.00	  247.02	-2045.89	  184.27
    106.8883	  237.00	  247.16	-2089.03	  184.27
    106.9217	  255.00	  247.33	-2071.20	  184.28
    106.9551	  260.00	  247.53	-2066.40	  184.28
    106.9885	  231.00	  247.77	-2095.64	  184.29
    107.0220	  259.00	  248.07	-2067.94	  184.29
    107.0554	  251.00	  248.44	-2076.31	  184.30
    107.0888	  232.00	  248.91	-2095.78	  184.31
    107.1222	  258.00	  249.54	-2070.41	  184.31
    107.1557	  218.00	  250.43	-2111.30	  184.32
    107.1891	  242.00	  251.80	-2088.67	  184.32
    107.2225	  274.00	  254.08	-2058.94	  184.33
    107.2559	  280.00	  257.96	-2056.82	  184.34
    107.2894	  250.00	  264.33	-2093.19	  184.34
    107.3228	  288.00	  273.92	-2064.79	  184.35
    107.3562	  280.00	  286.65	-2085.52	  184.35
    107.3896	  305.00	  300.62	-2074.49	  184.36
    107.4230	  302.00	  310.90	-2087.77	  184.37
    107.4565	  294.00	  311.30	-2096.16	  184.37
    107.4899	  255.00	  301.67	-2125.54	  184.38
    107.5233	  261.00	  288.21	-2106.08	  184.38
    107.5567	  299.00	  276.03	-2055.90	  184.39
    107.5902	  259.00	  267.28	-2087.15	  184.40
    107.6236	  267.00	  262.35	-2074.22	  184.40
    107.6570	  249.00	  260.90	-2090.76	  184.41
    107.6904	  267.00	  262.55	-2074.42	  184.41
    107.7238	  250.00	  266.76	-2095.63	  184.42
    107.7573	  277.00	  272.69	-2074.56	  184.43
    107.7907	  272.00	  278.48	-2085.35	  184.43
    107.8241	  262.00	  280.94	-2097.81	  184.44
    107.8575	  265.00	  277.98	-2091.85	  184.45
    107.8910	  284.00	  271.44	-2066.30	  184.45
    107.9244	  277.00	  264.40	-2066.27	  184.46
    107.9578	  250.00	  258.58	-2087.45	  184.46
    107.9912	  256.00	  254.44	-2077.30	  184.47
    108.0247	  264.00	  251.75	-2066.62	  184.48
    108.0581	  253.00	  250.15	-2076.01	  184.48
    108.0915	  227.00	  249.18	-2101.05	  184.49
    108.1249	  247.00	  248.57	-2080.44	  184.49
    108.1583	  231.00	  248.15	-2096.02	  184.50
    108.1918	  227.00	  247.84	-2099.71	  184.51
    108.2252	  258.00	  247.60	-2068.47	  184.51
    108.2586	  263.00	  247.41	-2063.28	  184.52
    108.2920	  239.00	  247.26	-2087.12	  184.53
    108.3255	  276.00	  247.13	-2050.00	  184.53
    108.3589	  263.00	  247.03	-2062.89	  184.54
    108.3923	  248.00	  246.94	-2077.81	  184.55
    108.4257	  272.00	  246.87	-2053.74	  184.55
    108.4591	  261.00	  246.81	-2064.68	  184.56
    108.4926	  257.00	  246.76	-2068.63	  184.56
    108.5260	  260.00	  246.73	-2065.59	  184.57
    108.5594	  263.00	  246.69	-2062.56	  184.58
    108.5928	  256.00	  246.67	-2069.54	  184.58
    108.6263	  231.00	  246.65	-2094.52	  184.59
    108.6597	  240.00	  246.64	-2085.50	  184.60
    108.6931	  259.00	  246.63	-2066.49	  184.60
    108.7265	  238.00	  246.62	-2087.49	  184.61
    108.7599	  245.00	  246.62	-2080.49	  184.62
    108.7934	  233.00	  246.62	-2092.49	  184.62
    108.8268	  284.00	  246.63	-2041.50	  184.63
    108.8602	  243.00	  246.64	-2082.51	  184.64
    108.8936	  260.00	  246.58	-2065.45	  184.64
    108.9271	  265.00	  246.60	-2060.46	  184.65
    108.9605	  236.00	  246.62	-2089.49	  184.65
    108.9939	  252.00	  246.64	-2073.51	  184.66
    109.0273	  242.00	  246.67	-2083.54	  184.67
    109.0607	  263.00	  246.71	-2062.57	  184.67
    109.0942	  232.00	  246.74	-2093.61	  184.68
    109.1276	  243.00	  246.78	-2082.65	  184.69
    109.1610	  247.00	  246.83	-2078.69	  184.69
    109.1944	  244.00	  246.88	-2081.74	  184.70
    109.2279	  236.00	  246.93	-2089.80	  184.71
    109.2613	  266.00	  246.95	-2059.82	  184.71
    109.2947	  252.00	  247.02	-2073.89	  184.72
    109.3281	  234.00	  247.09	-2091.96	  184.73
    109.3615	  232.00	  247.17	-2094.04	  184.73
    109.3950	  219.00	  247.26	-2107.13	  184.74
    109.4284	  229.00	  247.36	-2097.23	  184.75
    109.4618	  261.00	  247.47	-2065.34	  184.75
    109.4952	  239.00	  247.59	-2087.46	  184.76
    109.5287	  262.00	  247.73	-2064.59	  184.77
    109.5621	  245.00	  247.88	-2081.74	  184.77
    109.5955	  257.00	  248.05	-2069.91	  184.78
    109.6289	  276.00	  248.24	-2051.10	  184.79
    109.6624	  247.00	  248.45	-2080.32	  184.79
    109.6958	  258.00	  248.70	-2069.56	  184.80
    109.7292	  253.00	  248.98	-2074.85	  184.81
    109.7626	  261.00	  249.30	-2067.17	  184.82
    109.7960	  245.00	  249.68	-2083.54	  184.82
    109.8295	  253.00	  250.11	-2075.98	  184.83
    109.8629	  263.00	  250.63	-2066.50	  184.84
    109.8963	  260.00	  251.25	-2070.11	  184.84
    109.9297	  247.00	  251.99	-2083.86	  184.85
    109.9632	  237.00	  252.90	-2094.76	  184.86
    109.9966	  305.00	  254.02	-2027.89	  184.86
    110.0300	  264.00	  255.45	-2070.32	  184.87
    110.0634	  273.00	  257.36	-2063.22	  184.88
    110.0968	  284.00	  260.06	-2054.92	  184.88
    110.1303	  293.00	  264.22	-2050.09	  184.89
    110.1637	  278.00	  271.07	-2071.93	  184.90
    110.1971	  264.00	  282.52	-2097.39	  184.90
    110.2305	  325.00	  300.94	-2054.81	  184.91
    110.2640	  337.00	  328.17	-2070.04	  184.92
    110.2974	  358.00	  363.89	-2084.76	  184.93
    110.3308	  403.00	  403.09	-2078.96	  184.93
    110.3642	  474.00	  432.92	-2037.79	  184.94
    110.3977	  438.00	  436.53	-2077.40	  184.95
    110.4311	  430.00	  411.76	-2060.63	  184.95
    110.4645	  407.00	  374.34	-2046.21	  184.96
    110.4979	  338.00	  338.86	-2079.72	  184.97
    110.5313	  339.00	  311.97	-2051.84	  184.98
    110.5648	  274.00	  295.26	-2100.13	  184.98
    110.5982	  284.00	  288.06	-2082.92	  184.99
    110.6316	  276.00	  289.16	-2092.03	  185.00
    110.6650	  344.00	  297.53	-2032.39	  185.00
    110.6985	  312.00	  311.83	-2078.70	  185.01
    110.7319	  312.00	  329.29	-2096.16	  185.02
    110.7653	  336.00	  343.80	-2086.67	  185.02
    110.7987	  368.00	  346.66	-2057.53	  185.03
    110.8321	  344.00	  335.02	-2069.88	  185.04
    110.8656	  326.00	  315.71	-2068.58	  185.05
    110.8990	  315.00	  296.41	-2060.28	  185.05
    110.9324	  315.00	  280.96	-2044.83	  185.06
    110.9658	  256.00	  269.93	-2092.80	  185.07
    110.9993	  248.00	  262.82	-2093.68	  185.08
    111.0327	  260.00	  258.45	-2077.32	  185.08
    111.0661	  267.00	  255.77	-2067.64	  185.09
    111.0995	  250.00	  254.04	-2082.91	  185.10
    111.1329	  283.00	  252.83	-2048.70	  185.10
    111.1664	  259.00	  251.92	-2071.79	  185.11
    111.1998	  256.00	  251.20	-2074.07	  185.12
    111.2332	  264.00	  250.62	-2065.49	  185.13
    111.2666	  282.00	  250.14	-2047.01	  185.13
    111.3001	  264.00	  249.74	-2064.61	  185.14
    111.3335	  249.00	  249.47	-2079.33	  185.15
    111.3669	  284.00	  249.18	-2044.05	  185.16
    111.4003	  283.00	  248.93	-2044.80	  185.16
    111.4337	  240.00	  248.72	-2087.59	  185.17
    111.4672	  250.00	  248.54	-2077.40	  185.18
    111.5006	  266.00	  248.37	-2061.24	  185.19
    111.5340	  245.00	  248.23	-2082.10	  185.19
    111.5674	  252.00	  248.11	-2074.97	  185.20
    111.6009	  248.00	  247.99	-2078.86	  185.21
    111.6343	  251.00	  247.90	-2075.76	  185.22
    111.6677	  257.00	  247.81	-2069.67	  185.22
    111.7011	  240.00	  247.73	-2086.59	  185.23
    111.7346	  253.00	  247.66	-2073.52	  185.24
    111.7680	  266.00	  247.59	-2060.46	  185.25
    111.8014	  244.00	  247.54	-2082.40	  185.25
    111.8348	  266.00	  247.48	-2060.35	  185.26
    111.8682	  282.00	  247.44	-2044.30	  185.27
    111.9017	  259.00	  247.40	-2067.26	  185.28
    111.9351	  257.00	  247.36	-2069.23	  185.28
    111.9685	  244.00	  247.32	-2082.19	  185.29
    112.0019	  235.00	  247.29	-2091.16	  185.30
    112.0354	  232.00	  247.27	-2094.13	  185.31
    112.0688	  257.00	  247.24	-2069.11	  185.31
    112.1022	  256.00	  247.22	-2070.09	  185.32
    112.1356	  239.00	  247.20	-2087.07	  185.33
    112.1690	  274.00	  247.18	-2052.05	  185.34
    112.2025	  238.00	  247.16	-2088.03	  185.34
    112.2359	  251.00	  247.15	-2075.02	  185.35
    112.2693	  224.00	  247.14	-2102.00	  185.36
    112.3027	  215.00	  247.13	-2110.99	  185.37
    112.3362	  236.00	  247.10	-2089.97	  185.37
    112.3696	  260.00	  247.09	-2065.96	  185.38
    112.4030	  270.00	  247.09	-2055.95	  185.39
    112.4364	  253.00	  247.08	-2072.95	  185.40
    112.4698	  298.00	  247.08	-2027.94	  185.41
    112.5033	  264.00	  247.07	-2061.94	  185.41
    112.5367	  274.00	  247.07	-2051.94	  185.42
    112.5701	  240.00	  247.07	-2085.94	  185.43
    112.6035	  267.00	  247.07	-2058.94	  185.44
    112.6370	  245.00	  247.07	-2080.94	  185.45
    112.6704	  243.00	  247.07	-2082.94	  185.45
    112.7038	  253.00	  247.07	-2072.94	  185.46
    112.7372	  235.00	  247.07	-2090.94	  185.47
    112.7707	  251.00	  247.07	-2074.94	  185.48
    112.8041	  218.00	  247.08	-2107.95	  185.48
    112.8375	  238.00	  247.08	-2087.95	  185.49
    112.8709	  235.00	  247.09	-2090.96	  185.50
    112.9043	  236.00	  247.10	-2089.96	  185.51
    112.9378	  253.00	  247.10	-2072.97	  185.52
    112.9712	  270.00	  247.11	-2055.98	  185.52
    113.0046	  233.00	  247.12	-2092.99	  185.53
    113.0380	  226.00	  247.13	-2099.99	  185.54
    113.0714	  252.00	  247.14	-2074.00	  185.55
    113.1049	  250.00	  247.15	-2076.01	  185.56
    113.1383	  256.00	  247.16	-2070.02	  185.56
    113.1717	  275.00	  247.17	-2051.04	  185.57
    113.2051	  233.00	  247.18	-2093.05	  185.58
    113.2386	  263.00	  247.19	-2063.06	  185.59
    113.2720	  255.00	  247.21	-2071.07	  185.60
    113.3054	  252.00	  247.22	-2074.09	  185.60
    113.3388	  242.00	  247.23	-2084.10	  185.61
    113.3723	  233.00	  247.25	-2093.12	  185.62
    113.4057	  262.00	  247.26	-2064.13	  185.63
    113.4391	  262.00	  247.28	-2064.15	  185.64
    113.4725	  267.00	  247.30	-2059.16	  185.64
    113.5059	  262.00	  247.31	-2064.18	  185.65
    113.5394	  266.00	  247.33	-2060.20	  185.66
    113.5728	  250.00	  247.35	-2076.22	  185.67
    113.6062	  249.00	  247.37	-2077.24	  185.68
    113.6396	  233.00	  247.39	-2093.26	  185.69
    113.6731	  240.00	  247.41	-2086.28	  185.69
    113.7065	  256.00	  247.43	-2070.30	  185.70
    113.7399	  237.00	  247.45	-2089.32	  185.71
    113.7733	  264.00	  247.48	-2062.34	  185.72
    113.8067	  246.00	  247.50	-2080.37	  185.73
    113.8402	  232.00	  247.53	-2094.39	  185.74
    113.8736	  244.00	  247.55	-2082.42	  185.74
    113.9070	  261.00	  247.58	-2065.44	  185.75
    113.9404	  233.00	  247.61	-2093.47	  185.76
    113.9739	  275.00	  247.63	-2051.50	  185.77
    114.0073	  233.00	  247.66	-2093.53	  185.78
    114.0407	  249.00	  247.70	-2077.56	  185.78
    114.0741	  257.00	  247.73	-2069.59	  185.79
    114.1076	  245.00	  247.76	-2081.63	  185.80
    114.1410	  257.00	  247.80	-2069.66	  185.81
    114.1744	  236.00	  247.83	-2090.70	  185.82
    114.2078	  264.00	  247.87	-2062.74	  185.83
    114.2412	  248.00	  247.91	-2078.78	  185.84
    114.2747	  244.00	  247.95	-2082.82	  185.84
    114.3081	  227.00	  247.99	-2099.86	  185.85
    114.3415	  251.00	  248.04	-2075.90	  185.86
    114.3749	  248.00	  248.08	-2078.95	  185.87
    114.4084	  253.00	  248.13	-2074.00	  185.88
    114.4418	  246.00	  248.18	-2081.05	  185.89
    114.4752	  259.00	  248.24	-2068.10	  185.89
    114.5086	  239.00	  248.29	-2088.16	  185.90
    114.5420	  264.00	  248.35	-2063.22	  185.91
    114.5755	  244.00	  248.41	-2083.28	  185.92
    114.6089	  263.00	  248.48	-2064.35	  185.93
    114.6423	  284.00	  248.55	-2043.42	  185.94
    114.6757	  223.00	  248.62	-2104.49	  185.95
    114.7092	  261.00	  248.70	-2066.56	  185.95
    114.7426	  226.00	  248.78	-2101.65	  185.96
    114.7760	  249.00	  248.86	-2078.73	  185.97
    114.8094	  253.00	  248.96	-2074.82	  185.98
    114.8428	  246.00	  249.05	-2081.92	  185.99
    114.8763	  247.00	  249.16	-2081.02	  186.00
    114.9097	  267.00	  249.27	-2061.13	  186.01
    114.9431	  244.00	  249.38	-2084.25	  186.01
    114.9765	  284.00	  249.51	-2044.38	  186.02
    115.0100	  271.00	  249.64	-2057.51	  186.03
    115.0434	  279.00	  249.79	-2049.66	  186.04
    115.0768	  246.00	  249.94	-2082.81	  186.05
    115.1102	  265.00	  250.11	-2063.98	  186.06
    115.1437	  245.00	  250.29	-2084.16	  186.07
    115.1771	  262.00	  250.49	-2067.36	  186.08
    115.2105	  255.00	  250.70	-2074.57	  186.08
    115.2439	  271.00	  250.94	-2058.80	  186.09
    115.2773	  257.00	  251.19	-2073.06	  186.10
    115.3108	  245.00	  251.47	-2085.34	  186.11
    115.3442	  273.00	  251.78	-2057.65	  186.12
    115.3776	  242.00	  252.12	-2088.99	  186.13
    115.4110	  244.00	  252.49	-2087.36	  186.14
    115.4445	  213.00	  252.87	-2118.73	  186.15
    115.4779	  283.00	  253.34	-2049.20	  186.16
    115.5113	  236.00	  253.86	-2096.73	  186.16
    115.5447	  250.00	  254.46	-2083.32	  186.17
    115.5781	  225.00	  255.13	-2109.00	  186.18
    115.6116	  256.00	  255.90	-2078.77	  186.19
    115.6450	  247.00	  256.78	-2088.65	  186.20
    115.6784	  253.00	  257.81	-2083.68	  186.21
    115.7118	  256.00	  259.00	-2081.87	  186.22
    115.7453	  286.00	  260.41	-2053.27	  186.23
    115.7787	  265.00	  262.08	-2075.94	  186.24
    115.8121	  221.00	  264.08	-2121.95	  186.24
    115.8455	  273.00	  266.58	-2072.44	  186.25
    115.8789	  274.00	  269.61	-2074.48	  186.26
    115.9124	  283.00	  273.49	-2069.36	  186.27
    115.9458	  274.00	  278.70	-2083.57	  186.28
    115.9792	  278.00	  286.17	-2087.04	  186.29
    116.0126	  282.00	  297.64	-2094.51	  186.30
    116.0461	  307.00	  316.07	-2087.93	  186.31
    116.0795	  343.00	  345.65	-2081.52	  186.32
    116.1129	  399.00	  391.12	-2070.99	  186.33
    116.1463	  428.00	  455.78	-2106.64	  186.34
    116.1797	  542.00	  538.43	-2075.29	  186.34
    116.2132	  659.00	  628.67	-2048.53	  186.35
    116.2466	  730.00	  700.98	-2049.84	  186.36
    116.2800	  806.00	  720.08	-1992.94	  186.37
    116.3134	  763.00	  674.56	-1990.42	  186.38
    116.3469	  654.00	  592.02	-2016.89	  186.39
    116.3803	  502.00	  505.94	-2082.81	  186.40
    116.4137	  479.00	  434.55	-2034.42	  186.41
    116.4471	  390.00	  383.84	-2072.71	  186.42
    116.4806	  350.00	  353.60	-2082.46	  186.43
    116.5140	  327.00	  341.26	-2093.13	  186.44
    116.5474	  324.00	  344.45	-2099.32	  186.45
    116.5808	  377.00	  361.70	-2063.57	  186.46
    116.6142	  385.00	  391.57	-2085.43	  186.46
    116.6477	  455.00	  430.61	-2054.48	  186.47
    116.6811	  432.00	  470.28	-2117.15	  186.48
    116.7145	  457.00	  494.64	-2116.51	  186.49
    116.7479	  546.00	  488.32	-2021.18	  186.50
    116.7814	  528.00	  453.91	-2004.78	  186.51
    116.8148	  476.00	  408.31	-2011.18	  186.52
    116.8482	  382.00	  365.23	-2062.10	  186.53
    116.8816	  356.00	  330.74	-2053.61	  186.54
    116.9150	  324.00	  305.97	-2060.83	  186.55
    116.9485	  300.00	  289.50	-2068.37	  186.56
    116.9819	  267.00	  279.05	-2090.91	  186.57
    117.0153	  285.00	  272.42	-2066.29	  186.58
    117.0487	  271.00	  268.06	-2075.93	  186.59
    117.0822	  277.00	  264.98	-2066.85	  186.60
    117.1156	  258.00	  262.67	-2083.54	  186.61
    117.1490	  275.00	  260.85	-2064.72	  186.62
    117.1824	  265.00	  259.36	-2073.23	  186.62
    117.2159	  266.00	  258.14	-2071.00	  186.63
    117.2493	  245.00	  257.10	-2090.97	  186.64
    117.2827	  257.00	  256.22	-2078.09	  186.65
    117.3161	  264.00	  255.47	-2070.34	  186.66
    117.3495	  255.00	  254.82	-2078.69	  186.67
    117.3830	  257.00	  254.26	-2076.13	  186.68
    117.4164	  242.00	  253.76	-2090.63	  186.69
    117.4498	  230.00	  253.33	-2102.20	  186.70
    117.4832	  237.00	  252.94	-2094.81	  186.71
    117.5166	  234.00	  252.60	-2097.47	  186.72
    117.5501	  282.00	  252.30	-2049.16	  186.73
    117.5835	  275.00	  252.02	-2055.89	  186.74
    117.6169	  256.00	  251.78	-2074.64	  186.75
    117.6503	  227.00	  251.55	-2103.42	  186.76
    117.6838	  252.00	  251.35	-2078.22	  186.77
    117.7172	  219.00	  251.17	-2111.04	  186.78
    117.7506	  251.00	  251.00	-2078.87	  186.79
    117.7840	  252.00	  250.85	-2077.72	  186.80
    117.8175	  261.00	  250.71	-2068.58	  186.81
    117.8509	  276.00	  250.59	-2053.45	  186.82
    117.8843	  234.00	  250.47	-2095.34	  186.83
    117.9177	  262.00	  250.36	-2067.23	  186.84
    117.9511	  274.00	  250.27	-2055.13	  186.85
    117.9846	  238.00	  250.18	-2091.04	  186.86
    118.0180	  265.00	  250.09	-2063.96	  186.87
    118.0514	  231.00	  250.02	-2097.89	  186.88
    118.0848	  244.00	  249.95	-2084.82	  186.89
    118.1183	  263.00	  249.88	-2065.75	  186.90
    118.1517	  253.00	  249.82	-2075.69	  186.91
    118.1851	  264.00	  249.77	-2064.64	  186.92
    118.2185	  283.00	  249.72	-2045.59	  186.93
    118.2519	  278.00	  249.67	-2050.54	  186.94
    118.2854	  252.00	  249.63	-2076.50	  186.95
    118.3188	  255.00	  249.59	-2073.46	  186.96
    118.3522	  255.00	  249.55	-2073.42	  186.97
    118.3856	  233.00	  249.52	-2095.39	  186.98
    118.4191	  234.00	  249.49	-2094.36	  186.99
    118.4525	  256.00	  249.46	-2072.33	  187.00
    118.4859	  261.00	  249.44	-2067.30	  187.01
    118.5193	  263.00	  249.41	-2065.28	  187.02
    118.5527	  258.00	  249.39	-2070.26	  187.03
    118.5862	  253.00	  249.37	-2075.24	  187.04
    118.6196	  265.00	  249.36	-2063.22	  187.05
    118.6530	  276.00	  249.34	-2052.21	  187.06
    118.6864	  229.00	  249.33	-2099.20	  187.07
    118.7199	  257.00	  249.32	-2071.19	  187.08
    118.7533	  230.00	  249.31	-2098.18	  187.09
    118.7867	  263.00	  249.30	-2065.17	  187.10
    118.8201	  259.00	  249.29	-2069.16	  187.11
    118.8536	  247.00	  249.29	-2081.16	  187.12
    118.8870	  270.00	  249.29	-2058.15	  187.13
    118.9204	  275.00	  249.28	-2053.15	  187.14
    118.9538	  270.00	  249.28	-2058.15	  187.15
    118.9872	  283.00	  249.28	-2045.15	  187.16
    119.0207	  252.00	  249.29	-2076.15	  187.17
    119.0541	  248.00	  249.29	-2080.16	  187.18
    119.0875	  256.00	  249.29	-2072.16	  187.19
    119.1209	  266.00	  249.30	-2062.17	  187.20
    119.1544	  235.00	  249.31	-2093.18	  187.21
    119.1878	  258.00	  249.32	-2070.19	  187.22
    119.2212	  252.00	  249.33	-2076.20	  187.23
    119.2546	  263.00	  249.34	-2065.21	  187.24
    119.2880	  238.00	  249.36	-2090.22	  187.25
    119.3215	  246.00	  249.37	-2082.24	  187.26
    119.3549	  242.00	  249.38	-2086.25	  187.27
    119.3883	  275.00	  249.40	-2053.27	  187.28
    119.4217	  261.00	  249.42	-2067.28	  187.29
    119.4552	  246.00	  249.43	-2082.30	  187.30
    119.4886	  253.00	  249.45	-2075.32	  187.31
    119.5220	  242.00	  249.48	-2086.34	  187.32
    119.5554	  253.00	  249.50	-2075.37	  187.33
    119.5888	  246.00	  249.52	-2082.39	  187.34
    119.6223	  249.00	  249.55	-2079.42	  187.36
    119.6557	  257.00	  249.58	-2071.45	  187.37
    119.6891	  274.00	  249.61	-2054.48	  187.38
    119.7225	  259.00	  249.64	-2069.51	  187.39
    119.7560	  272.00	  249.68	-2056.54	  187.40
    119.7894	  231.00	  249.71	-2097.58	  187.41
    119.8228	  248.00	  249.75	-2080.62	  187.42
    119.8562	  259.00	  249.79	-2069.66	  187.43
    119.8896	  249.00	  249.83	-2079.70	  187.44
    119.9231	  234.00	  249.88	-2094.74	  187.45
    119.9565	  235.00	  249.92	-2093.79	  187.46
    119.9899	  276.00	  249.98	-2052.84	  187.47
    120.0233	  270.00	  250.03	-2058.90	  187.48
    120.0568	  269.00	  250.09	-2059.95	  187.49
    120.0902	  252.00	  250.15	-2077.02	  187.50
    120.1236	  247.00	  250.21	-2082.08	  187.51
    120.1570	  261.00	  250.28	-2068.15	  187.52
    120.1905	  237.00	  250.36	-2092.23	  187.54
    120.2239	  259.00	  250.44	-2070.30	  187.55
    120.2573	  263.00	  250.52	-2066.39	  187.56
    120.2907	  252.00	  250.62	-2077.48	  187.57
    120.3241	  263.00	  250.71	-2066.58	  187.58
    120.3576	  272.00	  250.82	-2057.69	  187.59
    120.3910	  253.00	  250.93	-2076.80	  187.60
    120.4244	  275.00	  251.06	-2054.93	  187.61
    120.4578	  259.00	  251.19	-2071.06	  187.62
    120.4913	  253.00	  251.34	-2077.21	  187.63
    120.5247	  262.00	  251.50	-2068.37	  187.64
    120.5581	  243.00	  251.67	-2087.54	  187.65
    120.5915	  247.00	  251.86	-2083.73	  187.66
    120.6249	  252.00	  252.08	-2078.94	  187.68
    120.6584	  260.00	  252.31	-2071.17	  187.69
    120.6918	  234.00	  252.56	-2097.43	  187.70
    120.7252	  250.00	  252.85	-2081.72	  187.71
    120.7586	  253.00	  253.17	-2079.04	  187.72
    120.7921	  264.00	  253.53	-2068.39	  187.73
    120.8255	  237.00	  253.93	-2095.80	  187.74
    120.8589	  243.00	  254.39	-2090.25	  187.75
    120.8923	  251.00	  254.91	-2082.78	  187.76
    120.9258	  246.00	  255.51	-2088.37	  187.77
    120.9592	  278.00	  256.20	-2057.07	  187.79
    120.9926	  255.00	  257.00	-2080.87	  187.80
    121.0260	  258.00	  257.95	-2078.82	  187.81
    121.0594	  272.00	  259.07	-2065.94	  187.82
    121.0929	  259.00	  260.42	-2080.29	  187.83
    121.1263	  274.00	  262.06	-2066.93	  187.84
    121.1597	  267.00	  264.11	-2075.98	  187.85
    121.1931	  263.00	  266.76	-2082.63	  187.86
    121.2266	  275.00	  270.37	-2074.24	  187.87
    121.2600	  284.00	  275.60	-2070.47	  187.88
    121.2934	  278.00	  283.59	-2084.46	  187.90
    121.3268	  303.00	  296.06	-2071.92	  187.91
    121.3602	  323.00	  315.23	-2071.09	  187.92
    121.3937	  315.00	  343.30	-2107.17	  187.93
    121.4271	  405.00	  381.55	-2055.41	  187.94
    121.4605	  433.00	  428.76	-2074.63	  187.95
    121.4939	  446.00	  479.16	-2112.03	  187.96
    121.5274	  486.00	  519.74	-2112.61	  187.97
    121.5608	  559.00	  532.91	-2052.78	  187.99
    121.5942	  535.00	  511.49	-2055.36	  188.00
    121.6276	  477.00	  467.51	-2069.38	  188.01
    121.6610	  405.00	  418.27	-2092.14	  188.02
    121.6945	  333.00	  374.84	-2120.71	  188.03
    121.7279	  359.00	  341.50	-2061.36	  188.04
    121.7613	  328.00	  318.86	-2069.73	  188.05
    121.7947	  285.00	  305.83	-2099.70	  188.06
    121.8282	  271.00	  300.94	-2108.81	  188.08
    121.8616	  331.00	  303.16	-2051.02	  188.09
    121.8950	  314.00	  312.03	-2076.89	  188.10
    121.9284	  317.00	  327.25	-2089.12	  188.11
    121.9618	  326.00	  347.85	-2100.71	  188.12
    121.9953	  353.00	  370.99	-2096.86	  188.13
    122.0287	  395.00	  390.57	-2074.44	  188.14
    122.0621	  410.00	  397.83	-2066.69	  188.16
    122.0955	  396.00	  388.03	-2070.90	  188.17
    122.1290	  388.00	  365.94	-2056.80	  188.18
    122.1624	  366.00	  340.29	-2053.16	  188.19
    122.1958	  318.00	  316.87	-2077.74	  188.20
    122.2292	  310.00	  298.12	-2066.99	  188.21
    122.2626	  309.00	  284.41	-2054.27	  188.22
    122.2961	  280.00	  275.02	-2073.89	  188.24
    122.3295	  282.00	  268.86	-2065.73	  188.25
    122.3629	  271.00	  264.85	-2072.71	  188.26
    122.3963	  294.00	  262.15	-2047.02	  188.27
    122.4298	  257.00	  260.24	-2082.11	  188.28
    122.4632	  253.00	  258.81	-2084.67	  188.29
    122.4966	  256.00	  257.68	-2080.54	  188.31
    122.5300	  242.00	  256.76	-2093.63	  188.32
    122.5635	  248.00	  256.00	-2086.86	  188.33
    122.5969	  260.00	  255.35	-2074.22	  188.34
    122.6303	  262.00	  254.81	-2071.67	  188.35
    122.6637	  285.00	  254.34	-2048.21	  188.36
    122.6971	  253.00	  253.93	-2079.80	  188.38
    122.7306	  231.00	  253.58	-2101.45	  188.39
    122.7640	  231.00	  253.27	-2101.14	  188.40
    122.7974	  277.00	  253.00	-2054.87	  188.41
    122.8308	  237.00	  252.76	-2094.62	  188.42
    122.8643	  237.00	  252.54	-2094.41	  188.43
    122.8977	  234.00	  252.35	-2097.22	  188.45
    122.9311	  270.00	  252.18	-2061.05	  188.46
    122.9645	  223.00	  252.03	-2107.90	  188.47
    122.9979	  250.00	  251.89	-2080.76	  188.48
    123.0314	  256.00	  251.77	-2074.64	  188.49
    123.0648	  227.00	  251.66	-2103.52	  188.51
    123.0982	  260.00	  251.56	-2070.42	  188.52
    123.1316	  278.00	  251.46	-2052.33	  188.53
    123.1651	  237.00	  251.38	-2093.25	  188.54
    123.1985	  249.00	  251.30	-2081.17	  188.55
    123.2319	  252.00	  251.24	-2078.10	  188.57
    123.2653	  232.00	  251.17	-2098.04	  188.58
    123.2988	  272.00	  251.12	-2057.98	  188.59
    123.3322	  243.00	  251.06	-2086.93	  188.60
    123.3656	  264.00	  251.02	-2065.88	  188.61
    123.3990	  223.00	  250.98	-2106.84	  188.63
    123.4324	  234.00	  250.94	-2095.80	  188.64
    123.4659	  234.00	  250.90	-2095.77	  188.65
    123.4993	  219.00	  250.87	-2110.74	  188.66
    123.5327	  237.00	  250.84	-2092.71	  188.67
    123.5661	  248.00	  250.82	-2081.69	  188.69
    123.5995	  224.00	  250.80	-2105.66	  188.70
    123.6330	  273.00	  250.78	-2056.64	  188.71
    123.6664	  251.00	  250.76	-2078.63	  188.72
    123.6998	  285.00	  250.75	-2044.61	  188.73
    123.7332	  251.00	  250.74	-2078.60	  188.75
    123.7667	  261.00	  250.73	-2068.59	  188.76
    123.8001	  256.00	  250.72	-2073.59	  188.77
    123.8335	  258.00	  250.72	-2071.58	  188.78
    123.8669	  239.00	  250.71	-2090.58	  188.79
    123.9004	  258.00	  250.71	-2071.58	  188.81
    123.9338	  260.00	  250.71	-2069.58	  188.82
    123.9672	  256.00	  250.72	-2073.59	  188.83
    124.0006	  236.00	  250.73	-2093.59	  188.84
    124.0340	  248.00	  250.73	-2081.60	  188.86
    124.0675	  242.00	  250.75	-2087.61	  188.87
    124.1009	  253.00	  250.76	-2076.63	  188.88
    124.1343	  234.00	  250.78	-2095.64	  188.89
    124.1677	  269.00	  250.80	-2060.66	  188.91
    124.2012	  252.00	  250.82	-2077.69	  188.92
    124.2346	  245.00	  250.85	-2084.71	  188.93
    124.2680	  274.00	  250.88	-2055.74	  188.94
    124.3014	  230.00	  250.91	-2099.78	  188.95
    124.3348	  246.00	  250.95	-2083.82	  188.97
    124.3683	  244.00	  251.00	-2085.86	  188.98
    124.4017	  261.00	  251.05	-2068.92	  188.99
    124.4351	  251.00	  251.11	-2078.97	  189.00
    124.4685	  280.00	  251.17	-2050.04	  189.02
    124.5020	  276.00	  251.25	-2054.12	  189.03
    124.5354	  252.00	  251.34	-2078.21	  189.04
    124.5688	  232.00	  251.45	-2098.31	  189.05
    124.6022	  235.00	  251.57	-2095.44	  189.07
    124.6357	  280.00	  251.71	-2050.58	  189.08
    124.6691	  242.00	  251.88	-2088.75	  189.09
    124.7025	  249.00	  252.09	-2081.95	  189.10
    124.7359	  256.00	  252.34	-2075.21	  189.12
    124.7693	  225.00	  252.66	-2106.53	  189.13
    124.8028	  236.00	  253.08	-2095.95	  189.14
    124.8362	  256.00	  253.67	-2076.54	  189.15
    124.8696	  238.00	  254.53	-2095.40	  189.17
    124.9030	  252.00	  255.84	-2082.70	  189.18
    124.9365	  247.00	  257.82	-2089.69	  189.19
    124.9699	  253.00	  260.74	-2086.61	  189.21
    125.0033	  260.00	  264.82	-2083.68	  189.22
    125.0367	  293.00	  270.10	-2055.97	  189.23
    125.0701	  266.00	  276.30	-2089.17	  189.24
    125.1036	  264.00	  282.53	-2097.40	  189.26
    125.1370	  312.00	  287.07	-2053.94	  189.27
    125.1704	  286.00	  287.97	-2080.84	  189.28
    125.2038	  300.00	  284.79	-2063.66	  189.29
    125.2373	  277.00	  279.12	-2080.99	  189.31
    125.2707	  303.00	  272.93	-2048.80	  189.32
    125.3041	  318.00	  267.42	-2028.29	  189.33
    125.3375	  300.00	  263.11	-2041.97	  189.35
    125.3709	  250.00	  260.06	-2088.92	  189.36
    125.4044	  242.00	  258.16	-2095.03	  189.37
    125.4378	  255.00	  257.23	-2081.09	  189.38
    125.4712	  246.00	  257.12	-2089.99	  189.40
    125.5046	  273.00	  257.77	-2063.63	  189.41
    125.5381	  270.00	  259.16	-2068.03	  189.42
    125.5715	  257.00	  261.27	-2083.14	  189.44
    125.6049	  266.00	  263.97	-2076.84	  189.45
    125.6383	  233.00	  266.91	-2112.78	  189.46
    125.6718	  261.00	  269.35	-2087.22	  189.47
    125.7052	  284.00	  270.30	-2065.16	  189.49
    125.7386	  280.00	  269.18	-2068.05	  189.50
    125.7720	  264.00	  266.53	-2081.39	  189.51
    125.8054	  236.00	  263.32	-2106.18	  189.53
    125.8389	  262.00	  260.28	-2077.15	  189.54
    125.8723	  240.00	  257.77	-2096.64	  189.55
    125.9057	  227.00	  255.86	-2107.73	  189.57
    125.9391	  264.00	  254.51	-2069.37	  189.58
    125.9725	  265.00	  253.59	-2067.46	  189.59
    126.0060	  239.00	  252.98	-2092.85	  189.60
    126.0394	  230.00	  252.57	-2101.44	  189.62
    126.0728	  261.00	  252.29	-2070.16	  189.63
    126.1062	  258.00	  252.08	-2072.95	  189.64
    126.1397	  255.00	  251.93	-2075.79	  189.66
    126.1731	  238.00	  251.80	-2092.67	  189.67
    126.2065	  255.00	  251.70	-2075.56	  189.68
    126.2399	  242.00	  251.61	-2088.48	  189.70
    126.2734	  255.00	  251.54	-2075.41	  189.71
    126.3068	  251.00	  251.48	-2079.35	  189.72
    126.3402	  233.00	  251.43	-2097.30	  189.74
    126.3736	  261.00	  251.39	-2069.26	  189.75
    126.4070	  227.00	  251.36	-2103.22	  189.76
    126.4405	  282.00	  251.32	-2048.19	  189.78
    126.4739	  269.00	  251.30	-2061.17	  189.79
    126.5073	  269.00	  251.28	-2061.14	  189.80
    126.5407	  250.00	  251.26	-2080.13	  189.82
    126.5742	  255.00	  251.24	-2075.11	  189.83
    126.6076	  242.00	  251.23	-2088.10	  189.84
    126.6410	  247.00	  251.22	-2083.09	  189.86
    126.6744	  283.00	  251.21	-2047.08	  189.87
    126.7078	  264.00	  251.20	-2066.07	  189.88
    126.7413	  246.00	  251.20	-2084.06	  189.90
    126.7747	  271.00	  251.19	-2059.06	  189.91
    126.8081	  267.00	  251.19	-2063.06	  189.92
    126.8415	  246.00	  251.19	-2084.06	  189.94
    126.8750	  224.00	  251.19	-2106.06	  189.95
    126.9084	  255.00	  251.19	-2075.06	  189.96
    126.9418	  255.00	  251.25	-2075.12	  189.98
    126.9752	  243.00	  251.25	-2087.12	  189.99
    127.0087	  231.00	  251.25	-2099.12	  190.00
    127.0421	  259.00	  251.26	-2071.12	  190.02
    127.0755	  269.00	  251.26	-2061.13	  190.03
    127.1089	  275.00	  251.27	-2055.13	  190.04
    127.1423	  247.00	  251.27	-2083.14	  190.06
    127.1758	  231.00	  251.28	-2099.15	  190.07
    127.2092	  249.00	  251.29	-2081.15	  190.09
    127.2426	  274.00	  251.29	-2056.16	  190.10
    127.2760	  252.00	  251.30	-2078.17	  190.11
    127.3095	  256.00	  251.24	-2074.10	  190.13
    127.3429	  239.00	  251.25	-2091.11	  190.14
    127.3763	  252.00	  251.25	-2078.12	  190.15
    127.4097	  270.00	  251.26	-2060.13	  190.17
    127.4431	  252.00	  251.27	-2078.14	  190.18
    127.4766	  260.00	  251.28	-2070.15	  190.20
    127.5100	  256.00	  251.29	-2074.16	  190.21
    127.5434	  258.00	  251.33	-2072.20	  190.22
    127.5768	  237.00	  251.34	-2093.21	  190.24
    127.6103	  257.00	  251.35	-2073.22	  190.25
    127.6437	  255.00	  251.37	-2075.23	  190.26
    127.6771	  258.00	  251.38	-2072.24	  190.28
    127.7105	  259.00	  251.39	-2071.26	  190.29
    127.7439	  226.00	  251.40	-2104.27	  190.31
    127.7774	  242.00	  251.41	-2088.28	  190.32
    127.8108	  227.00	  251.42	-2103.29	  190.33
    127.8442	  230.00	  251.40	-2100.27	  190.35
    127.8776	  225.00	  251.41	-2105.28	  190.36
    127.9111	  280.00	  251.43	-2050.29	  190.37
    127.9445	  257.00	  251.44	-2073.31	  190.39
    127.9779	  252.00	  251.45	-2078.32	  190.40
    128.0113	  234.00	  251.47	-2096.33	  190.42
    128.0448	  259.00	  251.48	-2071.35	  190.43
    128.0782	  261.00	  251.49	-2069.36	  190.44
    128.1116	  248.00	  251.51	-2082.37	  190.46
    128.1450	  266.00	  251.52	-2064.39	  190.47
    128.1784	  269.00	  251.53	-2061.40	  190.49
    128.2119	  220.00	  251.55	-2110.41	  190.50
    128.2453	  249.00	  251.56	-2081.43	  190.51
    128.2787	  260.00	  251.57	-2070.44	  190.53
    128.3121	  255.00	  251.59	-2075.46	  190.54
    128.3456	  243.00	  251.60	-2087.47	  190.56
    128.3790	  283.00	  251.62	-2047.48	  190.57
    128.4124	  247.00	  251.63	-2083.50	  190.59
    128.4458	  249.00	  251.65	-2081.51	  190.60
    128.4792	  252.00	  251.66	-2078.53	  190.61
    128.5127	  243.00	  251.68	-2087.54	  190.63
    128.5461	  283.00	  251.69	-2047.56	  190.64
    128.5795	  253.00	  251.71	-2077.57	  190.66
    128.6129	  260.00	  251.72	-2070.59	  190.67
    128.6464	  231.00	  251.73	-2099.60	  190.68
    128.6798	  229.00	  251.75	-2101.62	  190.70
    128.7132	  267.00	  251.76	-2063.63	  190.71
    128.7466	  239.00	  251.78	-2091.65	  190.73
    128.7800	  248.00	  251.80	-2082.66	  190.74
    128.8135	  258.00	  251.81	-2072.68	  190.76
    128.8469	  230.00	  251.83	-2100.69	  190.77
    128.8803	  238.00	  251.84	-2092.71	  190.78
    128.9137	  244.00	  251.86	-2086.72	  190.80
    128.9472	  235.00	  251.87	-2095.74	  190.81
    128.9806	  250.00	  251.89	-2080.76	  190.83
    129.0140	  239.00	  251.90	-2091.77	  190.84
    129.0474	  232.00	  251.92	-2098.79	  190.86
    129.0809	  255.00	  251.94	-2075.80	  190.87
    129.1143	  243.00	  251.95	-2087.82	  190.89
    129.1477	  253.00	  251.97	-2077.84	  190.90
    129.1811	  255.00	  251.98	-2075.85	  190.91
    129.2145	  255.00	  252.01	-2075.88	  190.93
    129.2480	  237.00	  252.03	-2093.90	  190.94
    129.2814	  225.00	  252.05	-2105.91	  190.96
    129.3148	  225.00	  252.06	-2105.93	  190.97
    129.3482	  244.00	  252.08	-2086.95	  190.99
    129.3817	  248.00	  252.10	-2082.96	  191.00
    129.4151	  232.00	  252.11	-2098.98	  191.02
    129.4485	  271.00	  252.13	-2060.00	  191.03
    129.4819	  282.00	  252.15	-2049.02	  191.05
    129.5154	  291.00	  252.17	-2040.03	  191.06
    129.5488	  260.00	  252.18	-2071.05	  191.08
    129.5822	  246.00	  252.20	-2085.07	  191.09
    129.6156	  249.00	  252.22	-2082.08	  191.10
    129.6490	  248.00	  252.24	-2083.10	  191.12
    129.6825	  251.00	  252.25	-2080.12	  191.13
    129.7159	  288.00	  252.27	-2043.14	  191.15
    129.7493	  261.00	  252.29	-2070.16	  191.16
    129.7827	  252.00	  252.31	-2079.17	  191.18
    129.8161	  243.00	  252.33	-2088.20	  191.19
    129.8496	  244.00	  252.35	-2087.22	  191.21
    129.8830	  237.00	  252.37	-2094.24	  191.22
    129.9164	  246.00	  252.39	-2085.25	  191.24
    129.9498	  237.00	  252.41	-2094.27	  191.25
    129.9833	  244.00	  252.42	-2087.29	  191.27
     31.7916	        	        	        	        	       0	(  1  0  0)	  0  1 :  1
     31.8718	        	        	        	        	       0	(  1  0  0)	  0  2 :  1
     34.4458	        	        	        	        	       0	(  0  0  2)	  0  1 :  1
     34.5331	        	        	        	        	       0	(  0  0  2)	  0  2 :  1
     36.2762	        	        	        	        	       0	(  1  0  1)	  0  1 :  1
     36.3685	        	        	        	        	       0	(  1  0  1)	  0  2 :  1
     47.5604	        	        	        	        	       0	(  1  0  2)	  0  1 :  1
     47.6846	        	        	        	        	       0	(  1  0  2)	  0  2 :  1
     56.6130	        	        	        	        	       0	(  1  1  0)	  0  1 :  1
     56.7648	        	        	        	        	       0	(  1  1  0)	  0  2 :  1
     62.8754	        	        	        	        	       0	(  1  0  3)	  0  1 :  1
     63.0477	        	        	        	        	       0	(  1  0  3)	  0  2 :  1
     66.3911	        	        	        	        	       0	(  2  0  0)	  0  1 :  1
     66.5755	        	        	        	        	       0	(  2  0  0)	  0  2 :  1
     67.9634	        	        	        	        	       0	(  1  1  2)	  0  1 :  1
     68.1534	        	        	        	        	       0	(  1  1  2)	  0  2 :  1
     69.1010	        	        	        	        	       0	(  2  0  1)	  0  1 :  1
     69.2951	        	        	        	        	       0	(  2  0  1)	  0  2 :  1
     72.5830	        	        	        	        	       0	(  0  0  4)	  0  1 :  1
     72.7901	        	        	        	        	       0	(  0  0  4)	  0  2 :  1
     76.9725	        	        	        	        	       0	(  2  0  2)	  0  1 :  1
     77.1967	        	        	        	        	       0	(  2  0  2)	  0  2 :  1
     81.3992	        	        	        	        	       0	(  1  0  4)	  0  1 :  1
     81.6418	        	        	        	        	       0	(  1  0  4)	  0  2 :  1
     89.6219	        	        	        	        	       0	(  2  0  3)	  0  1 :  1
     89.9021	        	        	        	        	       0	(  2  0  3)	  0  2 :  1
     92.7984	        	        	        	        	       0	(  2  1  0)	  0  1 :  1
     93.0946	        	        	        	        	       0	(  2  1  0)	  0  2 :  1
     95.3121	        	        	        	        	       0	(  2  1  1)	  0  1 :  1
     95.6218	        	        	        	        	       0	(  2  1  1)	  0  2 :  1
     98.6250	        	        	        	        	       0	(  1  1  4)	  0  1 :  1
     98.9533	        	        	        	        	       0	(  1  1  4)	  0  2 :  1
    102.9357	        	        	        	        	       0	(  2  1  2)	  0  1 :  1
    103.2902	        	        	        	        	       0	(  2  1  2)	  0  2 :  1
    104.1403	        	        	        	        	       0	(  1  0  5)	  0  1 :  1
    104.5025	        	        	        	        	       0	(  1  0  5)	  0  2 :  1
    107.4403	        	        	        	        	       0	(  2  0  4)	  0  1 :  1
    107.8251	        	        	        	        	       0	(  2  0  4)	  0  2 :  1
    110.3842	        	        	        	        	       0	(  3  0  0)	  0  1 :  1
    110.7906	        	        	        	        	       0	(  3  0  0)	  0  2 :  1
    113.0833	        	        	        	        	       0	(  3  0  1)	  0  1 :  1
    113.5109	        	        	        	        	       0	(  3  0  1)	  0  2 :  1
    116.2722	        	        	        	        	       0	(  2  1  3)	  0  1 :  1
    116.7270	        	        	        	        	       0	(  2  1  3)	  0  2 :  1
    121.5560	        	        	        	        	       0	(  3  0  2)	  0  1 :  1
    122.0617	        	        	        	        	       0	(  3  0  2)	  0  2 :  1
    125.1601	        	        	        	        	       0	(  0  0  6)	  0  1 :  1
    125.7058	        	        	        	        	       0	(  0  0  6)	  0  2 :  1
    133.9074	        	        	        	        	       0	(  2  0  5)	  0  1 :  1
    134.5743	        	        	        	        	       0	(  2  0  5)	  0  2 :  1
    136.5178	        	        	        	        	       0	(  1  0  6)	  0  1 :  1
    137.2300	        	        	        	        	       0	(  1  0  6)	  0  2 :  1
    137.9098	        	        	        	        	       0	(  3  0  3)	  0  1 :  1
    138.4954	        	        	        	        	       0	(  2  1  4)	  0  1 :  1
    138.6483	        	        	        	        	       0	(  3  0  3)	  0  2 :  1
    139.2455	        	        	        	        	       0	(  2  1  4)	  0  2 :  1
