ZnO hexagonal   Chi2:  2.0154  CELL:    3.24973   3.24973   5.20628   90.0000   90.0000  120.0000   SPGR: P 63 m c               TEMP:      0.00
  1   3291     1.54060     1.54439     0.00000    -0.05127     0.00000    0
    56     0     1
       0.00000      30.00000
 2Theta	Yobs	Ycal	Yobs-Ycal	Backg	Posr	(hkl)	K
     20.0231	  181.00	  205.31	-1559.00	  188.06
     20.0565	  200.00	  205.18	-1559.00	  187.93
     20.0900	  216.00	  205.06	-1559.00	  187.81
     20.1234	  172.00	  204.93	-1559.00	  187.68
     20.1568	  202.00	  204.80	-1559.00	  187.55
     20.1902	  218.00	  204.68	-1559.00	  187.43
     20.2236	  192.00	  204.55	-1559.00	  187.30
     20.2571	  193.00	  204.42	-1559.00	  187.17
     20.2905	  170.00	  204.30	-1559.00	  187.05
     20.3239	  177.00	  204.17	-1559.00	  186.92
     20.3573	  217.00	  204.05	-1559.00	  186.79
     20.3908	  192.00	  203.92	-1559.00	  186.67
     20.4242	  190.00	  203.79	-1559.00	  186.54
     20.4576	  181.00	  203.67	-1559.00	  186.42
     20.4910	  169.00	  203.54	-1559.00	  186.29
     20.5245	  178.00	  203.42	-1559.00	  186.16
     20.5579	  206.00	  203.29	-1559.00	  186.04
     20.5913	  170.00	  203.16	-1559.00	  185.91
     20.6247	  216.00	  203.04	-1559.00	  185.79
     20.6581	  181.00	  202.91	-1559.00	  185.66
     20.6916	  197.00	  202.79	-1559.00	  185.54
     20.7250	  189.00	  202.66	-1559.00	  185.41
     20.7584	  173.00	  202.54	-1559.00	  185.29
     20.7918	  200.00	  202.41	-1559.00	  185.16
     20.8253	  189.00	  202.29	-1559.00	  185.04
     20.8587	  206.00	  202.16	-1559.00	  184.91
     20.8921	  197.00	  202.04	-1559.00	  184.79
     20.9255	  188.00	  201.91	-1559.00	  184.66
     20.9589	  202.00	  201.79	-1559.00	  184.54
     20.9924	  190.00	  201.66	-1559.00	  184.41
     21.0258	  198.00	  201.54	-1559.00	  184.29
     21.0592	  158.00	  201.42	-1559.00	  184.16
     21.0926	  166.00	  201.29	-1559.00	  184.04
     21.1261	  183.00	  201.17	-1559.00	  183.92
     21.1595	  178.00	  201.04	-1559.00	  183.79
     21.1929	  194.00	  200.92	-1559.00	  183.67
     21.2263	  190.00	  200.80	-1559.00	  183.54
     21.2597	  183.00	  200.67	-1559.00	  183.42
     21.2932	  189.00	  200.55	-1559.00	  183.30
     21.3266	  169.00	  200.42	-1559.00	  183.17
     21.3600	  183.00	  200.30	-1559.00	  183.05
     21.3934	  198.00	  200.18	-1559.00	  182.93
     21.4269	  189.00	  200.05	-1559.00	  182.80
     21.4603	  202.00	  199.93	-1559.00	  182.68
     21.4937	  185.00	  199.81	-1559.00	  182.56
     21.5271	  198.00	  199.68	-1559.00	  182.43
     21.5605	  194.00	  199.56	-1559.00	  182.31
     21.5940	  195.00	  199.44	-1559.00	  182.19
     21.6274	  185.00	  199.32	-1559.00	  182.06
     21.6608	  171.00	  199.19	-1559.00	  181.94
     21.6942	  199.00	  199.07	-1559.00	  181.82
     21.7277	  179.00	  198.95	-1559.00	  181.70
     21.7611	  196.00	  198.83	-1559.00	  181.57
     21.7945	  197.00	  198.70	-1559.00	  181.45
     21.8279	  170.00	  198.58	-1559.00	  181.33
     21.8614	  197.00	  198.46	-1559.00	  181.21
     21.8948	  193.00	  198.34	-1559.00	  181.08
     21.9282	  193.00	  198.21	-1559.00	  180.96
     21.9616	  190.00	  198.09	-1559.00	  180.84
     21.9950	  232.00	  197.97	-1559.00	  180.72
     22.0285	  203.00	  197.85	-1559.00	  180.60
     22.0619	  198.00	  197.73	-1559.00	  180.47
     22.0953	  196.00	  197.61	-1559.00	  180.35
     22.1287	  194.00	  197.48	-1559.00	  180.23
     22.1622	  184.00	  197.36	-1559.00	  180.11
     22.1956	  196.00	  197.24	-1559.00	  179.99
     22.2290	  190.00	  197.12	-1559.00	  179.87
     22.2624	  168.00	  197.00	-1559.00	  179.75
     22.2958	  168.00	  196.88	-1559.00	  179.63
     22.3293	  185.00	  196.76	-1559.00	  179.50
     22.3627	  176.00	  196.64	-1559.00	  179.38
     22.3961	  167.00	  196.51	-1559.00	  179.26
     22.4295	  184.00	  196.39	-1559.00	  179.14
     22.4630	  167.00	  196.27	-1559.00	  179.02
     22.4964	  183.00	  196.15	-1559.00	  178.90
     22.5298	  185.00	  196.03	-1559.00	  178.78
     22.5632	  184.00	  195.91	-1559.00	  178.66
     22.5966	  181.00	  195.79	-1559.00	  178.54
     22.6301	  182.00	  195.67	-1559.00	  178.42
     22.6635	  186.00	  195.55	-1559.00	  178.30
     22.6969	  194.00	  195.43	-1559.00	  178.18
     22.7303	  213.00	  195.31	-1559.00	  178.06
     22.7638	  173.00	  195.19	-1559.00	  177.94
     22.7972	  180.00	  195.07	-1559.00	  177.82
     22.8306	  181.00	  194.95	-1559.00	  177.70
     22.8640	  179.00	  194.83	-1559.00	  177.58
     22.8974	  186.00	  194.71	-1559.00	  177.46
     22.9309	  168.00	  194.59	-1559.00	  177.34
     22.9643	  189.00	  194.47	-1559.00	  177.22
     22.9977	  164.00	  194.35	-1559.00	  177.10
     23.0311	  178.00	  194.23	-1559.00	  176.98
     23.0646	  188.00	  194.12	-1559.00	  176.86
     23.0980	  195.00	  194.00	-1559.00	  176.74
     23.1314	  176.00	  193.88	-1559.00	  176.63
     23.1648	  154.00	  193.76	-1559.00	  176.51
     23.1983	  170.00	  193.64	-1559.00	  176.39
     23.2317	  165.00	  193.52	-1559.00	  176.27
     23.2651	  184.00	  193.40	-1559.00	  176.15
     23.2985	  200.00	  193.28	-1559.00	  176.03
     23.3319	  192.00	  193.17	-1559.00	  175.91
     23.3654	  191.00	  193.05	-1559.00	  175.79
     23.3988	  179.00	  192.93	-1559.00	  175.68
     23.4322	  195.00	  192.81	-1559.00	  175.56
     23.4656	  203.00	  192.69	-1559.00	  175.44
     23.4991	  184.00	  192.57	-1559.00	  175.32
     23.5325	  215.00	  192.46	-1559.00	  175.20
     23.5659	  166.00	  192.34	-1559.00	  175.09
     23.5993	  192.00	  192.22	-1559.00	  174.97
     23.6327	  165.00	  192.10	-1559.00	  174.85
     23.6662	  186.00	  191.99	-1559.00	  174.73
     23.6996	  183.00	  191.87	-1559.00	  174.62
     23.7330	  184.00	  191.75	-1559.00	  174.50
     23.7664	  182.00	  191.63	-1559.00	  174.38
     23.7999	  195.00	  191.52	-1559.00	  174.26
     23.8333	  175.00	  191.40	-1559.00	  174.15
     23.8667	  162.00	  191.28	-1559.00	  174.03
     23.9001	  179.00	  191.16	-1559.00	  173.91
     23.9335	  175.00	  191.05	-1559.00	  173.80
     23.9670	  158.00	  190.93	-1559.00	  173.68
     24.0004	  193.00	  190.81	-1559.00	  173.56
     24.0338	  182.00	  190.70	-1559.00	  173.45
     24.0672	  167.00	  190.58	-1559.00	  173.33
     24.1007	  189.00	  190.46	-1559.00	  173.21
     24.1341	  157.00	  190.35	-1559.00	  173.10
     24.1675	  179.00	  190.23	-1559.00	  172.98
     24.2009	  155.00	  190.11	-1559.00	  172.86
     24.2344	  202.00	  190.00	-1559.00	  172.75
     24.2678	  178.00	  189.88	-1559.00	  172.63
     24.3012	  185.00	  189.77	-1559.00	  172.51
     24.3346	  167.00	  189.65	-1559.00	  172.40
     24.3680	  168.00	  189.53	-1559.00	  172.28
     24.4015	  192.00	  189.42	-1559.00	  172.17
     24.4349	  158.00	  189.30	-1559.00	  172.05
     24.4683	  164.00	  189.19	-1559.00	  171.94
     24.5017	  180.00	  189.07	-1559.00	  171.82
     24.5352	  170.00	  188.96	-1559.00	  171.70
     24.5686	  185.00	  188.84	-1559.00	  171.59
     24.6020	  192.00	  188.73	-1559.00	  171.47
     24.6354	  166.00	  188.61	-1559.00	  171.36
     24.6688	  161.00	  188.50	-1559.00	  171.24
     24.7023	  186.00	  188.38	-1559.00	  171.13
     24.7357	  178.00	  188.27	-1559.00	  171.01
     24.7691	  171.00	  188.15	-1559.00	  170.90
     24.8025	  171.00	  188.04	-1559.00	  170.78
     24.8360	  171.00	  187.92	-1559.00	  170.67
     24.8694	  178.00	  187.81	-1559.00	  170.56
     24.9028	  165.00	  187.69	-1559.00	  170.44
     24.9362	  172.00	  187.58	-1559.00	  170.33
     24.9696	  181.00	  187.46	-1559.00	  170.21
     25.0031	  169.00	  187.35	-1559.00	  170.10
     25.0365	  184.00	  187.24	-1559.00	  169.98
     25.0699	  186.00	  187.12	-1559.00	  169.87
     25.1033	  163.00	  187.01	-1559.00	  169.76
     25.1368	  131.00	  186.89	-1559.00	  169.64
     25.1702	  164.00	  186.78	-1559.00	  169.53
     25.2036	  199.00	  186.67	-1559.00	  169.41
     25.2370	  188.00	  186.55	-1559.00	  169.30
     25.2705	  166.00	  186.44	-1559.00	  169.19
     25.3039	  191.00	  186.33	-1559.00	  169.07
     25.3373	  173.00	  186.21	-1559.00	  168.96
     25.3707	  175.00	  186.10	-1559.00	  168.85
     25.4041	  159.00	  185.99	-1559.00	  168.73
     25.4376	  164.00	  185.87	-1559.00	  168.62
     25.4710	  192.00	  185.76	-1559.00	  168.51
     25.5044	  189.00	  185.65	-1559.00	  168.39
     25.5378	  172.00	  185.53	-1559.00	  168.28
     25.5713	  169.00	  185.42	-1559.00	  168.17
     25.6047	  179.00	  185.31	-1559.00	  168.06
     25.6381	  178.00	  185.19	-1559.00	  167.94
     25.6715	  178.00	  185.08	-1559.00	  167.83
     25.7049	  168.00	  184.97	-1559.00	  167.72
     25.7384	  170.00	  184.86	-1559.00	  167.61
     25.7718	  170.00	  184.74	-1559.00	  167.49
     25.8052	  165.00	  184.63	-1559.00	  167.38
     25.8386	  180.00	  184.52	-1559.00	  167.27
     25.8721	  180.00	  184.41	-1559.00	  167.16
     25.9055	  152.00	  184.30	-1559.00	  167.04
     25.9389	  179.00	  184.18	-1559.00	  166.93
     25.9723	  175.00	  184.07	-1559.00	  166.82
     26.0057	  189.00	  183.96	-1559.00	  166.71
     26.0392	  177.00	  183.85	-1559.00	  166.60
     26.0726	  186.00	  183.74	-1559.00	  166.49
     26.1060	  153.00	  183.63	-1559.00	  166.37
     26.1394	  167.00	  183.51	-1559.00	  166.26
     26.1729	  181.00	  183.40	-1559.00	  166.15
     26.2063	  193.00	  183.29	-1559.00	  166.04
     26.2397	  161.00	  183.18	-1559.00	  165.93
     26.2731	  170.00	  183.07	-1559.00	  165.82
     26.3065	  177.00	  182.96	-1559.00	  165.71
     26.3400	  157.00	  182.85	-1559.00	  165.60
     26.3734	  159.00	  182.74	-1559.00	  165.48
     26.4068	  188.00	  182.63	-1559.00	  165.37
     26.4402	  163.00	  182.52	-1559.00	  165.26
     26.4737	  165.00	  182.40	-1559.00	  165.15
     26.5071	  167.00	  182.29	-1559.00	  165.04
     26.5405	  189.00	  182.18	-1559.00	  164.93
     26.5739	  170.00	  182.07	-1559.00	  164.82
     26.6074	  157.00	  181.96	-1559.00	  164.71
     26.6408	  166.00	  181.85	-1559.00	  164.60
     26.6742	  183.00	  181.74	-1559.00	  164.49
     26.7076	  155.00	  181.63	-1559.00	  164.38
     26.7410	  188.00	  181.52	-1559.00	  164.27
     26.7745	  158.00	  181.41	-1559.00	  164.16
     26.8079	  165.00	  181.30	-1559.00	  164.05
     26.8413	  168.00	  181.19	-1559.00	  163.94
     26.8747	  157.00	  181.08	-1559.00	  163.83
     26.9082	  168.00	  180.97	-1559.00	  163.72
     26.9416	  178.00	  180.86	-1559.00	  163.61
     26.9750	  173.00	  180.76	-1559.00	  163.50
     27.0084	  176.00	  180.65	-1559.00	  163.39
     27.0418	  162.00	  180.54	-1559.00	  163.28
     27.0753	  167.00	  180.43	-1559.00	  163.18
     27.1087	  175.00	  180.32	-1559.00	  163.07
     27.1421	  181.00	  180.21	-1559.00	  162.96
     27.1755	  202.00	  180.10	-1559.00	  162.85
     27.2090	  172.00	  179.99	-1559.00	  162.74
     27.2424	  196.00	  179.88	-1559.00	  162.63
     27.2758	  163.00	  179.77	-1559.00	  162.52
     27.3092	  175.00	  179.67	-1559.00	  162.41
     27.3426	  166.00	  179.56	-1559.00	  162.31
     27.3761	  176.00	  179.45	-1559.00	  162.20
     27.4095	  194.00	  179.34	-1559.00	  162.09
     27.4429	  181.00	  179.23	-1559.00	  161.98
     27.4763	  158.00	  179.12	-1559.00	  161.87
     27.5098	  149.00	  179.02	-1559.00	  161.76
     27.5432	  164.00	  178.91	-1559.00	  161.66
     27.5766	  169.00	  178.80	-1559.00	  161.55
     27.6100	  154.00	  178.69	-1559.00	  161.44
     27.6434	  169.00	  178.58	-1559.00	  161.33
     27.6769	  150.00	  178.48	-1559.00	  161.23
     27.7103	  171.00	  178.37	-1559.00	  161.12
     27.7437	  169.00	  178.26	-1559.00	  161.01
     27.7771	  164.00	  178.15	-1559.00	  160.90
     27.8106	  175.00	  178.05	-1559.00	  160.80
     27.8440	  145.00	  177.94	-1559.00	  160.69
     27.8774	  188.00	  177.83	-1559.00	  160.58
     27.9108	  177.00	  177.73	-1559.00	  160.47
     27.9443	  177.00	  177.62	-1559.00	  160.37
     27.9777	  182.00	  177.51	-1559.00	  160.26
     28.0111	  168.00	  177.40	-1559.00	  160.15
     28.0445	  200.00	  177.30	-1559.00	  160.05
     28.0779	  189.00	  177.19	-1559.00	  159.94
     28.1114	  164.00	  177.08	-1559.00	  159.83
     28.1448	  138.00	  176.98	-1559.00	  159.73
     28.1782	  170.00	  176.87	-1559.00	  159.62
     28.2116	  153.00	  176.76	-1559.00	  159.51
     28.2451	  151.00	  176.66	-1559.00	  159.41
     28.2785	  161.00	  176.55	-1559.00	  159.30
     28.3119	  173.00	  176.45	-1559.00	  159.19
     28.3453	  155.00	  176.34	-1559.00	  159.09
     28.3787	  156.00	  176.23	-1559.00	  158.98
     28.4122	  155.00	  176.13	-1559.00	  158.88
     28.4456	  162.00	  176.02	-1559.00	  158.77
     28.4790	  195.00	  175.92	-1559.00	  158.66
     28.5124	  178.00	  175.81	-1559.00	  158.56
     28.5459	  151.00	  175.71	-1559.00	  158.45
     28.5793	  195.00	  175.60	-1559.00	  158.35
     28.6127	  170.00	  175.49	-1559.00	  158.24
     28.6461	  170.00	  175.39	-1559.00	  158.14
     28.6795	  151.00	  175.28	-1559.00	  158.03
     28.7130	  181.00	  175.18	-1559.00	  157.93
     28.7464	  157.00	  175.07	-1559.00	  157.82
     28.7798	  150.00	  174.97	-1559.00	  157.72
     28.8132	  171.00	  174.86	-1559.00	  157.61
     28.8467	  181.00	  174.76	-1559.00	  157.51
     28.8801	  153.00	  174.65	-1559.00	  157.40
     28.9135	  172.00	  174.55	-1559.00	  157.30
     28.9469	  197.00	  174.44	-1559.00	  157.19
     28.9804	  180.00	  174.34	-1559.00	  157.09
     29.0138	  194.00	  174.24	-1559.00	  156.98
     29.0472	  181.00	  174.13	-1559.00	  156.88
     29.0806	  132.00	  174.03	-1559.00	  156.77
     29.1140	  149.00	  173.92	-1559.00	  156.67
     29.1475	  183.00	  173.82	-1559.00	  156.57
     29.1809	  157.00	  173.71	-1559.00	  156.46
     29.2143	  155.00	  173.61	-1559.00	  156.36
     29.2477	  162.00	  173.51	-1559.00	  156.25
     29.2812	  190.00	  173.40	-1559.00	  156.15
     29.3146	  164.00	  173.30	-1559.00	  156.05
     29.3480	  164.00	  173.19	-1559.00	  155.94
     29.3814	  157.00	  173.09	-1559.00	  155.84
     29.4148	  175.00	  172.99	-1559.00	  155.74
     29.4483	  170.00	  172.88	-1559.00	  155.63
     29.4817	  179.00	  172.78	-1559.00	  155.53
     29.5151	  159.00	  172.68	-1559.00	  155.43
     29.5485	  164.00	  172.57	-1559.00	  155.32
     29.5820	  169.00	  172.47	-1559.00	  155.22
     29.6154	  157.00	  172.37	-1559.00	  155.12
     29.6488	  158.00	  172.27	-1559.00	  155.01
     29.6822	  154.00	  172.16	-1559.00	  154.91
     29.7156	  148.00	  172.06	-1559.00	  154.81
     29.7491	  158.00	  171.96	-1559.00	  154.71
     29.7825	  153.00	  171.85	-1559.00	  154.60
     29.8159	  154.00	  171.75	-1559.00	  154.50
     29.8493	  170.00	  171.65	-1559.00	  154.40
     29.8828	  179.00	  171.55	-1559.00	  154.29
     29.9162	  154.00	  171.44	-1559.00	  154.19
     29.9496	  163.00	  171.34	-1559.00	  154.09
     29.9830	  154.00	  171.24	-1559.00	  153.99
     30.0164	  168.00	  171.14	-1562.14	  153.89
     30.0499	  151.00	  173.62	-1581.62	  153.78
     30.0833	  159.00	  173.62	-1573.62	  153.68
     30.1167	  148.00	  173.63	-1584.63	  153.58
     30.1501	  162.00	  173.65	-1570.65	  153.48
     30.1836	  168.00	  173.67	-1564.67	  153.38
     30.2170	  169.00	  173.71	-1563.71	  153.27
     30.2504	  167.00	  173.75	-1565.75	  153.17
     30.2838	  151.00	  173.80	-1581.80	  153.07
     30.3173	  188.00	  173.86	-1544.86	  152.97
     30.3507	  185.00	  173.94	-1547.94	  152.87
     30.3841	  197.00	  174.03	-1536.03	  152.77
     30.4175	  177.00	  174.13	-1556.13	  152.67
     30.4509	  158.00	  174.25	-1575.25	  152.57
     30.4844	  149.00	  174.39	-1584.39	  152.46
     30.5178	  212.00	  174.54	-1521.54	  152.36
     30.5512	  178.00	  174.72	-1555.72	  152.26
     30.5846	  190.00	  174.92	-1543.92	  152.16
     30.6181	  213.00	  175.15	-1521.15	  152.06
     30.6515	  218.00	  175.41	-1516.41	  151.96
     30.6849	  197.00	  175.71	-1537.71	  151.86
     30.7183	  195.00	  176.05	-1540.05	  151.76
     30.7517	  184.00	  176.43	-1551.43	  151.66
     30.7852	  205.00	  176.86	-1530.86	  151.56
     30.8186	  189.00	  177.34	-1547.34	  151.46
     30.8520	  211.00	  177.90	-1525.90	  151.36
     30.8854	  202.00	  178.53	-1535.53	  151.26
     30.9189	  190.00	  179.26	-1548.26	  151.16
     30.9523	  212.00	  180.44	-1527.44	  151.06
     30.9857	  194.00	  181.40	-1546.40	  150.96
     31.0191	  194.00	  182.69	-1547.69	  150.86
     31.0525	  182.00	  183.98	-1560.98	  150.76
     31.0860	  199.00	  185.49	-1545.49	  150.66
     31.1194	  238.00	  187.25	-1508.25	  150.56
     31.1528	  210.00	  189.34	-1538.34	  150.46
     31.1862	  196.00	  191.83	-1554.83	  150.36
     31.2197	  215.00	  194.82	-1538.82	  150.26
     31.2531	  204.00	  198.46	-1553.46	  150.16
     31.2865	  218.00	  202.92	-1543.92	  150.06
     31.3199	  219.00	  208.49	-1548.49	  149.96
     31.3534	  240.00	  215.54	-1534.54	  149.87
     31.3868	  246.00	  224.63	-1537.63	  149.77
     31.4202	  284.00	  236.63	-1511.63	  149.67
     31.4536	  280.00	  252.90	-1531.90	  149.57
     31.4870	  369.00	  276.01	-1466.01	  149.47
     31.5205	  390.00	  312.34	-1481.34	  149.37
     31.5539	  467.00	  381.92	-1473.92	  149.27
     31.5873	  594.00	  540.76	-1505.76	  149.17
     31.6207	  901.00	  896.33	-1554.33	  149.08
     31.6542	 1769.00	 1549.99	-1339.99	  148.98
     31.6876	 3307.00	 2426.09	 -678.09	  148.88
     31.7210	 4073.00	 3061.09	 -547.09	  148.78
     31.7544	 3803.00	 3005.35	 -761.35	  148.68
     31.7878	 3114.00	 2558.83	-1003.83	  148.59
     31.8213	 2258.00	 1915.61	-1216.61	  148.49
     31.8547	 1419.00	 1242.18	-1382.18	  148.39
     31.8881	  770.00	  758.36	-1547.36	  148.29
     31.9215	  530.00	  486.76	-1515.76	  148.19
     31.9550	  383.00	  357.11	-1533.11	  148.10
     31.9884	  333.00	  296.95	-1522.95	  148.00
     32.0218	  282.00	  264.84	-1541.84	  147.90
     32.0552	  264.00	  244.31	-1539.31	  147.80
     32.0886	  203.00	  229.73	-1585.73	  147.71
     32.1221	  240.00	  218.86	-1537.86	  147.61
     32.1555	  238.00	  210.53	-1531.53	  147.51
     32.1889	  233.00	  204.00	-1530.00	  147.42
     32.2223	  237.00	  198.78	-1520.78	  147.32
     32.2558	  227.00	  194.54	-1526.54	  147.22
     32.2892	  200.00	  191.06	-1550.06	  147.12
     32.3226	  212.00	  188.16	-1535.16	  147.03
     32.3560	  177.00	  185.71	-1567.71	  146.93
     32.3895	  175.00	  183.63	-1567.63	  146.83
     32.4229	  195.00	  181.85	-1545.85	  146.74
     32.4563	  179.00	  180.31	-1560.31	  146.64
     32.4897	  182.00	  178.97	-1555.97	  146.55
     32.5231	  173.00	  177.80	-1563.80	  146.45
     32.5566	  151.00	  176.77	-1584.77	  146.35
     32.5900	  169.00	  175.85	-1565.85	  146.26
     32.6234	  203.00	  175.05	-1531.05	  146.16
     32.6568	  165.00	  174.33	-1568.33	  146.06
     32.6903	  184.00	  173.68	-1548.68	  145.97
     32.7237	  176.00	  173.11	-1556.11	  145.87
     32.7571	  168.00	  173.49	-1564.49	  145.78
     32.7905	  164.00	  173.04	-1568.04	  145.68
     32.8239	  154.00	  172.65	-1577.65	  145.59
     32.8574	  158.00	  172.75	-1573.75	  145.49
     32.8908	  197.00	  172.45	-1534.45	  145.39
     32.9242	  170.00	  172.18	-1561.18	  145.30
     32.9576	  178.00	  171.96	-1552.96	  145.20
     32.9911	  168.00	  171.76	-1562.76	  145.11
     33.0245	  173.00	  171.60	-1557.60	  145.01
     33.0579	  183.00	  171.47	-1547.47	  144.92
     33.0913	  189.00	  171.37	-1541.37	  144.82
     33.1247	  175.00	  171.31	-1555.31	  144.73
     33.1582	  188.00	  171.27	-1542.27	  144.63
     33.1916	  211.00	  171.26	-1519.26	  144.54
     33.2250	  171.00	  171.29	-1559.29	  144.44
     33.2584	  203.00	  171.34	-1527.34	  144.35
     33.2919	  163.00	  171.44	-1567.44	  144.25
     33.3253	  179.00	  171.57	-1551.57	  144.16
     33.3587	  202.00	  171.74	-1528.74	  144.07
     33.3921	  186.00	  171.95	-1544.95	  143.97
     33.4255	  184.00	  172.21	-1547.21	  143.88
     33.4590	  182.00	  172.53	-1549.53	  143.78
     33.4924	  169.00	  172.90	-1562.90	  143.69
     33.5258	  186.00	  173.35	-1546.35	  143.59
     33.5592	  169.00	  173.86	-1563.86	  143.50
     33.5927	  179.00	  174.47	-1554.47	  143.41
     33.6261	  169.00	  175.18	-1565.18	  143.31
     33.6595	  189.00	  176.00	-1546.00	  143.22
     33.6929	  186.00	  176.97	-1549.97	  143.13
     33.7264	  185.00	  178.11	-1552.11	  143.03
     33.7598	  156.00	  179.44	-1582.44	  142.94
     33.7932	  175.00	  181.03	-1565.03	  142.84
     33.8266	  208.00	  182.91	-1533.91	  142.75
     33.8600	  176.00	  185.18	-1568.18	  142.66
     33.8935	  173.00	  187.91	-1573.91	  142.56
     33.9269	  186.00	  191.27	-1564.27	  142.47
     33.9603	  194.00	  195.42	-1560.42	  142.38
     33.9937	  193.00	  200.64	-1566.64	  142.29
     34.0272	  208.00	  207.30	-1558.30	  142.19
     34.0606	  223.00	  216.00	-1552.00	  142.10
     34.0940	  243.00	  227.64	-1543.64	  142.01
     34.1274	  275.00	  243.76	-1527.76	  141.91
     34.1608	  266.00	  267.74	-1560.74	  141.82
     34.1943	  324.00	  309.57	-1544.57	  141.73
     34.2277	  371.00	  399.46	-1587.46	  141.64
     34.2611	  468.00	  606.93	-1697.93	  141.54
     34.2945	  802.00	 1025.86	-1782.86	  141.45
     34.3280	 1660.00	 1675.06	-1574.06	  141.36
     34.3614	 2747.00	 2326.21	-1138.21	  141.27
     34.3948	 2660.00	 2510.35	-1409.35	  141.17
     34.4282	 2246.00	 2252.42	-1565.42	  141.08
     34.4616	 1865.00	 1856.42	-1550.42	  140.99
     34.4951	 1297.00	 1343.71	-1605.71	  140.90
     34.5285	  747.00	  866.75	-1678.75	  140.81
     34.5619	  445.00	  548.31	-1662.31	  140.72
     34.5953	  352.00	  377.86	-1584.86	  140.62
     34.6288	  260.00	  298.12	-1597.12	  140.53
     34.6622	  252.00	  260.03	-1567.03	  140.44
     34.6956	  245.00	  238.46	-1552.46	  140.35
     34.7290	  212.00	  224.15	-1571.15	  140.26
     34.7625	  221.00	  213.84	-1551.84	  140.17
     34.7959	  171.00	  206.16	-1594.16	  140.08
     34.8293	  211.00	  200.30	-1548.30	  139.98
     34.8627	  177.00	  195.75	-1577.75	  139.89
     34.8961	  213.00	  192.20	-1538.20	  139.80
     34.9296	  221.00	  189.39	-1527.39	  139.71
     34.9630	  206.00	  187.17	-1540.17	  139.62
     34.9964	  219.00	  185.43	-1525.43	  139.53
     35.0298	  222.00	  184.07	-1521.07	  139.44
     35.0633	  231.00	  183.03	-1511.03	  139.35
     35.0967	  209.00	  182.27	-1532.27	  139.26
     35.1301	  213.00	  181.75	-1527.75	  139.17
     35.1635	  220.00	  181.04	-1520.04	  139.08
     35.1969	  173.00	  180.96	-1566.96	  138.99
     35.2304	  243.00	  181.08	-1497.08	  138.90
     35.2638	  220.00	  181.18	-1520.18	  138.81
     35.2972	  196.00	  181.69	-1544.69	  138.72
     35.3306	  219.00	  182.40	-1522.40	  138.63
     35.3641	  195.00	  183.33	-1547.33	  138.54
     35.3975	  237.00	  184.49	-1506.49	  138.45
     35.4309	  222.00	  185.91	-1522.91	  138.36
     35.4643	  220.00	  187.61	-1526.61	  138.27
     35.4977	  224.00	  189.65	-1524.66	  138.18
     35.5312	  217.00	  192.08	-1534.08	  138.09
     35.5646	  185.00	  194.97	-1568.97	  138.00
     35.5980	  208.00	  198.40	-1549.40	  137.91
     35.6314	  229.00	  202.49	-1532.49	  137.82
     35.6649	  243.00	  207.39	-1523.39	  137.73
     35.6983	  243.00	  213.31	-1529.31	  137.64
     35.7317	  236.00	  220.51	-1543.51	  137.55
     35.7651	  230.00	  229.37	-1558.37	  137.46
     35.7985	  236.00	  240.39	-1563.39	  137.37
     35.8320	  289.00	  254.31	-1524.31	  137.28
     35.8654	  292.00	  272.22	-1539.22	  137.19
     35.8988	  328.00	  295.70	-1526.70	  137.11
     35.9322	  377.00	  327.33	-1509.33	  137.02
     35.9657	  407.00	  371.68	-1523.68	  136.93
     35.9991	  507.00	  439.51	-1491.51	  136.84
     36.0325	  607.00	  563.81	-1515.81	  136.75
     36.0659	  736.00	  839.94	-1662.94	  136.66
     36.0993	 1105.00	 1466.31	-1920.31	  136.57
     36.1328	 2188.00	 2665.61	-2036.61	  136.49
     36.1662	 4336.00	 4380.17	-1603.17	  136.40
     36.1996	 6236.00	 5841.60	-1164.60	  136.31
     36.2330	 5600.00	 5959.55	-1918.55	  136.22
     36.2665	 4837.00	 5206.31	-1928.31	  136.13
     36.2999	 4034.00	 4242.39	-1767.39	  136.05
     36.3333	 2780.00	 3003.32	-1782.32	  135.96
     36.3667	 1577.00	 1855.06	-1837.06	  135.87
     36.4002	  946.00	 1087.50	-1700.50	  135.78
     36.4336	  631.00	  676.56	-1604.56	  135.69
     36.4670	  484.00	  483.76	-1558.76	  135.61
     36.5004	  433.00	  390.65	-1516.65	  135.52
     36.5338	  344.00	  337.19	-1552.19	  135.43
     36.5673	  296.00	  301.22	-1564.22	  135.34
     36.6007	  292.00	  275.03	-1542.03	  135.26
     36.6341	  244.00	  255.21	-1570.21	  135.17
     36.6675	  205.00	  239.83	-1593.83	  135.08
     36.7010	  233.00	  227.66	-1553.66	  135.00
     36.7344	  257.00	  217.84	-1519.84	  134.91
     36.7678	  210.00	  209.82	-1558.82	  134.82
     36.8012	  175.00	  203.16	-1587.16	  134.73
     36.8346	  227.00	  197.58	-1529.58	  134.65
     36.8681	  183.00	  192.85	-1568.85	  134.56
     36.9015	  158.00	  188.80	-1589.80	  134.47
     36.9349	  191.00	  185.30	-1553.30	  134.39
     36.9683	  177.00	  182.26	-1564.26	  134.30
     37.0018	  171.00	  179.60	-1567.60	  134.22
     37.0352	  188.00	  177.26	-1548.26	  134.13
     37.0686	  169.00	  175.18	-1565.18	  134.04
     37.1020	  192.00	  173.32	-1540.32	  133.96
     37.1355	  192.00	  171.66	-1538.66	  133.87
     37.1689	  172.00	  170.16	-1557.16	  133.78
     37.2023	  184.00	  168.81	-1543.81	  133.70
     37.2357	  179.00	  167.58	-1547.58	  133.61
     37.2691	  176.00	  166.46	-1549.46	  133.53
     37.3026	  175.00	  165.43	-1549.43	  133.44
     37.3360	  172.00	  164.49	-1551.49	  133.35
     37.3694	  165.00	  163.62	-1557.62	  133.27
     37.4028	  168.00	  162.82	-1553.82	  133.18
     37.4363	  190.00	  162.07	-1531.07	  133.10
     37.4697	  167.00	  161.38	-1553.38	  133.01
     37.5031	  170.00	  160.74	-1549.74	  132.93
     37.5365	  154.00	  160.13	-1565.14	  132.84
     37.5699	  158.00	  159.57	-1560.57	  132.76
     37.6034	  153.00	  159.04	-1565.04	  132.67
     37.6368	  150.00	  158.54	-1567.54	  132.59
     37.6702	  183.00	  158.07	-1534.07	  132.50
     37.7036	  158.00	  157.62	-1558.62	  132.42
     37.7371	  125.00	  157.20	-1591.20	  132.33
     37.7705	  140.00	  156.80	-1575.80	  132.25
     37.8039	  140.00	  156.42	-1575.42	  132.16
     37.8373	  136.00	  155.71	-1578.71	  132.08
     37.8707	  161.00	  155.37	-1553.37	  131.99
     37.9042	  164.00	  155.05	-1550.05	  131.91
     37.9376	  156.00	  154.57	-1557.57	  131.82
     37.9710	  153.00	  154.28	-1560.28	  131.74
     38.0044	  150.00	  153.99	-1562.99	  131.66
     38.0379	  159.00	  153.72	-1553.72	  131.57
     38.0713	  148.00	  153.46	-1564.46	  131.49
     38.1047	  161.00	  153.21	-1551.21	  131.40
     38.1381	  149.00	  152.97	-1562.97	  131.32
     38.1715	  132.00	  152.73	-1579.73	  131.23
     38.2050	  167.00	  152.51	-1544.51	  131.15
     38.2384	  164.00	  152.29	-1547.29	  131.07
     38.2718	  159.00	  152.07	-1552.07	  130.98
     38.3052	  156.00	  151.87	-1554.87	  130.90
     38.3387	  137.00	  151.66	-1573.66	  130.82
     38.3721	  130.00	  151.47	-1580.47	  130.73
     38.4055	  138.00	  151.28	-1572.28	  130.65
     38.4389	  154.00	  151.09	-1556.09	  130.57
     38.4724	  122.00	  150.91	-1587.91	  130.48
     38.5058	  139.00	  150.74	-1570.74	  130.40
     38.5392	  167.00	  150.57	-1542.57	  130.32
     38.5726	  162.00	  150.40	-1547.40	  130.23
     38.6060	  127.00	  150.23	-1582.23	  130.15
     38.6395	  142.00	  150.07	-1567.07	  130.07
     38.6729	  116.00	  149.91	-1592.91	  129.98
     38.7063	  150.00	  149.76	-1558.76	  129.90
     38.7397	  130.00	  149.61	-1578.61	  129.82
     38.7732	  144.00	  149.46	-1564.46	  129.74
     38.8066	  118.00	  149.31	-1590.31	  129.65
     38.8400	  140.00	  149.17	-1568.17	  129.57
     38.8734	  152.00	  149.03	-1556.03	  129.49
     38.9068	  145.00	  148.89	-1562.89	  129.41
     38.9403	  123.00	  148.75	-1584.75	  129.32
     38.9737	  115.00	  148.61	-1592.61	  129.24
     39.0071	  150.00	  148.48	-1557.48	  129.16
     39.0405	  168.00	  148.35	-1539.35	  129.08
     39.0740	  132.00	  148.22	-1575.22	  128.99
     39.1074	  122.00	  148.09	-1585.09	  128.91
     39.1408	  149.00	  147.97	-1557.97	  128.83
     39.1742	  161.00	  147.84	-1545.84	  128.75
     39.2076	  135.00	  147.72	-1571.72	  128.67
     39.2411	  125.00	  147.60	-1581.60	  128.59
     39.2745	  132.00	  147.48	-1574.48	  128.50
     39.3079	  127.00	  147.36	-1579.36	  128.42
     39.3413	  145.00	  147.24	-1561.24	  128.34
     39.3748	  144.00	  147.12	-1562.12	  128.26
     39.4082	  148.00	  147.01	-1558.01	  128.18
     39.4416	  127.00	  146.89	-1578.89	  128.10
     39.4750	  133.00	  146.78	-1572.78	  128.01
     39.5084	  129.00	  146.67	-1576.67	  127.93
     39.5419	  117.00	  146.56	-1588.56	  127.85
     39.5753	  131.00	  146.45	-1574.45	  127.77
     39.6087	  161.00	  146.34	-1544.34	  127.69
     39.6421	  141.00	  146.23	-1564.23	  127.61
     39.6756	  127.00	  145.24	-1577.24	  127.53
     39.7090	  131.00	  145.15	-1573.15	  127.45
     39.7424	  143.00	  145.06	-1561.06	  127.37
     39.7758	  146.00	  144.54	-1557.54	  127.29
     39.8093	  124.00	  144.46	-1579.46	  127.21
     39.8427	  127.00	  144.38	-1576.38	  127.13
     39.8761	  129.00	  144.30	-1574.30	  127.05
     39.9095	  104.00	  144.22	-1599.22	  126.97
     39.9429	  143.00	  144.14	-1560.14	  126.88
     39.9764	  150.00	  144.06	-1553.06	  126.80
     40.0098	  132.00	  143.98	-1570.98	  126.72
     40.0432	  128.00	  143.90	-1574.90	  126.64
     40.0766	  140.00	  143.82	-1562.82	  126.56
     40.1101	  149.00	  143.74	-1553.74	  126.48
     40.1435	  122.00	  143.66	-1580.66	  126.40
     40.1769	  129.00	  143.58	-1573.58	  126.32
     40.2103	  127.00	  143.50	-1575.50	  126.25
     40.2437	  136.00	  143.42	-1566.42	  126.17
     40.2772	  149.00	  143.34	-1553.34	  126.09
     40.3106	  167.00	  143.26	-1535.26	  126.01
     40.3440	  149.00	  143.18	-1553.18	  125.93
     40.3774	  136.00	  143.10	-1566.10	  125.85
     40.4109	  145.00	  143.02	-1557.02	  125.77
     40.4443	  136.00	  142.94	-1565.94	  125.69
     40.4777	  126.00	  142.86	-1575.86	  125.61
     40.5111	  123.00	  142.78	-1578.78	  125.53
     40.5445	  144.00	  142.70	-1557.70	  125.45
     40.5780	  143.00	  142.62	-1558.62	  125.37
     40.6114	  142.00	  142.55	-1559.55	  125.29
     40.6448	  153.00	  142.47	-1548.47	  125.21
     40.6782	  125.00	  142.39	-1576.39	  125.14
     40.7117	  131.00	  142.31	-1570.31	  125.06
     40.7451	  133.00	  142.23	-1568.23	  124.98
     40.7785	  127.00	  142.15	-1574.15	  124.90
     40.8119	  136.00	  142.07	-1565.07	  124.82
     40.8454	  135.00	  142.00	-1566.00	  124.74
     40.8788	  158.00	  141.92	-1542.92	  124.66
     40.9122	  129.00	  141.84	-1571.84	  124.59
     40.9456	  123.00	  141.76	-1577.76	  124.51
     40.9790	  140.00	  141.68	-1560.68	  124.43
     41.0125	  132.00	  141.60	-1568.60	  124.35
     41.0459	  130.00	  141.53	-1570.53	  124.27
     41.0793	  114.00	  141.45	-1586.45	  124.20
     41.1127	  123.00	  141.37	-1577.37	  124.12
     41.1462	  143.00	  141.29	-1557.29	  124.04
     41.1796	  125.00	  141.21	-1575.21	  123.96
     41.2130	  126.00	  141.14	-1574.14	  123.89
     41.2464	  110.00	  141.06	-1590.06	  123.81
     41.2798	  140.00	  140.98	-1559.98	  123.73
     41.3133	  159.00	  140.90	-1540.90	  123.65
     41.3467	  125.00	  140.83	-1574.83	  123.57
     41.3801	  117.00	  140.75	-1582.75	  123.50
     41.4135	  117.00	  140.67	-1582.67	  123.42
     41.4470	  118.00	  140.59	-1581.59	  123.34
     41.4804	  103.00	  140.52	-1596.52	  123.27
     41.5138	  163.00	  140.44	-1536.44	  123.19
     41.5472	  131.00	  140.36	-1568.36	  123.11
     41.5807	  145.00	  140.29	-1554.29	  123.03
     41.6141	  145.00	  140.21	-1554.21	  122.96
     41.6475	  139.00	  140.13	-1560.13	  122.88
     41.6809	  136.00	  140.06	-1563.06	  122.80
     41.7143	  117.00	  139.98	-1581.98	  122.73
     41.7478	  117.00	  139.90	-1581.90	  122.65
     41.7812	  105.00	  139.83	-1593.83	  122.57
     41.8146	  131.00	  139.75	-1567.75	  122.50
     41.8480	  135.00	  139.67	-1563.67	  122.42
     41.8815	  142.00	  139.60	-1556.60	  122.35
     41.9149	  111.00	  139.52	-1587.52	  122.27
     41.9483	  116.00	  139.44	-1582.44	  122.19
     41.9817	  112.00	  139.37	-1586.37	  122.12
     42.0151	  132.00	  139.29	-1566.29	  122.04
     42.0486	  146.00	  139.22	-1552.22	  121.96
     42.0820	  148.00	  139.14	-1550.14	  121.89
     42.1154	  139.00	  139.06	-1559.06	  121.81
     42.1488	  119.00	  138.99	-1578.99	  121.74
     42.1823	  127.00	  138.91	-1570.91	  121.66
     42.2157	  122.00	  138.84	-1575.84	  121.59
     42.2491	  128.00	  138.76	-1569.76	  121.51
     42.2825	  116.00	  138.69	-1581.69	  121.43
     42.3159	  131.00	  138.61	-1566.61	  121.36
     42.3494	  135.00	  138.54	-1562.54	  121.28
     42.3828	  145.00	  138.46	-1552.46	  121.21
     42.4162	  122.00	  138.38	-1575.38	  121.13
     42.4496	  109.00	  138.31	-1588.31	  121.06
     42.4831	  131.00	  138.23	-1566.23	  120.98
     42.5165	  125.00	  138.16	-1572.16	  120.91
     42.5499	  123.00	  138.08	-1574.08	  120.83
     42.5833	  135.00	  138.01	-1562.01	  120.76
     42.6167	  135.00	  137.93	-1561.93	  120.68
     42.6502	  112.00	  137.86	-1584.86	  120.61
     42.6836	  133.00	  137.78	-1563.78	  120.53
     42.7170	  137.00	  137.71	-1559.71	  120.46
     42.7504	  156.00	  137.64	-1540.64	  120.38
     42.7839	  139.00	  137.56	-1557.56	  120.31
     42.8173	  115.00	  137.49	-1581.49	  120.23
     42.8507	  123.00	  137.41	-1573.41	  120.16
     42.8841	  129.00	  137.34	-1567.34	  120.09
     42.9175	  135.00	  137.26	-1561.26	  120.01
     42.9510	  130.00	  137.19	-1566.19	  119.94
     42.9844	  149.00	  137.11	-1547.11	  119.86
     43.0178	  112.00	  137.04	-1584.04	  119.79
     43.0512	  129.00	  136.97	-1566.97	  119.71
     43.0847	  116.00	  136.89	-1579.89	  119.64
     43.1181	  137.00	  136.82	-1558.82	  119.57
     43.1515	  117.00	  136.75	-1578.74	  119.49
     43.1849	  135.00	  136.67	-1560.67	  119.42
     43.2184	  116.00	  136.60	-1579.60	  119.35
     43.2518	  143.00	  136.52	-1552.52	  119.27
     43.2852	  153.00	  136.45	-1542.45	  119.20
     43.3186	  136.00	  136.38	-1559.38	  119.12
     43.3520	  122.00	  136.30	-1573.30	  119.05
     43.3855	  137.00	  136.23	-1558.23	  118.98
     43.4189	  145.00	  136.16	-1550.16	  118.90
     43.4523	   95.00	  136.08	-1600.08	  118.83
     43.4857	  126.00	  136.01	-1569.01	  118.76
     43.5192	  139.00	  135.94	-1555.94	  118.69
     43.5526	  114.00	  135.86	-1580.86	  118.61
     43.5860	  141.00	  135.79	-1553.79	  118.54
     43.6194	  111.00	  135.72	-1583.72	  118.47
     43.6528	  118.00	  135.65	-1576.65	  118.39
     43.6863	  116.00	  135.57	-1578.57	  118.32
     43.7197	  144.00	  135.50	-1550.50	  118.25
     43.7531	  145.00	  135.43	-1549.43	  118.18
     43.7865	  149.00	  135.35	-1545.35	  118.10
     43.8200	  119.00	  135.28	-1575.28	  118.03
     43.8534	  125.00	  135.21	-1569.21	  117.96
     43.8868	  145.00	  135.14	-1549.14	  117.89
     43.9202	  128.00	  135.06	-1566.06	  117.81
     43.9536	  124.00	  135.16	-1570.16	  117.74
     43.9871	  121.00	  135.09	-1573.09	  117.67
     44.0205	  137.00	  135.02	-1557.02	  117.60
     44.0539	  140.00	  134.95	-1553.95	  117.52
     44.0873	  121.00	  134.97	-1572.97	  117.45
     44.1208	  126.00	  134.90	-1567.90	  117.38
     44.1542	  119.00	  134.83	-1574.83	  117.31
     44.1876	  116.00	  134.77	-1577.77	  117.24
     44.2210	  142.00	  134.70	-1551.70	  117.16
     44.2544	  128.00	  134.64	-1565.64	  117.09
     44.2879	  122.00	  134.57	-1571.57	  117.02
     44.3213	  140.00	  134.50	-1553.50	  116.95
     44.3547	  131.00	  134.44	-1562.44	  116.88
     44.3881	  129.00	  134.37	-1564.37	  116.81
     44.4216	  153.00	  134.31	-1540.31	  116.74
     44.4550	  119.00	  134.25	-1574.25	  116.66
     44.4884	  135.00	  134.18	-1558.18	  116.59
     44.5218	  117.00	  134.12	-1576.12	  116.52
     44.5553	  105.00	  134.05	-1588.05	  116.45
     44.5887	  113.00	  133.99	-1579.99	  116.38
     44.6221	  144.00	  133.93	-1548.93	  116.31
     44.6555	  130.00	  133.87	-1562.87	  116.24
     44.6889	  121.00	  133.80	-1571.80	  116.17
     44.7224	  124.00	  133.74	-1568.74	  116.10
     44.7558	  127.00	  133.68	-1565.68	  116.03
     44.7892	  136.00	  133.62	-1556.62	  115.95
     44.8226	  115.00	  133.56	-1577.56	  115.88
     44.8561	  145.00	  133.50	-1547.50	  115.81
     44.8895	  127.00	  133.44	-1565.44	  115.74
     44.9229	  137.00	  133.38	-1555.38	  115.67
     44.9563	  133.00	  133.32	-1559.32	  115.60
     44.9897	  132.00	  133.27	-1560.27	  115.53
     45.0232	  122.00	  133.21	-1570.21	  115.46
     45.0566	  143.00	  133.15	-1549.15	  115.39
     45.0900	  145.00	  133.10	-1547.10	  115.32
     45.1234	  118.00	  133.04	-1574.04	  115.25
     45.1569	  138.00	  132.99	-1553.99	  115.18
     45.1903	  114.00	  132.93	-1577.93	  115.11
     45.2237	  119.00	  132.88	-1572.88	  115.04
     45.2571	  106.00	  132.83	-1585.83	  114.97
     45.2906	  122.00	  132.77	-1569.77	  114.90
     45.3240	  118.00	  132.72	-1573.72	  114.83
     45.3574	  126.00	  132.67	-1565.67	  114.76
     45.3908	  131.00	  132.62	-1560.62	  114.69
     45.4242	  136.00	  132.58	-1555.58	  114.62
     45.4577	  112.00	  132.53	-1579.53	  114.55
     45.4911	  118.00	  132.48	-1573.48	  114.49
     45.5245	  144.00	  132.44	-1547.44	  114.42
     45.5579	  118.00	  132.40	-1573.40	  114.35
     45.5914	  122.00	  132.36	-1569.36	  114.28
     45.6248	  126.00	  132.32	-1565.32	  114.21
     45.6582	  132.00	  132.28	-1559.28	  114.14
     45.6916	  127.00	  132.24	-1564.24	  114.07
     45.7250	  124.00	  132.21	-1567.21	  114.00
     45.7585	  124.00	  132.17	-1567.17	  113.93
     45.7919	  142.00	  132.14	-1549.14	  113.86
     45.8253	  122.00	  132.12	-1569.12	  113.80
     45.8587	  102.00	  132.09	-1589.09	  113.73
     45.8922	  124.00	  132.07	-1567.07	  113.66
     45.9256	  116.00	  132.05	-1575.05	  113.59
     45.9590	  135.00	  132.03	-1556.03	  113.52
     45.9924	  136.00	  132.02	-1555.02	  113.45
     46.0258	  135.00	  132.01	-1556.01	  113.38
     46.0593	  150.00	  132.00	-1541.00	  113.32
     46.0927	  131.00	  132.00	-1560.00	  113.25
     46.1261	  143.00	  132.01	-1548.01	  113.18
     46.1595	  137.00	  132.02	-1554.02	  113.11
     46.1930	  131.00	  132.03	-1560.03	  113.04
     46.2264	  115.00	  132.05	-1576.05	  112.98
     46.2598	  133.00	  132.08	-1558.08	  112.91
     46.2932	  141.00	  132.12	-1550.12	  112.84
     46.3266	  143.00	  132.17	-1548.17	  112.77
     46.3601	  122.00	  132.22	-1569.22	  112.70
     46.3935	  143.00	  132.29	-1548.29	  112.64
     46.4269	  128.00	  132.37	-1563.37	  112.57
     46.4603	  135.00	  132.46	-1556.46	  112.50
     46.4938	  127.00	  132.57	-1564.57	  112.43
     46.5272	  143.00	  132.70	-1548.70	  112.37
     46.5606	  155.00	  132.85	-1536.85	  112.30
     46.5940	  132.00	  133.02	-1560.02	  112.23
     46.6274	  149.00	  133.22	-1543.22	  112.16
     46.6609	  139.00	  133.45	-1553.45	  112.10
     46.6943	  145.00	  133.71	-1547.71	  112.03
     46.7277	  133.00	  134.02	-1560.02	  111.96
     46.7611	  140.00	  134.38	-1553.38	  111.90
     46.7946	  142.00	  134.80	-1551.80	  111.83
     46.8280	  143.00	  135.29	-1551.29	  111.76
     46.8614	  150.00	  135.87	-1544.87	  111.70
     46.8948	  116.00	  136.54	-1579.54	  111.63
     46.9283	  137.00	  137.35	-1559.35	  111.56
     46.9617	  123.00	  138.32	-1574.32	  111.50
     46.9951	  148.00	  139.48	-1550.48	  111.43
     47.0285	  128.00	  140.90	-1571.90	  111.36
     47.0619	  145.00	  142.65	-1556.65	  111.30
     47.0954	  143.00	  144.83	-1560.83	  111.23
     47.1288	  156.00	  147.60	-1550.60	  111.16
     47.1622	  152.00	  151.17	-1558.17	  111.10
     47.1956	  167.00	  155.89	-1547.89	  111.03
     47.2291	  175.00	  162.30	-1546.30	  110.97
     47.2625	  202.00	  171.46	-1528.46	  110.90
     47.2959	  194.00	  186.20	-1551.20	  110.83
     47.3293	  200.00	  215.09	-1574.09	  110.77
     47.3627	  250.00	  280.25	-1589.25	  110.70
     47.3962	  345.00	  419.73	-1633.73	  110.64
     47.4296	  584.00	  661.15	-1636.15	  110.57
     47.4630	  963.00	  960.77	-1556.77	  110.50
     47.4964	 1129.00	 1141.44	-1571.44	  110.44
     47.5299	  995.00	 1065.70	-1629.70	  110.37
     47.5633	  782.00	  909.98	-1686.98	  110.31
     47.5967	  820.00	  814.85	-1553.85	  110.24
     47.6301	  734.00	  714.47	-1539.47	  110.18
     47.6636	  521.00	  546.61	-1584.61	  110.11
     47.6970	  358.00	  381.98	-1582.98	  110.05
     47.7304	  257.00	  269.64	-1571.64	  109.98
     47.7638	  233.00	  209.21	-1535.21	  109.92
     47.7972	  197.00	  180.57	-1542.57	  109.85
     47.8307	  144.00	  166.34	-1581.34	  109.79
     47.8641	  167.00	  157.89	-1549.89	  109.72
     47.8975	  136.00	  152.07	-1575.07	  109.66
     47.9309	  156.00	  147.76	-1550.76	  109.59
     47.9644	  139.00	  144.45	-1564.45	  109.53
     47.9978	  132.00	  141.84	-1568.84	  109.46
     48.0312	  131.00	  139.75	-1567.75	  109.40
     48.0646	  161.00	  138.05	-1536.05	  109.33
     48.0980	  119.00	  136.63	-1576.63	  109.27
     48.1315	  143.00	  135.44	-1551.44	  109.20
     48.1649	  123.00	  134.43	-1570.43	  109.14
     48.1983	  121.00	  133.57	-1571.57	  109.08
     48.2317	  133.00	  132.81	-1558.81	  109.01
     48.2652	  130.00	  132.16	-1561.16	  108.95
     48.2986	  126.00	  131.57	-1564.57	  108.88
     48.3320	  149.00	  131.06	-1541.06	  108.82
     48.3654	  129.00	  130.60	-1560.60	  108.75
     48.3988	  124.00	  130.18	-1565.18	  108.69
     48.4323	  128.00	  129.80	-1560.80	  108.63
     48.4657	  124.00	  129.46	-1564.46	  108.56
     48.4991	  143.00	  129.15	-1545.15	  108.50
     48.5325	  131.00	  128.86	-1556.86	  108.44
     48.5660	  119.00	  128.59	-1568.59	  108.37
     48.5994	  130.00	  128.34	-1557.34	  108.31
     48.6328	  125.00	  128.11	-1562.11	  108.24
     48.6662	  129.00	  127.89	-1557.89	  108.18
     48.6996	  129.00	  127.69	-1557.69	  108.12
     48.7331	  111.00	  127.50	-1575.50	  108.05
     48.7665	  105.00	  127.32	-1581.32	  107.99
     48.7999	  137.00	  127.15	-1549.15	  107.93
     48.8333	  126.00	  126.98	-1559.98	  107.86
     48.8668	  137.00	  126.83	-1548.83	  107.80
     48.9002	  132.00	  126.68	-1553.68	  107.74
     48.9336	  116.00	  126.53	-1569.53	  107.68
     48.9670	  113.00	  126.40	-1572.40	  107.61
     49.0005	  106.00	  126.26	-1579.26	  107.55
     49.0339	  119.00	  126.14	-1566.14	  107.49
     49.0673	  132.00	  126.01	-1553.01	  107.42
     49.1007	  123.00	  125.89	-1561.89	  107.36
     49.1341	  117.00	  125.78	-1567.78	  107.30
     49.1676	  123.00	  125.67	-1561.67	  107.24
     49.2010	  122.00	  125.56	-1562.56	  107.17
     49.2344	  102.00	  125.45	-1582.45	  107.11
     49.2678	  114.00	  125.35	-1570.34	  107.05
     49.3013	  124.00	  125.24	-1560.24	  106.99
     49.3347	  130.00	  125.14	-1554.14	  106.92
     49.3681	  111.00	  125.05	-1573.05	  106.86
     49.4015	  117.00	  124.95	-1566.95	  106.80
     49.4349	  113.00	  124.86	-1570.86	  106.74
     49.4684	  102.00	  124.77	-1581.77	  106.67
     49.5018	  138.00	  124.68	-1545.68	  106.61
     49.5352	  132.00	  124.59	-1551.59	  106.55
     49.5686	  151.00	  124.50	-1532.50	  106.49
     49.6021	  128.00	  124.41	-1555.41	  106.43
     49.6355	  118.00	  124.33	-1565.33	  106.37
     49.6689	  106.00	  124.24	-1577.24	  106.30
     49.7023	  112.00	  124.16	-1571.16	  106.24
     49.7357	  119.00	  124.08	-1564.08	  106.18
     49.7692	  124.00	  124.00	-1559.00	  106.12
     49.8026	  145.00	  123.92	-1537.92	  106.06
     49.8360	  142.00	  123.84	-1540.84	  106.00
     49.8694	  109.00	  123.76	-1573.76	  105.93
     49.9029	  131.00	  123.68	-1551.68	  105.87
     49.9363	  109.00	  123.61	-1573.61	  105.81
     49.9697	  124.00	  123.53	-1558.53	  105.75
     50.0031	  121.00	  123.46	-1561.46	  105.69
     50.0366	  116.00	  123.38	-1566.38	  105.63
     50.0700	  128.00	  123.31	-1554.31	  105.57
     50.1034	  128.00	  123.23	-1554.23	  105.51
     50.1368	  112.00	  123.16	-1570.16	  105.45
     50.1702	  117.00	  123.09	-1565.09	  105.39
     50.2037	  103.00	  123.02	-1579.02	  105.32
     50.2371	  138.00	  122.94	-1543.94	  105.26
     50.2705	  112.00	  122.87	-1569.87	  105.20
     50.3039	  105.00	  122.80	-1576.80	  105.14
     50.3374	  121.00	  122.73	-1560.73	  105.08
     50.3708	  118.00	  122.66	-1563.66	  105.02
     50.4042	  117.00	  122.59	-1564.59	  104.96
     50.4376	  105.00	  122.52	-1576.52	  104.90
     50.4710	  128.00	  122.46	-1553.46	  104.84
     50.5045	  137.00	  122.39	-1544.39	  104.78
     50.5379	  115.00	  122.32	-1566.32	  104.72
     50.5713	  114.00	  122.25	-1567.25	  104.66
     50.6047	  114.00	  122.18	-1567.18	  104.60
     50.6382	  132.00	  122.12	-1549.12	  104.54
     50.6716	  119.00	  122.05	-1562.05	  104.48
     50.7050	  109.00	  121.98	-1571.98	  104.42
     50.7384	  106.00	  121.92	-1574.92	  104.36
     50.7718	  108.00	  121.85	-1572.85	  104.30
     50.8053	  126.00	  121.79	-1554.79	  104.24
     50.8387	  115.00	  121.72	-1565.72	  104.18
     50.8721	  116.00	  121.65	-1564.65	  104.12
     50.9055	  123.00	  121.59	-1557.59	  104.06
     50.9390	  104.00	  121.52	-1576.52	  104.00
     50.9724	  102.00	  121.46	-1578.46	  103.94
     51.0058	  114.00	  121.40	-1566.40	  103.88
     51.0392	  126.00	  121.33	-1554.33	  103.82
     51.0726	  110.00	  121.10	-1570.10	  103.76
     51.1061	  117.00	  121.04	-1563.04	  103.71
     51.1395	  117.00	  120.98	-1562.98	  103.65
     51.1729	  118.00	  120.84	-1561.84	  103.59
     51.2063	  109.00	  120.78	-1570.78	  103.53
     51.2398	   95.00	  120.72	-1584.72	  103.47
     51.2732	  113.00	  120.66	-1566.66	  103.41
     51.3066	  118.00	  120.60	-1561.60	  103.35
     51.3400	   96.00	  120.54	-1583.54	  103.29
     51.3735	  105.00	  120.49	-1574.49	  103.23
     51.4069	  121.00	  120.43	-1558.43	  103.18
     51.4403	  127.00	  120.37	-1552.37	  103.12
     51.4737	  110.00	  120.31	-1569.31	  103.06
     51.5071	  109.00	  120.25	-1570.25	  103.00
     51.5406	  108.00	  120.19	-1571.19	  102.94
     51.5740	  128.00	  120.13	-1551.13	  102.88
     51.6074	  121.00	  120.08	-1558.08	  102.82
     51.6408	  133.00	  120.02	-1546.02	  102.77
     51.6743	  102.00	  119.96	-1576.96	  102.71
     51.7077	  127.00	  119.90	-1551.90	  102.65
     51.7411	  110.00	  119.84	-1568.84	  102.59
     51.7745	  124.00	  119.79	-1554.79	  102.53
     51.8079	  106.00	  119.73	-1572.73	  102.48
     51.8414	  116.00	  119.67	-1562.67	  102.42
     51.8748	  123.00	  119.61	-1555.61	  102.36
     51.9082	  128.00	  119.55	-1550.55	  102.30
     51.9416	  121.00	  119.50	-1557.50	  102.24
     51.9751	  126.00	  119.44	-1552.44	  102.19
     52.0085	  128.00	  119.38	-1550.38	  102.13
     52.0419	  117.00	  119.32	-1561.32	  102.07
     52.0753	  105.00	  119.27	-1573.27	  102.01
     52.1087	  115.00	  119.21	-1563.21	  101.96
     52.1422	   94.00	  119.15	-1584.15	  101.90
     52.1756	  103.00	  119.09	-1575.09	  101.84
     52.2090	  116.00	  119.04	-1562.04	  101.78
     52.2424	  105.00	  118.98	-1572.98	  101.73
     52.2759	  137.00	  118.92	-1540.92	  101.67
     52.3093	  109.00	  118.86	-1568.86	  101.61
     52.3427	  106.00	  118.81	-1571.81	  101.56
     52.3761	  105.00	  118.75	-1572.75	  101.50
     52.4096	   97.00	  118.69	-1580.69	  101.44
     52.4430	  111.00	  118.64	-1566.64	  101.38
     52.4764	  101.00	  118.58	-1576.58	  101.33
     52.5098	  116.00	  118.52	-1561.52	  101.27
     52.5432	  105.00	  118.47	-1572.47	  101.21
     52.5767	  110.00	  118.41	-1567.41	  101.16
     52.6101	  128.00	  118.35	-1549.35	  101.10
     52.6435	  112.00	  118.30	-1565.30	  101.04
     52.6769	  111.00	  118.24	-1566.24	  100.99
     52.7104	  121.00	  118.18	-1556.18	  100.93
     52.7438	  124.00	  118.13	-1553.13	  100.87
     52.7772	  125.00	  118.07	-1552.07	  100.82
     52.8106	  123.00	  118.01	-1554.01	  100.76
     52.8440	  106.00	  117.96	-1570.96	  100.71
     52.8775	  118.00	  117.90	-1558.90	  100.65
     52.9109	  123.00	  117.85	-1553.85	  100.59
     52.9443	  124.00	  117.99	-1552.99	  100.54
     52.9777	  129.00	  117.94	-1547.94	  100.48
     53.0112	  112.00	  117.89	-1564.89	  100.43
     53.0446	  116.00	  117.83	-1560.83	  100.37
     53.0780	  112.00	  117.88	-1564.88	  100.31
     53.1114	  108.00	  117.83	-1568.83	  100.26
     53.1448	  118.00	  117.78	-1558.78	  100.20
     53.1783	  105.00	  117.73	-1571.73	  100.15
     53.2117	  115.00	  117.68	-1561.68	  100.09
     53.2451	  110.00	  117.64	-1566.64	  100.03
     53.2785	  119.00	  117.59	-1557.59	   99.98
     53.3120	  123.00	  117.54	-1553.54	   99.92
     53.3454	  126.00	  117.49	-1550.49	   99.87
     53.3788	   98.00	  117.44	-1578.44	   99.81
     53.4122	  104.00	  117.40	-1572.40	   99.76
     53.4456	  106.00	  117.35	-1570.35	   99.70
     53.4791	   97.00	  117.30	-1579.30	   99.65
     53.5125	  100.00	  117.26	-1576.26	   99.59
     53.5459	  118.00	  117.21	-1558.21	   99.54
     53.5793	  112.00	  117.16	-1564.16	   99.48
     53.6128	  129.00	  117.12	-1547.12	   99.43
     53.6462	  115.00	  117.07	-1561.07	   99.37
     53.6796	  110.00	  117.03	-1566.03	   99.32
     53.7130	  116.00	  116.98	-1559.98	   99.26
     53.7465	  122.00	  116.94	-1553.94	   99.21
     53.7799	  102.00	  116.90	-1573.90	   99.15
     53.8133	  119.00	  116.86	-1556.86	   99.10
     53.8467	  115.00	  116.81	-1560.81	   99.04
     53.8801	  100.00	  116.77	-1575.77	   98.99
     53.9136	   99.00	  116.73	-1576.73	   98.93
     53.9470	  121.00	  116.69	-1554.69	   98.88
     53.9804	  148.00	  116.65	-1527.65	   98.83
     54.0138	  115.00	  116.61	-1560.61	   98.77
     54.0473	  108.00	  116.57	-1567.57	   98.72
     54.0807	  125.00	  116.53	-1550.53	   98.66
     54.1141	  104.00	  116.50	-1571.50	   98.61
     54.1475	  101.00	  116.46	-1574.46	   98.55
     54.1809	  101.00	  116.42	-1574.42	   98.50
     54.2144	   99.00	  116.39	-1576.39	   98.45
     54.2478	  117.00	  116.35	-1558.35	   98.39
     54.2812	  122.00	  116.32	-1553.32	   98.34
     54.3146	  118.00	  116.29	-1557.29	   98.29
     54.3481	  109.00	  116.26	-1566.26	   98.23
     54.3815	  118.00	  116.23	-1557.23	   98.18
     54.4149	  117.00	  116.20	-1558.20	   98.12
     54.4483	  115.00	  116.17	-1560.17	   98.07
     54.4818	  137.00	  116.14	-1538.14	   98.02
     54.5152	  105.00	  116.12	-1570.12	   97.96
     54.5486	  137.00	  116.09	-1538.09	   97.91
     54.5820	  121.00	  116.07	-1554.07	   97.86
     54.6154	  101.00	  116.05	-1574.05	   97.80
     54.6489	  116.00	  116.03	-1559.03	   97.75
     54.6823	  125.00	  116.02	-1550.02	   97.70
     54.7157	  124.00	  116.00	-1551.00	   97.64
     54.7491	  112.00	  115.99	-1562.99	   97.59
     54.7825	  144.00	  115.98	-1530.98	   97.54
     54.8160	  140.00	  115.97	-1534.97	   97.48
     54.8494	  114.00	  115.96	-1560.96	   97.43
     54.8828	  113.00	  115.96	-1561.96	   97.38
     54.9162	  108.00	  115.96	-1566.96	   97.33
     54.9497	  118.00	  115.97	-1556.97	   97.27
     54.9831	  127.00	  115.97	-1547.97	   97.22
     55.0165	  135.00	  115.98	-1539.98	   97.17
     55.0499	  144.00	  116.00	-1531.00	   97.11
     55.0834	  111.00	  116.02	-1564.02	   97.06
     55.1168	  100.00	  116.05	-1575.05	   97.01
     55.1502	  126.00	  116.08	-1549.08	   96.96
     55.1836	  113.00	  116.11	-1562.11	   96.90
     55.2170	  108.00	  116.16	-1567.16	   96.85
     55.2505	  119.00	  116.21	-1556.21	   96.80
     55.2839	  129.00	  116.27	-1546.27	   96.75
     55.3173	  125.00	  116.34	-1550.34	   96.70
     55.3507	  119.00	  116.41	-1556.41	   96.64
     55.3842	  142.00	  116.50	-1533.50	   96.59
     55.4176	  123.00	  116.60	-1552.60	   96.54
     55.4510	  135.00	  116.72	-1540.72	   96.49
     55.4844	   99.00	  116.85	-1576.85	   96.44
     55.5178	  112.00	  117.00	-1564.00	   96.38
     55.5513	  124.00	  117.16	-1552.16	   96.33
     55.5847	  114.00	  117.35	-1562.35	   96.28
     55.6181	  129.00	  117.57	-1547.57	   96.23
     55.6515	  126.00	  117.81	-1550.81	   96.18
     55.6850	  123.00	  118.08	-1554.08	   96.12
     55.7184	  131.00	  118.40	-1546.40	   96.07
     55.7518	  142.00	  118.76	-1535.76	   96.02
     55.7852	  137.00	  119.17	-1541.17	   95.97
     55.8186	  121.00	  119.64	-1557.64	   95.92
     55.8521	  116.00	  120.19	-1563.19	   95.87
     55.8855	  141.00	  120.82	-1538.82	   95.82
     55.9189	  152.00	  121.56	-1528.56	   95.76
     55.9523	  114.00	  122.43	-1567.43	   95.71
     55.9858	  118.00	  123.45	-1564.45	   95.66
     56.0192	  137.00	  124.66	-1546.66	   95.61
     56.0526	  143.00	  126.12	-1542.12	   95.56
     56.0860	  137.00	  127.89	-1549.89	   95.51
     56.1195	  131.00	  130.07	-1558.07	   95.46
     56.1529	  161.00	  132.77	-1530.77	   95.41
     56.1863	  150.00	  136.19	-1545.19	   95.36
     56.2197	  177.00	  140.59	-1522.59	   95.31
     56.2531	  164.00	  146.39	-1541.39	   95.25
     56.2866	  186.00	  154.28	-1527.28	   95.20
     56.3200	  185.00	  165.63	-1539.63	   95.15
     56.3534	  192.00	  184.22	-1551.22	   95.10
     56.3868	  234.00	  221.20	-1546.20	   95.05
     56.4203	  292.00	  303.31	-1570.31	   95.00
     56.4537	  431.00	  472.78	-1600.78	   94.95
     56.4871	  729.00	  755.18	-1585.18	   94.90
     56.5205	 1330.00	 1090.63	-1319.63	   94.85
     56.5539	 1598.00	 1270.89	-1231.89	   94.80
     56.5874	 1236.00	 1145.62	-1468.62	   94.75
     56.6208	  856.00	  926.83	-1629.83	   94.70
     56.6542	  827.00	  815.86	-1547.86	   94.65
     56.6876	  951.00	  799.77	-1407.77	   94.60
     56.7211	  843.00	  725.88	-1441.88	   94.55
     56.7545	  594.00	  553.17	-1518.17	   94.50
     56.7879	  378.00	  380.99	-1561.99	   94.45
     56.8213	  285.00	  263.81	-1537.81	   94.40
     56.8547	  217.00	  200.82	-1542.82	   94.35
     56.8882	  185.00	  170.69	-1544.69	   94.30
     56.9216	  166.00	  155.48	-1548.48	   94.25
     56.9550	  155.00	  146.34	-1550.34	   94.20
     56.9884	  142.00	  140.00	-1557.00	   94.15
     57.0219	  136.00	  135.26	-1558.26	   94.10
     57.0553	  129.00	  131.61	-1561.61	   94.05
     57.0887	  130.00	  128.73	-1557.73	   94.00
     57.1221	  111.00	  126.41	-1574.41	   93.95
     57.1555	  125.00	  124.51	-1558.51	   93.90
     57.1890	  116.00	  122.93	-1565.93	   93.86
     57.2224	  132.00	  121.60	-1548.60	   93.81
     57.2558	  123.00	  120.47	-1556.47	   93.76
     57.2892	  130.00	  119.50	-1548.50	   93.71
     57.3227	  123.00	  118.66	-1554.66	   93.66
     57.3561	  132.00	  117.92	-1544.92	   93.61
     57.3895	  140.00	  117.27	-1536.27	   93.56
     57.4229	  148.00	  116.70	-1527.70	   93.51
     57.4564	  124.00	  116.19	-1551.19	   93.46
     57.4898	  110.00	  115.73	-1564.73	   93.41
     57.5232	  123.00	  115.31	-1551.31	   93.37
     57.5566	  103.00	  114.94	-1570.94	   93.32
     57.5900	  143.00	  114.59	-1530.59	   93.27
     57.6235	  115.00	  114.28	-1558.28	   93.22
     57.6569	  122.00	  113.99	-1550.99	   93.17
     57.6903	  103.00	  113.73	-1569.73	   93.12
     57.7237	  117.00	  113.48	-1555.48	   93.07
     57.7572	  128.00	  113.25	-1544.25	   93.03
     57.7906	  129.00	  113.03	-1543.03	   92.98
     57.8240	  115.00	  112.83	-1556.83	   92.93
     57.8574	  123.00	  112.64	-1548.64	   92.88
     57.8908	  117.00	  112.47	-1554.47	   92.83
     57.9243	   95.00	  112.30	-1576.30	   92.78
     57.9577	  117.00	  112.14	-1554.14	   92.74
     57.9911	  104.00	  111.99	-1566.99	   92.69
     58.0245	  129.00	  111.85	-1541.85	   92.64
     58.0580	  104.00	  111.71	-1566.71	   92.59
     58.0914	  115.00	  111.58	-1555.58	   92.54
     58.1248	  123.00	  111.45	-1547.45	   92.50
     58.1582	  115.00	  111.33	-1555.33	   92.45
     58.1917	  103.00	  111.21	-1567.21	   92.40
     58.2251	   99.00	  111.10	-1571.10	   92.35
     58.2585	  115.00	  111.00	-1555.00	   92.31
     58.2919	  128.00	  110.89	-1541.89	   92.26
     58.3253	  110.00	  110.79	-1559.79	   92.21
     58.3588	  125.00	  110.69	-1544.69	   92.16
     58.3922	  111.00	  110.60	-1558.60	   92.12
     58.4256	  111.00	  110.51	-1558.51	   92.07
     58.4590	  104.00	  110.42	-1565.42	   92.02
     58.4925	   98.00	  110.33	-1571.33	   91.97
     58.5259	  113.00	  110.24	-1556.24	   91.93
     58.5593	  131.00	  110.16	-1538.16	   91.88
     58.5927	  117.00	  110.08	-1552.08	   91.83
     58.6261	  140.00	  110.00	-1529.00	   91.78
     58.6596	  118.00	  109.92	-1550.92	   91.74
     58.6930	  124.00	  109.84	-1544.84	   91.69
     58.7264	  116.00	  109.77	-1552.77	   91.64
     58.7598	  114.00	  109.69	-1554.69	   91.60
     58.7933	  105.00	  109.62	-1563.62	   91.55
     58.8267	  118.00	  109.55	-1550.55	   91.50
     58.8601	   94.00	  109.48	-1574.48	   91.46
     58.8935	  108.00	  109.41	-1560.41	   91.41
     58.9269	  110.00	  109.34	-1558.34	   91.36
     58.9604	  112.00	  109.28	-1556.28	   91.32
     58.9938	  102.00	  109.21	-1566.21	   91.27
     59.0272	  108.00	  109.14	-1560.14	   91.22
     59.0606	  105.00	  109.08	-1563.08	   91.18
     59.0941	  104.00	  109.02	-1564.02	   91.13
     59.1275	  115.00	  109.12	-1553.12	   91.08
     59.1609	  128.00	  109.06	-1540.06	   91.04
     59.1943	   88.00	  109.00	-1580.00	   90.99
     59.2277	  112.00	  108.94	-1555.94	   90.95
     59.2612	  118.00	  108.89	-1549.89	   90.90
     59.2946	  108.00	  108.91	-1559.91	   90.85
     59.3280	  104.00	  108.86	-1563.86	   90.81
     59.3614	  104.00	  108.80	-1563.80	   90.76
     59.3949	  113.00	  108.75	-1554.75	   90.72
     59.4283	  119.00	  108.70	-1548.70	   90.67
     59.4617	  126.00	  108.65	-1541.65	   90.62
     59.4951	  114.00	  108.59	-1553.59	   90.58
     59.5285	  102.00	  108.54	-1565.54	   90.53
     59.5620	  117.00	  108.49	-1550.49	   90.49
     59.5954	  100.00	  108.45	-1567.45	   90.44
     59.6288	  122.00	  108.40	-1545.40	   90.40
     59.6622	  118.00	  108.35	-1549.35	   90.35
     59.6957	  111.00	  108.30	-1556.30	   90.30
     59.7291	  104.00	  108.25	-1563.25	   90.26
     59.7625	  104.00	  108.21	-1563.21	   90.21
     59.7959	   96.00	  108.16	-1571.16	   90.17
     59.8294	  127.00	  108.12	-1540.12	   90.12
     59.8628	  121.00	  108.07	-1546.07	   90.08
     59.8962	  105.00	  108.03	-1562.03	   90.03
     59.9296	  112.00	  107.98	-1554.98	   89.99
     59.9630	   99.00	  107.94	-1567.94	   89.94
     59.9965	  126.00	  107.90	-1540.90	   89.90
     60.0299	  126.00	  107.86	-1540.86	   89.85
     60.0633	  111.00	  107.81	-1555.81	   89.81
     60.0967	  113.00	  107.77	-1553.77	   89.76
     60.1302	  113.00	  107.73	-1553.73	   89.72
     60.1636	  108.00	  107.69	-1558.69	   89.67
     60.1970	  109.00	  107.46	-1557.46	   89.63
     60.2304	  113.00	  107.42	-1553.42	   89.58
     60.2638	  121.00	  107.39	-1545.39	   89.54
     60.2973	  116.00	  107.35	-1550.35	   89.49
     60.3307	  115.00	  107.32	-1551.32	   89.45
     60.3641	   84.00	  107.19	-1582.19	   89.40
     60.3975	   99.00	  107.16	-1567.16	   89.36
     60.4310	  106.00	  107.13	-1560.13	   89.32
     60.4644	  115.00	  107.10	-1551.10	   89.27
     60.4978	  106.00	  107.08	-1560.08	   89.23
     60.5312	  119.00	  107.05	-1547.05	   89.18
     60.5647	  111.00	  107.02	-1555.02	   89.14
     60.5981	  126.00	  107.00	-1540.00	   89.09
     60.6315	  111.00	  106.97	-1554.97	   89.05
     60.6649	  102.00	  106.95	-1563.95	   89.01
     60.6983	   97.00	  106.93	-1568.93	   88.96
     60.7318	  122.00	  106.90	-1543.90	   88.92
     60.7652	  125.00	  106.88	-1540.88	   88.87
     60.7986	  106.00	  106.87	-1559.87	   88.83
     60.8320	  106.00	  106.85	-1559.85	   88.79
     60.8654	  103.00	  106.83	-1562.83	   88.74
     60.8989	  114.00	  106.82	-1551.82	   88.70
     60.9323	  105.00	  106.80	-1560.80	   88.65
     60.9657	  101.00	  106.79	-1564.79	   88.61
     60.9991	  122.00	  106.78	-1543.78	   88.57
     61.0326	  108.00	  106.77	-1557.77	   88.52
     61.0660	  123.00	  106.77	-1542.77	   88.48
     61.0994	  118.00	  106.76	-1547.76	   88.44
     61.1328	  103.00	  106.76	-1562.76	   88.39
     61.1663	  105.00	  106.76	-1560.76	   88.35
     61.1997	  117.00	  106.76	-1548.76	   88.31
     61.2331	  111.00	  106.77	-1554.77	   88.26
     61.2665	  108.00	  106.78	-1557.78	   88.22
     61.2999	  102.00	  106.79	-1563.79	   88.18
     61.3334	  112.00	  106.81	-1553.81	   88.13
     61.3668	  114.00	  106.83	-1551.83	   88.09
     61.4002	   98.00	  106.86	-1567.86	   88.05
     61.4336	  118.00	  106.89	-1547.89	   88.00
     61.4671	  105.00	  106.92	-1560.92	   87.96
     61.5005	  106.00	  106.96	-1559.96	   87.92
     61.5339	  110.00	  107.01	-1556.01	   87.88
     61.5673	  109.00	  107.07	-1557.07	   87.83
     61.6007	  109.00	  107.13	-1557.13	   87.79
     61.6342	  117.00	  107.20	-1549.20	   87.75
     61.6676	   95.00	  107.29	-1571.29	   87.71
     61.7010	  119.00	  107.38	-1547.38	   87.66
     61.7344	   88.00	  107.48	-1578.48	   87.62
     61.7679	  121.00	  107.60	-1545.60	   87.58
     61.8013	  127.00	  107.74	-1539.74	   87.53
     61.8347	  111.00	  107.89	-1555.89	   87.49
     61.8681	   90.00	  108.06	-1577.06	   87.45
     61.9016	  123.00	  108.26	-1544.26	   87.41
     61.9350	  115.00	  108.48	-1552.48	   87.37
     61.9684	  104.00	  108.73	-1563.73	   87.32
     62.0018	  111.00	  109.02	-1557.02	   87.28
     62.0352	  126.00	  109.34	-1542.34	   87.24
     62.0687	  123.00	  109.72	-1545.72	   87.20
     62.1021	  121.00	  110.15	-1548.15	   87.15
     62.1355	  103.00	  110.65	-1566.65	   87.11
     62.1689	  115.00	  111.23	-1555.23	   87.07
     62.2024	  109.00	  111.91	-1561.91	   87.03
     62.2358	  111.00	  112.71	-1560.71	   86.99
     62.2692	  140.00	  113.65	-1532.65	   86.95
     62.3026	  131.00	  114.78	-1542.78	   86.90
     62.3360	  117.00	  116.14	-1558.14	   86.86
     62.3695	  132.00	  117.80	-1544.80	   86.82
     62.4029	  139.00	  119.85	-1539.85	   86.78
     62.4363	  122.00	  122.42	-1559.42	   86.74
     62.4697	  128.00	  125.70	-1556.70	   86.70
     62.5032	  155.00	  129.97	-1533.97	   86.65
     62.5366	  150.00	  135.68	-1544.68	   86.61
     62.5700	  150.00	  143.66	-1552.66	   86.57
     62.6034	  179.00	  155.98	-1535.98	   86.53
     62.6368	  190.00	  178.55	-1547.55	   86.49
     62.6703	  218.00	  226.84	-1567.84	   86.45
     62.7037	  282.00	  329.86	-1606.85	   86.41
     62.7371	  455.00	  517.17	-1621.17	   86.36
     62.7705	  842.00	  777.47	-1494.47	   86.32
     62.8040	 1221.00	 1000.33	-1338.33	   86.28
     62.8374	 1087.00	 1000.53	-1472.53	   86.24
     62.8708	  829.00	  813.77	-1543.77	   86.20
     62.9042	  551.00	  649.18	-1657.18	   86.16
     62.9377	  597.00	  601.21	-1563.21	   86.12
     62.9711	  734.00	  626.01	-1451.01	   86.08
     63.0045	  664.00	  596.59	-1491.59	   86.04
     63.0379	  505.00	  472.50	-1526.50	   86.00
     63.0713	  332.00	  335.01	-1562.01	   85.96
     63.1048	  200.00	  236.14	-1595.14	   85.91
     63.1382	  179.00	  180.66	-1560.66	   85.87
     63.1716	  165.00	  153.57	-1547.57	   85.83
     63.2050	  165.00	  140.09	-1534.09	   85.79
     63.2384	  132.00	  132.24	-1559.24	   85.75
     63.2719	  109.00	  126.90	-1576.90	   85.71
     63.3053	  112.00	  122.95	-1569.95	   85.67
     63.3387	  109.00	  119.91	-1569.91	   85.63
     63.3721	  113.00	  117.51	-1563.51	   85.59
     63.4056	  125.00	  115.58	-1549.58	   85.55
     63.4390	  108.00	  114.00	-1565.00	   85.51
     63.4724	  109.00	  112.68	-1562.68	   85.47
     63.5058	  121.00	  111.58	-1549.58	   85.43
     63.5393	  116.00	  110.64	-1553.64	   85.39
     63.5727	  114.00	  109.83	-1554.83	   85.35
     63.6061	  127.00	  109.13	-1541.13	   85.31
     63.6395	  102.00	  108.52	-1565.52	   85.27
     63.6729	  122.00	  107.98	-1544.98	   85.23
     63.7064	  100.00	  107.51	-1566.51	   85.19
     63.7398	  124.00	  107.08	-1542.08	   85.15
     63.7732	  139.00	  106.70	-1526.70	   85.11
     63.8066	  118.00	  106.36	-1547.36	   85.07
     63.8401	  119.00	  106.04	-1546.04	   85.03
     63.8735	  110.00	  105.76	-1554.76	   84.99
     63.9069	   92.00	  105.50	-1572.50	   84.95
     63.9403	  105.00	  105.26	-1559.26	   84.91
     63.9737	  112.00	  105.04	-1552.04	   84.87
     64.0072	  102.00	  104.84	-1561.84	   84.83
     64.0406	  112.00	  104.65	-1551.65	   84.79
     64.0740	  121.00	  104.47	-1542.47	   84.75
     64.1074	  114.00	  104.31	-1549.31	   84.72
     64.1409	  121.00	  104.30	-1542.30	   84.68
     64.1743	  111.00	  104.16	-1552.16	   84.64
     64.2077	  114.00	  104.02	-1549.02	   84.60
     64.2411	  128.00	  103.90	-1534.90	   84.56
     64.2746	  105.00	  103.78	-1557.78	   84.52
     64.3080	  102.00	  103.66	-1560.66	   84.48
     64.3414	  105.00	  103.63	-1557.63	   84.44
     64.3748	  115.00	  103.53	-1547.53	   84.40
     64.4082	  118.00	  103.43	-1544.43	   84.36
     64.4417	  106.00	  103.34	-1556.34	   84.32
     64.4751	   92.00	  103.26	-1570.26	   84.29
     64.5085	   99.00	  103.17	-1563.17	   84.25
     64.5419	  109.00	  103.09	-1553.09	   84.21
     64.5754	   95.00	  103.02	-1567.02	   84.17
     64.6088	  113.00	  102.95	-1548.95	   84.13
     64.6422	  113.00	  102.88	-1548.88	   84.09
     64.6756	   92.00	  102.81	-1569.81	   84.05
     64.7090	  113.00	  102.75	-1548.75	   84.02
     64.7425	   97.00	  102.69	-1564.69	   83.98
     64.7759	  104.00	  102.63	-1557.63	   83.94
     64.8093	  121.00	  102.57	-1540.57	   83.90
     64.8427	  109.00	  102.52	-1552.52	   83.86
     64.8762	  110.00	  102.47	-1551.47	   83.82
     64.9096	   95.00	  102.42	-1566.42	   83.78
     64.9430	  108.00	  102.37	-1553.37	   83.75
     64.9764	  110.00	  102.33	-1551.33	   83.71
     65.0098	  125.00	  102.29	-1536.29	   83.67
     65.0433	   92.00	  102.25	-1569.25	   83.63
     65.0767	  104.00	  102.21	-1557.21	   83.59
     65.1101	  127.00	  102.18	-1534.18	   83.56
     65.1435	  119.00	  102.14	-1542.15	   83.52
     65.1770	  113.00	  102.12	-1548.12	   83.48
     65.2104	  106.00	  102.09	-1555.09	   83.44
     65.2438	   95.00	  102.07	-1566.07	   83.40
     65.2772	  101.00	  102.12	-1560.12	   83.37
     65.3106	  114.00	  102.11	-1547.11	   83.33
     65.3441	  102.00	  102.10	-1559.10	   83.29
     65.3775	  108.00	  102.09	-1553.09	   83.25
     65.4109	   88.00	  102.08	-1573.08	   83.22
     65.4443	  108.00	  102.12	-1553.12	   83.18
     65.4778	   97.00	  102.13	-1564.13	   83.14
     65.5112	  105.00	  102.15	-1556.15	   83.10
     65.5446	  115.00	  102.17	-1546.17	   83.07
     65.5780	  103.00	  102.20	-1558.20	   83.03
     65.6115	  114.00	  102.24	-1547.24	   82.99
     65.6449	  106.00	  102.28	-1555.28	   82.95
     65.6783	   95.00	  102.35	-1566.35	   82.92
     65.7117	   86.00	  102.42	-1575.42	   82.88
     65.7451	  121.00	  102.52	-1540.52	   82.84
     65.7786	  115.00	  102.64	-1546.64	   82.81
     65.8120	   98.00	  102.79	-1563.79	   82.77
     65.8454	  100.00	  102.97	-1561.97	   82.73
     65.8788	  100.00	  103.19	-1562.19	   82.69
     65.9123	  101.00	  103.47	-1561.47	   82.66
     65.9457	  102.00	  103.82	-1560.82	   82.62
     65.9791	  117.00	  104.28	-1546.28	   82.58
     66.0125	  101.00	  104.87	-1562.87	   82.55
     66.0459	  113.00	  105.66	-1551.66	   82.51
     66.0794	  119.00	  106.76	-1546.76	   82.47
     66.1128	  133.00	  108.41	-1534.41	   82.44
     66.1462	  127.00	  111.33	-1543.33	   82.40
     66.1796	  114.00	  117.40	-1562.40	   82.36
     66.2131	  106.00	  130.40	-1583.40	   82.33
     66.2465	  136.00	  154.83	-1577.83	   82.29
     66.2799	  196.00	  190.96	-1553.96	   82.25
     66.3133	  247.00	  226.91	-1538.91	   82.22
     66.3467	  266.00	  235.94	-1528.94	   82.18
     66.3802	  238.00	  211.73	-1532.73	   82.14
     66.4136	  189.00	  182.91	-1552.91	   82.11
     66.4470	  157.00	  169.37	-1571.37	   82.07
     66.4804	  166.00	  171.93	-1564.93	   82.04
     66.5139	  195.00	  176.73	-1540.73	   82.00
     66.5473	  161.00	  167.12	-1565.12	   81.96
     66.5807	  157.00	  147.29	-1549.29	   81.93
     66.6141	  140.00	  129.12	-1548.12	   81.89
     66.6476	  132.00	  117.25	-1544.25	   81.86
     66.6810	  124.00	  110.97	-1545.97	   81.82
     66.7144	  109.00	  107.88	-1557.88	   81.78
     66.7478	   94.00	  106.37	-1571.37	   81.75
     66.7812	  103.00	  105.47	-1561.47	   81.71
     66.8147	  113.00	  104.88	-1550.89	   81.68
     66.8481	  132.00	  104.48	-1531.48	   81.64
     66.8815	  111.00	  104.21	-1552.21	   81.60
     66.9149	  110.00	  104.03	-1553.03	   81.57
     66.9484	  116.00	  103.94	-1546.94	   81.53
     66.9818	   87.00	  103.91	-1575.91	   81.50
     67.0152	   96.00	  103.95	-1566.95	   81.46
     67.0486	  118.00	  104.03	-1545.03	   81.43
     67.0820	  119.00	  104.17	-1544.17	   81.39
     67.1155	  119.00	  104.37	-1544.37	   81.36
     67.1489	  116.00	  104.62	-1547.62	   81.32
     67.1823	  115.00	  104.93	-1548.93	   81.28
     67.2157	  105.00	  105.31	-1559.31	   81.25
     67.2492	  106.00	  105.77	-1558.77	   81.21
     67.2826	  111.00	  106.33	-1554.33	   81.18
     67.3160	  115.00	  106.99	-1550.99	   81.14
     67.3494	  116.00	  107.78	-1550.78	   81.11
     67.3828	  109.00	  108.73	-1558.73	   81.07
     67.4163	  125.00	  109.88	-1543.88	   81.04
     67.4497	  101.00	  111.29	-1569.29	   81.00
     67.4831	  130.00	  113.03	-1542.03	   80.97
     67.5165	  121.00	  115.20	-1553.20	   80.93
     67.5500	  138.00	  117.95	-1538.95	   80.90
     67.5834	  170.00	  121.51	-1510.51	   80.86
     67.6168	  172.00	  126.23	-1513.23	   80.83
     67.6502	  144.00	  132.73	-1547.73	   80.79
     67.6836	  158.00	  142.43	-1543.43	   80.76
     67.7171	  199.00	  159.37	-1519.37	   80.72
     67.7505	  194.00	  194.26	-1559.26	   80.69
     67.7839	  234.00	  268.77	-1593.77	   80.66
     67.8173	  315.00	  409.53	-1653.53	   80.62
     67.8508	  605.00	  620.67	-1574.67	   80.59
     67.8842	  964.00	  837.86	-1432.86	   80.55
     67.9176	  988.00	  906.06	-1477.06	   80.52
     67.9510	  753.00	  769.83	-1575.83	   80.48
     67.9845	  500.00	  590.70	-1649.70	   80.45
     68.0179	  399.00	  495.71	-1655.71	   80.41
     68.0513	  452.00	  502.78	-1609.78	   80.38
     68.0847	  597.00	  544.10	-1506.10	   80.35
     68.1181	  587.00	  513.93	-1485.93	   80.31
     68.1516	  393.00	  404.57	-1570.57	   80.28
     68.1850	  289.00	  290.10	-1560.10	   80.24
     68.2184	  206.00	  209.61	-1562.61	   80.21
     68.2518	  171.00	  164.80	-1552.80	   80.18
     68.2853	  170.00	  142.85	-1531.85	   80.14
     68.3187	  128.00	  131.88	-1562.88	   80.11
     68.3521	  121.00	  125.53	-1563.53	   80.07
     68.3855	  119.00	  121.29	-1561.29	   80.04
     68.4189	  123.00	  118.25	-1554.25	   80.01
     68.4524	  122.00	  116.02	-1553.02	   79.97
     68.4858	  140.00	  114.40	-1533.40	   79.94
     68.5192	  122.00	  113.25	-1550.25	   79.90
     68.5526	  148.00	  112.51	-1523.51	   79.87
     68.5861	  113.00	  112.12	-1558.12	   79.84
     68.6195	  100.00	  112.07	-1571.07	   79.80
     68.6529	  127.00	  112.39	-1544.39	   79.77
     68.6863	  119.00	  113.13	-1553.13	   79.74
     68.7197	  115.00	  114.36	-1558.36	   79.70
     68.7532	  133.00	  116.25	-1542.25	   79.67
     68.7866	  117.00	  119.11	-1561.11	   79.64
     68.8200	  143.00	  123.64	-1539.64	   79.60
     68.8534	  122.00	  131.82	-1568.82	   79.57
     68.8869	  143.00	  148.99	-1564.99	   79.54
     68.9203	  152.00	  185.98	-1592.98	   79.50
     68.9537	  190.00	  256.50	-1625.50	   79.47
     68.9871	  312.00	  363.49	-1610.49	   79.44
     69.0206	  457.00	  476.48	-1578.48	   79.40
     69.0540	  505.00	  517.53	-1571.53	   79.37
     69.0874	  407.00	  450.92	-1602.92	   79.34
     69.1208	  296.00	  355.74	-1618.74	   79.30
     69.1542	  206.00	  300.93	-1653.93	   79.27
     69.1877	  244.00	  300.24	-1615.24	   79.24
     69.2211	  310.00	  324.45	-1573.45	   79.21
     69.2545	  338.00	  318.93	-1539.93	   79.17
     69.2879	  248.00	  267.52	-1578.52	   79.14
     69.3214	  191.00	  206.75	-1574.75	   79.11
     69.3548	  150.00	  161.33	-1570.33	   79.07
     69.3882	  135.00	  134.92	-1558.92	   79.04
     69.4216	  115.00	  121.66	-1565.66	   79.01
     69.4550	  127.00	  115.04	-1547.04	   78.98
     69.4885	  104.00	  111.23	-1566.23	   78.94
     69.5219	  109.00	  108.66	-1558.66	   78.91
     69.5553	  114.00	  106.76	-1551.76	   78.88
     69.5887	  101.00	  105.29	-1563.29	   78.85
     69.6222	  111.00	  104.11	-1552.11	   78.81
     69.6556	  111.00	  103.16	-1551.16	   78.78
     69.6890	   81.00	  102.37	-1580.37	   78.75
     69.7224	  128.00	  101.70	-1532.70	   78.72
     69.7558	  111.00	  101.14	-1549.14	   78.69
     69.7893	   89.00	  100.65	-1570.65	   78.65
     69.8227	  102.00	  100.23	-1557.23	   78.62
     69.8561	   90.00	   99.85	-1568.85	   78.59
     69.8895	   89.00	   99.53	-1569.53	   78.56
     69.9230	  115.00	   99.23	-1543.23	   78.52
     69.9564	   99.00	   98.97	-1558.97	   78.49
     69.9898	   94.00	   98.73	-1563.73	   78.46
     70.0232	  122.00	   98.51	-1535.51	   78.43
     70.0566	   98.00	   98.31	-1559.31	   78.40
     70.0901	  104.00	   98.13	-1553.13	   78.37
     70.1235	   90.00	   97.94	-1566.94	   78.33
     70.1569	   99.00	   97.78	-1557.78	   78.30
     70.1903	  114.00	   97.64	-1542.64	   78.27
     70.2238	  116.00	   97.51	-1540.51	   78.24
     70.2572	  102.00	   97.38	-1554.38	   78.21
     70.2906	  103.00	   97.25	-1553.25	   78.17
     70.3240	   98.00	   97.14	-1558.14	   78.14
     70.3575	   96.00	   97.03	-1560.03	   78.11
     70.3909	  100.00	   96.93	-1555.93	   78.08
     70.4243	   98.00	   96.83	-1557.83	   78.05
     70.4577	   87.00	   96.74	-1568.74	   78.02
     70.4911	   98.00	   96.66	-1557.66	   77.99
     70.5246	  105.00	   96.57	-1550.57	   77.95
     70.5580	   85.00	   96.49	-1570.49	   77.92
     70.5914	   95.00	   96.42	-1560.42	   77.89
     70.6248	  108.00	   96.35	-1547.35	   77.86
     70.6583	  102.00	   96.27	-1553.27	   77.83
     70.6917	   87.00	   96.21	-1568.21	   77.80
     70.7251	   98.00	   96.14	-1557.14	   77.77
     70.7585	  101.00	   96.08	-1554.08	   77.74
     70.7919	   89.00	   96.02	-1566.02	   77.70
     70.8254	  114.00	   95.96	-1540.96	   77.67
     70.8588	   90.00	   95.90	-1564.90	   77.64
     70.8922	   86.00	   95.84	-1568.84	   77.61
     70.9256	  104.00	   95.79	-1550.79	   77.58
     70.9591	  100.00	   95.74	-1554.74	   77.55
     70.9925	  106.00	   95.69	-1548.69	   77.52
     71.0259	   98.00	   95.64	-1556.64	   77.49
     71.0593	   97.00	   95.59	-1557.59	   77.46
     71.0928	   95.00	   95.54	-1559.54	   77.43
     71.1262	  112.00	   95.50	-1542.50	   77.40
     71.1596	   95.00	   95.45	-1559.45	   77.37
     71.1930	  111.00	   95.41	-1543.41	   77.34
     71.2264	   98.00	   95.37	-1556.37	   77.30
     71.2599	   74.00	   95.33	-1580.33	   77.27
     71.2933	  100.00	   95.29	-1554.29	   77.24
     71.3267	   88.00	   95.25	-1566.25	   77.21
     71.3601	   94.00	   95.22	-1560.22	   77.18
     71.3936	   81.00	   95.18	-1573.18	   77.15
     71.4270	   89.00	   95.15	-1565.15	   77.12
     71.4604	   84.00	   95.12	-1570.12	   77.09
     71.4938	  106.00	   95.09	-1548.09	   77.06
     71.5272	  100.00	   95.06	-1554.06	   77.03
     71.5607	   96.00	   95.04	-1558.04	   77.00
     71.5941	   92.00	   95.01	-1562.01	   76.97
     71.6275	  100.00	   94.99	-1553.99	   76.94
     71.6609	   87.00	   94.97	-1566.97	   76.91
     71.6944	  100.00	   94.82	-1553.82	   76.88
     71.7278	   95.00	   94.81	-1558.81	   76.85
     71.7612	   83.00	   94.80	-1570.80	   76.82
     71.7946	  132.00	   94.80	-1521.80	   76.79
     71.8280	  101.00	   94.80	-1552.80	   76.76
     71.8615	   88.00	   94.82	-1565.82	   76.73
     71.8949	   98.00	   94.76	-1555.76	   76.70
     71.9283	   94.00	   94.79	-1559.79	   76.67
     71.9617	  105.00	   94.83	-1548.83	   76.64
     71.9952	   87.00	   94.88	-1566.88	   76.61
     72.0286	   81.00	   94.95	-1572.95	   76.58
     72.0620	   92.00	   95.04	-1562.04	   76.55
     72.0954	   84.00	   95.16	-1570.16	   76.52
     72.1288	  101.00	   95.32	-1553.32	   76.49
     72.1623	  105.00	   95.52	-1549.52	   76.46
     72.1957	   95.00	   95.79	-1559.79	   76.43
     72.2291	  113.00	   96.15	-1542.15	   76.41
     72.2625	   95.00	   96.65	-1560.65	   76.38
     72.2960	   86.00	   97.40	-1570.40	   76.35
     72.3294	   96.00	   98.68	-1561.68	   76.32
     72.3628	  110.00	  101.23	-1550.23	   76.29
     72.3962	  101.00	  106.66	-1564.66	   76.26
     72.4296	  100.00	  117.24	-1576.24	   76.23
     72.4631	  125.00	  134.05	-1568.05	   76.20
     72.4965	  161.00	  153.66	-1551.66	   76.17
     72.5299	  193.00	  164.67	-1530.67	   76.14
     72.5633	  152.00	  157.03	-1564.03	   76.11
     72.5968	  118.00	  140.22	-1581.22	   76.08
     72.6302	  108.00	  127.61	-1578.61	   76.06
     72.6636	  119.00	  124.16	-1564.16	   76.03
     72.6970	  131.00	  127.99	-1555.99	   76.00
     72.7305	  129.00	  131.94	-1561.94	   75.97
     72.7639	  122.00	  128.13	-1565.13	   75.94
     72.7973	  115.00	  118.31	-1562.31	   75.91
     72.8307	  100.00	  108.76	-1567.76	   75.88
     72.8641	  101.00	  102.15	-1560.15	   75.85
     72.8976	   86.00	   98.53	-1571.53	   75.82
     72.9310	   90.00	   96.72	-1565.72	   75.80
     72.9644	   94.00	   95.78	-1560.78	   75.77
     72.9978	   86.00	   95.22	-1568.22	   75.74
     73.0313	  101.00	   94.82	-1552.82	   75.71
     73.0647	   95.00	   94.47	-1558.47	   75.68
     73.0981	  115.00	   94.22	-1538.22	   75.65
     73.1315	  108.00	   94.02	-1545.02	   75.62
     73.1649	   96.00	   93.85	-1556.85	   75.60
     73.1984	   99.00	   93.71	-1553.71	   75.57
     73.2318	   92.00	   93.59	-1560.59	   75.54
     73.2652	   95.00	   93.49	-1557.49	   75.51
     73.2986	   84.00	   93.39	-1568.39	   75.48
     73.3321	   91.00	   93.30	-1561.30	   75.45
     73.3655	   97.00	   93.23	-1555.23	   75.43
     73.3989	   90.00	   93.16	-1562.16	   75.40
     73.4323	   86.00	   93.09	-1566.09	   75.37
     73.4658	   92.00	   93.03	-1560.03	   75.34
     73.4992	   95.00	   92.97	-1556.97	   75.31
     73.5326	  111.00	   92.92	-1540.92	   75.29
     73.5660	   89.00	   92.87	-1562.87	   75.26
     73.5994	   90.00	   92.82	-1561.82	   75.23
     73.6329	   96.00	   92.77	-1555.77	   75.20
     73.6663	   92.00	   92.73	-1559.73	   75.17
     73.6997	   95.00	   92.68	-1556.68	   75.15
     73.7331	  111.00	   92.64	-1540.64	   75.12
     73.7665	   92.00	   92.60	-1559.60	   75.09
     73.8000	   78.00	   92.56	-1573.56	   75.06
     73.8334	   90.00	   92.53	-1561.53	   75.03
     73.8668	  100.00	   92.49	-1551.49	   75.01
     73.9002	   75.00	   92.45	-1576.45	   74.98
     73.9337	   94.00	   92.42	-1557.42	   74.95
     73.9671	  113.00	   92.38	-1538.38	   74.92
     74.0005	   84.00	   92.35	-1567.35	   74.90
     74.0339	   88.00	   92.32	-1563.32	   74.87
     74.0674	   99.00	   92.28	-1552.28	   74.84
     74.1008	   92.00	   92.25	-1559.25	   74.81
     74.1342	   90.00	   92.22	-1561.22	   74.79
     74.1676	   89.00	   92.19	-1562.19	   74.76
     74.2010	   97.00	   92.16	-1554.16	   74.73
     74.2345	   96.00	   92.13	-1555.13	   74.70
     74.2679	   85.00	   92.10	-1566.10	   74.68
     74.3013	   87.00	   92.07	-1564.07	   74.65
     74.3347	   99.00	   92.04	-1552.04	   74.62
     74.3682	   72.00	   92.01	-1579.01	   74.60
     74.4016	  103.00	   91.98	-1547.98	   74.57
     74.4350	   98.00	   91.95	-1552.95	   74.54
     74.4684	   88.00	   91.92	-1562.92	   74.51
     74.5018	   97.00	   91.90	-1553.90	   74.49
     74.5353	  100.00	   91.87	-1550.87	   74.46
     74.5687	   81.00	   91.84	-1569.84	   74.43
     74.6021	   84.00	   91.81	-1566.81	   74.41
     74.6355	   91.00	   91.79	-1559.79	   74.38
     74.6690	   82.00	   91.76	-1568.76	   74.35
     74.7024	   89.00	   91.73	-1561.73	   74.33
     74.7358	   92.00	   91.71	-1558.71	   74.30
     74.7692	   83.00	   91.68	-1567.68	   74.27
     74.8027	   96.00	   91.66	-1554.66	   74.25
     74.8361	   90.00	   91.63	-1560.63	   74.22
     74.8695	   89.00	   91.61	-1561.61	   74.19
     74.9029	   90.00	   91.58	-1560.58	   74.17
     74.9363	  108.00	   91.56	-1542.56	   74.14
     74.9698	   76.00	   91.53	-1574.53	   74.11
     75.0032	   83.00	   91.51	-1567.51	   74.09
     75.0366	  102.00	   91.48	-1548.48	   74.06
     75.0700	  103.00	   91.46	-1547.46	   74.03
     75.1035	   92.00	   91.44	-1558.44	   74.01
     75.1369	   91.00	   91.42	-1559.42	   73.98
     75.1703	  111.00	   91.39	-1539.39	   73.95
     75.2037	   90.00	   91.37	-1560.37	   73.93
     75.2371	   94.00	   91.35	-1556.35	   73.90
     75.2706	   88.00	   91.33	-1562.33	   73.88
     75.3040	   92.00	   91.31	-1558.31	   73.85
     75.3374	   97.00	   91.29	-1553.29	   73.82
     75.3708	  108.00	   91.27	-1542.27	   73.80
     75.4043	   88.00	   91.25	-1562.25	   73.77
     75.4377	   85.00	   91.23	-1565.23	   73.74
     75.4711	   86.00	   91.21	-1564.21	   73.72
     75.5045	   92.00	   91.19	-1558.19	   73.69
     75.5379	   85.00	   91.18	-1565.18	   73.67
     75.5714	  108.00	   91.16	-1542.16	   73.64
     75.6048	   85.00	   91.15	-1565.15	   73.61
     75.6382	   81.00	   91.13	-1569.13	   73.59
     75.6716	   77.00	   91.12	-1573.12	   73.56
     75.7051	  101.00	   91.11	-1549.11	   73.54
     75.7385	   79.00	   91.10	-1571.10	   73.51
     75.7719	  103.00	   91.09	-1547.09	   73.49
     75.8053	  110.00	   91.08	-1540.08	   73.46
     75.8387	   66.00	   91.07	-1584.07	   73.43
     75.8722	   98.00	   91.07	-1552.07	   73.41
     75.9056	  103.00	   91.07	-1547.07	   73.38
     75.9390	   90.00	   91.07	-1560.07	   73.36
     75.9724	   83.00	   91.07	-1567.07	   73.33
     76.0059	   90.00	   91.08	-1560.08	   73.31
     76.0393	   90.00	   91.09	-1560.09	   73.28
     76.0727	   86.00	   91.10	-1564.10	   73.26
     76.1061	   92.00	   91.12	-1558.12	   73.23
     76.1395	   85.00	   91.14	-1565.14	   73.20
     76.1730	   92.00	   91.17	-1558.17	   73.18
     76.2064	  105.00	   91.21	-1545.21	   73.15
     76.2398	   95.00	   91.26	-1555.26	   73.13
     76.2732	   97.00	   91.32	-1553.32	   73.10
     76.3067	   73.00	   91.39	-1577.39	   73.08
     76.3401	   96.00	   91.48	-1554.48	   73.05
     76.3735	   86.00	   91.58	-1564.58	   73.03
     76.4069	  101.00	   91.70	-1549.70	   73.00
     76.4404	  114.00	   91.87	-1536.87	   72.98
     76.4738	   82.00	   92.07	-1569.07	   72.95
     76.5072	  102.00	   92.32	-1549.32	   72.93
     76.5406	  112.00	   92.65	-1539.65	   72.90
     76.5740	   82.00	   93.07	-1570.07	   72.88
     76.6075	   89.00	   93.61	-1563.61	   72.85
     76.6409	   96.00	   94.35	-1557.35	   72.83
     76.6743	  105.00	   95.41	-1549.41	   72.80
     76.7077	  106.00	   97.10	-1550.10	   72.78
     76.7412	  110.00	  100.27	-1549.27	   72.75
     76.7746	  106.00	  106.88	-1559.88	   72.73
     76.8080	  118.00	  120.10	-1561.10	   72.70
     76.8414	  148.00	  142.62	-1553.62	   72.68
     76.8748	  190.00	  172.49	-1541.49	   72.65
     76.9083	  200.00	  197.48	-1556.48	   72.63
     76.9417	  196.00	  197.55	-1560.55	   72.61
     76.9751	  172.00	  174.12	-1561.12	   72.58
     77.0085	  130.00	  148.77	-1577.77	   72.56
     77.0420	  136.00	  134.74	-1557.74	   72.53
     77.0754	  122.00	  134.51	-1571.51	   72.51
     77.1088	  143.00	  143.13	-1559.13	   72.48
     77.1422	  162.00	  149.60	-1546.60	   72.46
     77.1757	  138.00	  143.28	-1564.28	   72.43
     77.2091	  129.00	  128.18	-1558.18	   72.41
     77.2425	  115.00	  113.68	-1557.68	   72.39
     77.2759	  106.00	  103.72	-1556.72	   72.36
     77.3093	  108.00	   98.13	-1549.13	   72.34
     77.3428	   86.00	   95.33	-1568.33	   72.31
     77.3762	   95.00	   93.86	-1557.86	   72.29
     77.4096	   97.00	   92.97	-1554.97	   72.26
     77.4430	  104.00	   92.35	-1547.35	   72.24
     77.4765	  113.00	   91.88	-1537.88	   72.22
     77.5099	   83.00	   91.52	-1567.52	   72.19
     77.5433	   78.00	   91.22	-1572.22	   72.17
     77.5767	   81.00	   90.98	-1568.98	   72.14
     77.6101	   90.00	   90.77	-1559.77	   72.12
     77.6436	  100.00	   90.60	-1549.60	   72.10
     77.6770	   84.00	   90.45	-1565.45	   72.07
     77.7104	   92.00	   90.32	-1557.32	   72.05
     77.7438	   90.00	   90.20	-1559.20	   72.02
     77.7773	   99.00	   90.10	-1550.10	   72.00
     77.8107	   96.00	   90.00	-1553.00	   71.98
     77.8441	   88.00	   89.92	-1560.92	   71.95
     77.8775	   94.00	   89.84	-1554.84	   71.93
     77.9109	   90.00	   89.77	-1558.77	   71.91
     77.9444	   82.00	   89.71	-1566.71	   71.88
     77.9778	   84.00	   89.65	-1564.65	   71.86
     78.0112	  101.00	   89.59	-1547.59	   71.83
     78.0446	   90.00	   89.53	-1558.53	   71.81
     78.0781	   89.00	   89.48	-1559.48	   71.79
     78.1115	   98.00	   89.43	-1550.43	   71.76
     78.1449	  103.00	   89.39	-1545.39	   71.74
     78.1783	   81.00	   89.34	-1567.34	   71.72
     78.2117	   92.00	   89.30	-1556.30	   71.69
     78.2452	   95.00	   89.26	-1553.26	   71.67
     78.2786	   76.00	   89.22	-1572.22	   71.65
     78.3120	   96.00	   89.18	-1552.18	   71.62
     78.3454	   70.00	   89.15	-1578.15	   71.60
     78.3789	   94.00	   89.11	-1554.11	   71.58
     78.4123	   96.00	   89.08	-1552.08	   71.55
     78.4457	   83.00	   89.04	-1565.04	   71.53
     78.4791	   98.00	   89.01	-1550.01	   71.51
     78.5126	   91.00	   88.98	-1556.98	   71.48
     78.5460	   86.00	   88.95	-1561.95	   71.46
     78.5794	   78.00	   88.92	-1569.92	   71.44
     78.6128	   89.00	   88.89	-1558.89	   71.42
     78.6462	   72.00	   88.86	-1575.86	   71.39
     78.6797	   85.00	   88.83	-1562.83	   71.37
     78.7131	   82.00	   88.80	-1565.80	   71.35
     78.7465	   72.00	   88.77	-1575.77	   71.32
     78.7799	   81.00	   88.74	-1566.74	   71.30
     78.8134	  108.00	   88.72	-1539.72	   71.28
     78.8468	   96.00	   88.69	-1551.69	   71.25
     78.8802	  123.00	   88.66	-1524.66	   71.23
     78.9136	  108.00	   88.64	-1539.64	   71.21
     78.9470	   94.00	   88.61	-1553.61	   71.19
     78.9805	   98.00	   88.58	-1549.58	   71.16
     79.0139	  106.00	   88.56	-1541.56	   71.14
     79.0473	   83.00	   88.53	-1564.53	   71.12
     79.0807	   86.00	   88.51	-1561.51	   71.10
     79.1142	  122.00	   88.48	-1525.48	   71.07
     79.1476	   90.00	   88.46	-1557.46	   71.05
     79.1810	   73.00	   88.44	-1574.44	   71.03
     79.2144	   89.00	   88.41	-1558.41	   71.01
     79.2478	   89.00	   88.39	-1558.39	   70.98
     79.2813	   88.00	   88.37	-1559.37	   70.96
     79.3147	   79.00	   88.34	-1568.34	   70.94
     79.3481	   84.00	   88.32	-1563.32	   70.92
     79.3815	   85.00	   88.30	-1562.30	   70.89
     79.4150	   91.00	   88.27	-1556.27	   70.87
     79.4484	   94.00	   88.25	-1553.25	   70.85
     79.4818	   72.00	   88.23	-1575.23	   70.83
     79.5152	   78.00	   88.21	-1569.21	   70.80
     79.5487	   97.00	   88.19	-1550.19	   70.78
     79.5821	   88.00	   88.17	-1559.17	   70.76
     79.6155	   89.00	   88.15	-1558.15	   70.74
     79.6489	   86.00	   88.13	-1561.13	   70.72
     79.6823	  106.00	   88.10	-1541.10	   70.69
     79.7158	   90.00	   88.08	-1557.08	   70.67
     79.7492	   83.00	   88.07	-1564.07	   70.65
     79.7826	   98.00	   88.05	-1549.05	   70.63
     79.8160	   87.00	   88.03	-1560.03	   70.61
     79.8494	   90.00	   88.01	-1557.01	   70.58
     79.8829	   96.00	   87.99	-1550.99	   70.56
     79.9163	   92.00	   87.97	-1554.97	   70.54
     79.9497	   95.00	   87.95	-1551.95	   70.52
     79.9831	   94.00	   87.94	-1552.94	   70.50
     80.0166	   74.00	   87.92	-1572.92	   70.47
     80.0500	   86.00	   87.91	-1560.91	   70.45
     80.0834	   83.00	   87.89	-1563.89	   70.43
     80.1168	   92.00	   87.88	-1554.88	   70.41
     80.1503	   86.00	   87.86	-1560.86	   70.39
     80.1837	   77.00	   87.85	-1569.85	   70.37
     80.2171	   97.00	   87.84	-1549.84	   70.34
     80.2505	   88.00	   87.83	-1558.83	   70.32
     80.2839	   91.00	   87.82	-1555.82	   70.30
     80.3174	   82.00	   87.81	-1564.81	   70.28
     80.3508	   87.00	   87.80	-1559.80	   70.26
     80.3842	   73.00	   87.79	-1573.79	   70.24
     80.4176	  105.00	   87.79	-1541.79	   70.21
     80.4511	  105.00	   87.79	-1541.79	   70.19
     80.4845	   88.00	   87.79	-1558.79	   70.17
     80.5179	   85.00	   87.79	-1561.79	   70.15
     80.5513	   86.00	   87.80	-1560.80	   70.13
     80.5847	  106.00	   87.80	-1540.80	   70.11
     80.6182	   88.00	   87.82	-1558.82	   70.09
     80.6516	   90.00	   87.84	-1556.84	   70.07
     80.6850	   97.00	   87.86	-1549.86	   70.04
     80.7184	   91.00	   87.89	-1555.89	   70.02
     80.7519	   89.00	   87.93	-1557.93	   70.00
     80.7853	   91.00	   87.98	-1555.98	   69.98
     80.8187	   97.00	   88.04	-1550.04	   69.96
     80.8521	   74.00	   88.12	-1573.12	   69.94
     80.8856	   84.00	   88.20	-1563.20	   69.92
     80.9190	  101.00	   88.33	-1546.33	   69.90
     80.9524	   83.00	   88.49	-1564.49	   69.88
     80.9858	  109.00	   88.70	-1538.70	   69.85
     81.0192	   95.00	   88.97	-1552.97	   69.83
     81.0527	   81.00	   89.34	-1567.34	   69.81
     81.0861	   90.00	   89.84	-1558.84	   69.79
     81.1195	   98.00	   90.60	-1551.60	   69.77
     81.1529	   83.00	   91.94	-1567.94	   69.75
     81.1864	  106.00	   94.61	-1547.61	   69.73
     81.2198	   78.00	  100.06	-1581.06	   69.71
     81.2532	  123.00	  110.02	-1546.02	   69.69
     81.2866	  126.00	  124.95	-1557.95	   69.67
     81.3200	  111.00	  141.42	-1589.42	   69.65
     81.3535	  154.00	  149.79	-1554.79	   69.63
     81.3869	  127.00	  142.54	-1574.54	   69.60
     81.4203	  112.00	  127.38	-1574.38	   69.58
     81.4537	  112.00	  114.72	-1561.72	   69.56
     81.4872	  111.00	  108.99	-1556.99	   69.54
     81.5206	  111.00	  110.29	-1558.29	   69.52
     81.5540	  103.00	  115.83	-1571.83	   69.50
     81.5874	  136.00	  120.15	-1543.15	   69.48
     81.6208	  128.00	  117.52	-1548.52	   69.46
     81.6543	  112.00	  109.48	-1556.48	   69.44
     81.6877	   89.00	  101.26	-1571.26	   69.42
     81.7211	   99.00	   95.34	-1555.34	   69.40
     81.7545	   75.00	   91.88	-1575.88	   69.38
     81.7880	   85.00	   90.09	-1564.09	   69.36
     81.8214	   92.00	   89.16	-1556.16	   69.34
     81.8548	   71.00	   88.61	-1576.61	   69.32
     81.8882	   97.00	   88.23	-1550.23	   69.30
     81.9217	   71.00	   87.95	-1575.95	   69.28
     81.9551	   94.00	   87.72	-1552.72	   69.26
     81.9885	   81.00	   87.54	-1565.54	   69.24
     82.0219	   91.00	   87.39	-1555.39	   69.22
     82.0553	   86.00	   87.26	-1560.26	   69.20
     82.0888	   87.00	   87.15	-1559.15	   69.18
     82.1222	   78.00	   87.06	-1568.06	   69.16
     82.1556	   79.00	   86.98	-1566.98	   69.14
     82.1890	   97.00	   86.90	-1548.90	   69.12
     82.2225	   95.00	   86.83	-1550.83	   69.10
     82.2559	   89.00	   86.77	-1556.77	   69.08
     82.2893	   94.00	   86.72	-1551.72	   69.06
     82.3227	   92.00	   86.67	-1553.67	   69.04
     82.3561	   72.00	   86.62	-1573.62	   69.02
     82.3896	   91.00	   86.57	-1554.57	   69.00
     82.4230	   86.00	   86.53	-1559.53	   68.98
     82.4564	   90.00	   86.49	-1555.49	   68.96
     82.4898	   88.00	   86.45	-1557.45	   68.94
     82.5233	  105.00	   86.42	-1540.42	   68.92
     82.5567	   91.00	   86.38	-1554.38	   68.90
     82.5901	   78.00	   86.35	-1567.35	   68.88
     82.6235	  102.00	   86.32	-1543.32	   68.86
     82.6569	   90.00	   86.29	-1555.29	   68.84
     82.6904	   89.00	   86.26	-1556.26	   68.82
     82.7238	   90.00	   86.23	-1555.23	   68.80
     82.7572	   95.00	   86.20	-1550.20	   68.78
     82.7906	   72.00	   86.17	-1573.17	   68.76
     82.8241	   88.00	   86.14	-1557.14	   68.74
     82.8575	   76.00	   86.12	-1569.12	   68.72
     82.8909	   78.00	   86.09	-1567.09	   68.70
     82.9243	   88.00	   86.07	-1557.07	   68.68
     82.9577	   95.00	   86.04	-1550.04	   68.66
     82.9912	   88.00	   86.02	-1557.02	   68.65
     83.0246	   77.00	   85.99	-1567.99	   68.63
     83.0580	   89.00	   85.97	-1555.97	   68.61
     83.0914	   72.00	   85.94	-1572.94	   68.59
     83.1249	   86.00	   85.92	-1558.92	   68.57
     83.1583	   92.00	   85.90	-1552.90	   68.55
     83.1917	   79.00	   85.87	-1565.87	   68.53
     83.2251	   83.00	   85.85	-1561.85	   68.51
     83.2586	   89.00	   85.83	-1555.83	   68.49
     83.2920	   86.00	   85.81	-1558.81	   68.47
     83.3254	   91.00	   85.79	-1553.79	   68.45
     83.3588	   86.00	   85.76	-1558.76	   68.43
     83.3922	   84.00	   85.74	-1560.74	   68.42
     83.4257	   85.00	   85.72	-1559.72	   68.40
     83.4591	   72.00	   85.70	-1572.70	   68.38
     83.4925	   94.00	   85.68	-1550.68	   68.36
     83.5259	   91.00	   85.66	-1553.66	   68.34
     83.5594	   81.00	   85.64	-1563.64	   68.32
     83.5928	   71.00	   85.61	-1573.61	   68.30
     83.6262	  101.00	   85.59	-1543.59	   68.28
     83.6596	   77.00	   85.57	-1567.57	   68.26
     83.6930	   92.00	   85.55	-1552.55	   68.24
     83.7265	   95.00	   85.53	-1549.53	   68.23
     83.7599	   84.00	   85.51	-1560.51	   68.21
     83.7933	   92.00	   85.49	-1552.49	   68.19
     83.8267	   92.00	   85.47	-1552.47	   68.17
     83.8602	   79.00	   85.45	-1565.45	   68.15
     83.8936	   79.00	   85.43	-1565.43	   68.13
     83.9270	   90.00	   85.41	-1554.41	   68.11
     83.9604	   90.00	   85.39	-1554.39	   68.10
     83.9939	   83.00	   85.37	-1561.37	   68.08
     84.0273	   83.00	   85.35	-1561.35	   68.06
     84.0607	   88.00	   85.33	-1556.33	   68.04
     84.0941	   82.00	   85.31	-1562.31	   68.02
     84.1275	  108.00	   85.29	-1536.29	   68.00
     84.1610	   96.00	   85.27	-1548.27	   67.98
     84.1944	   84.00	   85.25	-1560.25	   67.97
     84.2278	   77.00	   85.24	-1567.24	   67.95
     84.2612	   86.00	   85.22	-1558.22	   67.93
     84.2946	   87.00	   85.20	-1557.20	   67.91
     84.3281	  103.00	   85.18	-1541.18	   67.89
     84.3615	   97.00	   85.16	-1547.16	   67.87
     84.3949	   92.00	   85.14	-1552.14	   67.86
     84.4283	   88.00	   85.12	-1556.12	   67.84
     84.4618	   83.00	   85.10	-1561.10	   67.82
     84.4952	  102.00	   85.08	-1542.08	   67.80
     84.5286	   95.00	   85.06	-1549.06	   67.78
     84.5620	   71.00	   85.05	-1573.05	   67.76
     84.5955	   79.00	   85.03	-1565.03	   67.75
     84.6289	   92.00	   85.01	-1552.01	   67.73
     84.6623	   89.00	   84.99	-1554.99	   67.71
     84.6957	   88.00	   84.97	-1555.97	   67.69
     84.7291	   83.00	   84.95	-1560.95	   67.67
     84.7626	   88.00	   84.93	-1555.93	   67.66
     84.7960	   91.00	   84.91	-1552.91	   67.64
     84.8294	  102.00	   84.90	-1541.90	   67.62
     84.8628	   94.00	   84.88	-1549.88	   67.60
     84.8963	   85.00	   84.86	-1558.86	   67.58
     84.9297	   74.00	   84.84	-1569.84	   67.57
     84.9631	   84.00	   84.82	-1559.82	   67.55
     84.9965	  102.00	   84.80	-1541.80	   67.53
     85.0299	   72.00	   84.79	-1571.79	   67.51
     85.0634	   96.00	   84.77	-1547.77	   67.49
     85.0968	   96.00	   84.75	-1547.75	   67.48
     85.1302	   79.00	   84.73	-1564.73	   67.46
     85.1636	   84.00	   84.71	-1559.71	   67.44
     85.1971	   63.00	   84.70	-1580.70	   67.42
     85.2305	   97.00	   84.68	-1546.68	   67.41
     85.2639	   87.00	   84.66	-1556.66	   67.39
     85.2973	   99.00	   84.64	-1544.64	   67.37
     85.3307	   81.00	   84.62	-1562.62	   67.35
     85.3642	   87.00	   84.64	-1556.64	   67.34
     85.3976	   83.00	   84.61	-1560.61	   67.32
     85.4310	   85.00	   84.59	-1558.59	   67.30
     85.4644	   82.00	   84.58	-1561.58	   67.28
     85.4979	   85.00	   84.56	-1558.56	   67.26
     85.5313	   85.00	   84.54	-1558.54	   67.25
     85.5647	   71.00	   84.52	-1572.52	   67.23
     85.5981	   63.00	   84.51	-1580.51	   67.21
     85.6316	  101.00	   84.50	-1542.50	   67.20
     85.6650	   94.00	   84.48	-1549.48	   67.18
     85.6984	   94.00	   84.47	-1549.47	   67.16
     85.7318	   99.00	   84.45	-1544.45	   67.14
     85.7652	   78.00	   84.44	-1565.44	   67.13
     85.7987	   81.00	   84.42	-1562.42	   67.11
     85.8321	   94.00	   84.40	-1549.40	   67.09
     85.8655	   78.00	   84.39	-1565.39	   67.07
     85.8989	   98.00	   84.37	-1545.37	   67.06
     85.9324	   82.00	   84.35	-1561.35	   67.04
     85.9658	   86.00	   84.34	-1557.34	   67.02
     85.9992	   74.00	   84.32	-1569.32	   67.01
     86.0326	   79.00	   84.31	-1564.31	   66.99
     86.0660	   86.00	   84.29	-1557.29	   66.97
     86.0995	   79.00	   84.27	-1564.27	   66.95
     86.1329	   86.00	   84.26	-1557.26	   66.94
     86.1663	   90.00	   84.24	-1553.24	   66.92
     86.1997	   73.00	   84.23	-1570.23	   66.90
     86.2332	   99.00	   84.21	-1544.21	   66.89
     86.2666	   84.00	   84.20	-1559.20	   66.87
     86.3000	   78.00	   84.18	-1565.18	   66.85
     86.3334	   83.00	   84.17	-1560.17	   66.83
     86.3668	   75.00	   84.15	-1568.15	   66.82
     86.4003	   70.00	   84.14	-1573.14	   66.80
     86.4337	   81.00	   84.12	-1562.12	   66.78
     86.4671	   81.00	   84.10	-1562.10	   66.77
     86.5005	   78.00	   84.09	-1565.09	   66.75
     86.5340	   89.00	   84.07	-1554.07	   66.73
     86.5674	   77.00	   84.06	-1566.06	   66.72
     86.6008	   92.00	   84.05	-1551.05	   66.70
     86.6342	   82.00	   84.03	-1561.03	   66.68
     86.6676	   81.00	   84.02	-1562.02	   66.67
     86.7011	   71.00	   84.00	-1572.00	   66.65
     86.7345	   94.00	   83.99	-1548.99	   66.63
     86.7679	  105.00	   83.97	-1537.97	   66.62
     86.8013	   83.00	   83.96	-1559.96	   66.60
     86.8348	   94.00	   83.94	-1548.94	   66.58
     86.8682	   68.00	   83.93	-1574.93	   66.57
     86.9016	   86.00	   83.92	-1556.92	   66.55
     86.9350	   72.00	   83.90	-1570.90	   66.53
     86.9685	   91.00	   83.89	-1551.89	   66.52
     87.0019	   86.00	   83.88	-1556.88	   66.50
     87.0353	   83.00	   83.86	-1559.86	   66.48
     87.0687	   81.00	   83.85	-1561.85	   66.47
     87.1021	   89.00	   83.84	-1553.84	   66.45
     87.1356	   92.00	   83.82	-1550.82	   66.44
     87.1690	   90.00	   83.81	-1552.81	   66.42
     87.2024	   97.00	   83.80	-1545.80	   66.40
     87.2358	   77.00	   83.79	-1565.79	   66.39
     87.2693	   92.00	   83.77	-1550.77	   66.37
     87.3027	   92.00	   83.76	-1550.76	   66.35
     87.3361	   95.00	   83.75	-1547.75	   66.34
     87.3695	   76.00	   83.74	-1566.74	   66.32
     87.4029	   85.00	   83.73	-1557.73	   66.30
     87.4364	   87.00	   83.72	-1555.72	   66.29
     87.4698	   83.00	   83.71	-1559.71	   66.27
     87.5032	   85.00	   83.70	-1557.70	   66.26
     87.5366	  108.00	   83.69	-1534.69	   66.24
     87.5701	   95.00	   83.68	-1547.68	   66.22
     87.6035	   92.00	   83.67	-1550.67	   66.21
     87.6369	   95.00	   83.66	-1547.66	   66.19
     87.6703	   81.00	   83.65	-1561.65	   66.18
     87.7038	   84.00	   83.64	-1558.64	   66.16
     87.7372	   75.00	   83.63	-1567.63	   66.14
     87.7706	   71.00	   83.62	-1571.62	   66.13
     87.8040	   74.00	   83.62	-1568.62	   66.11
     87.8374	   92.00	   83.61	-1550.61	   66.10
     87.8709	   69.00	   83.60	-1573.60	   66.08
     87.9043	   91.00	   83.60	-1551.60	   66.06
     87.9377	   83.00	   83.59	-1559.59	   66.05
     87.9711	   90.00	   83.59	-1552.59	   66.03
     88.0045	   79.00	   83.59	-1563.59	   66.02
     88.0380	   75.00	   83.58	-1567.58	   66.00
     88.0714	  102.00	   83.58	-1540.58	   65.98
     88.1048	  101.00	   83.58	-1541.58	   65.97
     88.1382	   88.00	   83.58	-1554.58	   65.95
     88.1717	   84.00	   83.58	-1558.58	   65.94
     88.2051	   74.00	   83.59	-1568.59	   65.92
     88.2385	   83.00	   83.59	-1559.59	   65.91
     88.2719	   86.00	   83.60	-1556.60	   65.89
     88.3054	   71.00	   83.60	-1571.60	   65.87
     88.3388	  108.00	   83.61	-1534.61	   65.86
     88.3722	   79.00	   83.62	-1563.62	   65.84
     88.4056	   89.00	   83.64	-1553.64	   65.83
     88.4390	   74.00	   83.65	-1568.65	   65.81
     88.4725	   74.00	   83.68	-1568.68	   65.80
     88.5059	   81.00	   83.70	-1561.70	   65.78
     88.5393	  118.00	   83.73	-1524.73	   65.77
     88.5727	   79.00	   83.76	-1563.76	   65.75
     88.6062	   94.00	   83.79	-1548.79	   65.73
     88.6396	   90.00	   83.83	-1552.83	   65.72
     88.6730	   84.00	   83.87	-1558.87	   65.70
     88.7064	   79.00	   83.92	-1563.92	   65.69
     88.7398	   95.00	   83.99	-1547.99	   65.67
     88.7733	   71.00	   84.06	-1572.06	   65.66
     88.8067	   83.00	   84.13	-1560.13	   65.64
     88.8401	   72.00	   84.22	-1571.22	   65.63
     88.8735	   79.00	   84.33	-1564.33	   65.61
     88.9070	   92.00	   84.45	-1551.45	   65.60
     88.9404	   89.00	   84.59	-1554.59	   65.58
     88.9738	   83.00	   84.75	-1560.75	   65.57
     89.0072	   73.00	   84.95	-1570.95	   65.55
     89.0406	   89.00	   85.18	-1555.18	   65.54
     89.0741	   86.00	   85.46	-1558.46	   65.52
     89.1075	   72.00	   85.80	-1572.80	   65.51
     89.1409	   90.00	   86.21	-1555.21	   65.49
     89.1743	  109.00	   86.72	-1536.72	   65.48
     89.2078	   99.00	   87.37	-1547.37	   65.46
     89.2412	   95.00	   88.19	-1552.19	   65.44
     89.2746	  105.00	   89.28	-1543.28	   65.43
     89.3080	   88.00	   90.76	-1561.76	   65.41
     89.3415	  105.00	   92.99	-1546.99	   65.40
     89.3749	   89.00	   96.81	-1566.81	   65.38
     89.4083	  106.00	  104.18	-1557.18	   65.37
     89.4417	  123.00	  118.62	-1554.62	   65.35
     89.4751	  136.00	  144.27	-1567.27	   65.34
     89.5086	  171.00	  182.46	-1570.46	   65.32
     89.5420	  255.00	  226.17	-1530.17	   65.31
     89.5754	  319.00	  253.98	-1493.98	   65.30
     89.6088	  279.00	  243.00	-1523.00	   65.28
     89.6423	  207.00	  204.53	-1556.53	   65.27
     89.6757	  159.00	  165.50	-1565.50	   65.25
     89.7091	  135.00	  140.08	-1564.08	   65.24
     89.7425	  139.00	  131.79	-1551.79	   65.22
     89.7759	  122.00	  138.60	-1575.60	   65.21
     89.8094	  170.00	  155.00	-1544.00	   65.19
     89.8428	  152.00	  170.70	-1577.70	   65.18
     89.8762	  227.00	  171.24	-1503.24	   65.16
     89.9096	  162.00	  154.05	-1551.05	   65.15
     89.9431	  115.00	  131.60	-1575.60	   65.13
     89.9765	   99.00	  113.11	-1573.11	   65.12
     90.0099	  124.00	  101.04	-1536.04	   65.10
     90.0433	  108.00	   94.29	-1545.29	   65.09
     90.0767	  100.00	   90.75	-1549.75	   65.07
     90.1102	  100.00	   88.80	-1547.80	   65.06
     90.1436	  112.00	   87.58	-1534.58	   65.04
     90.1770	   99.00	   86.71	-1546.71	   65.03
     90.2104	   91.00	   86.05	-1554.05	   65.02
     90.2439	   76.00	   85.53	-1568.53	   65.00
     90.2773	   94.00	   85.11	-1550.11	   64.99
     90.3107	   81.00	   84.77	-1562.77	   64.97
     90.3441	   82.00	   84.48	-1561.48	   64.96
     90.3775	   74.00	   84.23	-1569.23	   64.94
     90.4110	   91.00	   84.03	-1552.03	   64.93
     90.4444	   78.00	   83.84	-1564.84	   64.91
     90.4778	   78.00	   83.69	-1564.69	   64.90
     90.5112	   91.00	   83.55	-1551.55	   64.89
     90.5447	   64.00	   83.43	-1578.43	   64.87
     90.5781	   79.00	   83.32	-1563.32	   64.86
     90.6115	   79.00	   83.22	-1563.22	   64.84
     90.6449	   78.00	   83.13	-1564.13	   64.83
     90.6784	   84.00	   83.05	-1558.05	   64.81
     90.7118	   71.00	   82.97	-1570.97	   64.80
     90.7452	   78.00	   82.91	-1563.91	   64.79
     90.7786	   81.00	   82.85	-1560.85	   64.77
     90.8120	   77.00	   82.79	-1564.79	   64.76
     90.8455	   77.00	   82.73	-1564.73	   64.74
     90.8789	   79.00	   82.69	-1562.69	   64.73
     90.9123	   86.00	   82.68	-1555.68	   64.72
     90.9457	   69.00	   82.64	-1572.64	   64.70
     90.9792	   79.00	   82.60	-1562.60	   64.69
     91.0126	   91.00	   82.56	-1550.56	   64.67
     91.0460	   98.00	   82.52	-1543.52	   64.66
     91.0794	   82.00	   82.49	-1559.49	   64.64
     91.1128	   83.00	   82.46	-1558.46	   64.63
     91.1463	  100.00	   82.43	-1541.43	   64.62
     91.1797	   69.00	   82.40	-1572.40	   64.60
     91.2131	   81.00	   82.39	-1560.39	   64.59
     91.2465	   91.00	   82.37	-1550.37	   64.57
     91.2800	  105.00	   82.35	-1536.35	   64.56
     91.3134	   74.00	   82.32	-1567.32	   64.55
     91.3468	   78.00	   82.30	-1563.30	   64.53
     91.3802	   88.00	   82.28	-1553.28	   64.52
     91.4137	   85.00	   82.27	-1556.27	   64.51
     91.4471	   81.00	   82.25	-1560.25	   64.49
     91.4805	   94.00	   82.23	-1547.23	   64.48
     91.5139	   90.00	   82.22	-1551.22	   64.46
     91.5473	   74.00	   82.21	-1567.21	   64.45
     91.5808	   97.00	   82.20	-1544.20	   64.44
     91.6142	   96.00	   82.18	-1545.18	   64.42
     91.6476	  100.00	   82.18	-1541.18	   64.41
     91.6810	   73.00	   82.17	-1568.17	   64.39
     91.7145	   92.00	   82.16	-1549.16	   64.38
     91.7479	   77.00	   82.16	-1564.16	   64.37
     91.7813	   78.00	   82.15	-1563.15	   64.35
     91.8147	   87.00	   82.15	-1554.15	   64.34
     91.8481	   83.00	   82.16	-1558.16	   64.33
     91.8816	   84.00	   82.16	-1557.16	   64.31
     91.9150	   99.00	   82.17	-1542.17	   64.30
     91.9484	   72.00	   82.18	-1569.18	   64.29
     91.9818	   90.00	   82.19	-1551.19	   64.27
     92.0153	   87.00	   82.21	-1554.21	   64.26
     92.0487	   87.00	   82.23	-1554.23	   64.25
     92.0821	   83.00	   82.26	-1558.26	   64.23
     92.1155	   84.00	   82.30	-1557.30	   64.22
     92.1489	   86.00	   82.34	-1555.34	   64.20
     92.1824	   75.00	   82.39	-1566.39	   64.19
     92.2158	  108.00	   82.46	-1533.46	   64.18
     92.2492	   85.00	   82.54	-1556.54	   64.16
     92.2826	   85.00	   82.64	-1556.64	   64.15
     92.3161	   65.00	   82.77	-1576.77	   64.14
     92.3495	   70.00	   82.92	-1571.92	   64.12
     92.3829	   87.00	   83.13	-1555.13	   64.11
     92.4163	  105.00	   83.38	-1537.38	   64.10
     92.4497	   90.00	   83.73	-1552.73	   64.08
     92.4832	   88.00	   84.20	-1555.20	   64.07
     92.5166	  101.00	   84.91	-1542.91	   64.06
     92.5500	   89.00	   86.12	-1556.12	   64.04
     92.5834	   85.00	   88.43	-1562.43	   64.03
     92.6169	   88.00	   92.90	-1563.90	   64.02
     92.6503	  113.00	  100.78	-1546.78	   64.00
     92.6837	   95.00	  112.54	-1576.54	   63.99
     92.7171	  142.00	  126.29	-1543.29	   63.98
     92.7505	  150.00	  135.93	-1544.93	   63.96
     92.7840	  156.00	  133.96	-1536.96	   63.95
     92.8174	  130.00	  122.46	-1551.46	   63.94
     92.8508	  117.00	  109.68	-1551.68	   63.93
     92.8842	  100.00	  100.50	-1559.50	   63.91
     92.9177	  102.00	   96.34	-1553.34	   63.90
     92.9511	  123.00	   96.93	-1532.93	   63.89
     92.9845	  108.00	  101.14	-1552.14	   63.87
     93.0179	  129.00	  106.89	-1536.89	   63.86
     93.0514	  128.00	  110.42	-1541.42	   63.85
     93.0848	  119.00	  108.11	-1548.11	   63.83
     93.1182	  121.00	  101.61	-1539.61	   63.82
     93.1516	  102.00	   94.82	-1551.82	   63.81
     93.1850	   96.00	   89.69	-1552.69	   63.79
     93.2185	   77.00	   86.50	-1568.50	   63.78
     93.2519	   81.00	   84.75	-1562.75	   63.77
     93.2853	   76.00	   83.81	-1566.81	   63.76
     93.3187	   74.00	   83.28	-1568.28	   63.74
     93.3522	   62.00	   82.92	-1579.92	   63.73
     93.3856	   86.00	   82.67	-1555.67	   63.72
     93.4190	   81.00	   82.47	-1560.47	   63.70
     93.4524	   79.00	   82.32	-1562.32	   63.69
     93.4858	   99.00	   82.19	-1542.19	   63.68
     93.5193	   75.00	   82.09	-1566.09	   63.67
     93.5527	   72.00	   82.00	-1569.00	   63.65
     93.5861	   84.00	   81.93	-1556.93	   63.64
     93.6195	   96.00	   81.87	-1544.87	   63.63
     93.6530	   81.00	   81.81	-1559.81	   63.61
     93.6864	   97.00	   81.77	-1543.77	   63.60
     93.7198	   83.00	   81.73	-1557.73	   63.59
     93.7532	   73.00	   81.70	-1567.70	   63.58
     93.7867	   65.00	   81.68	-1575.68	   63.56
     93.8201	   89.00	   81.62	-1551.62	   63.55
     93.8535	   82.00	   81.61	-1558.61	   63.54
     93.8869	   81.00	   81.60	-1559.60	   63.53
     93.9203	   77.00	   81.59	-1563.59	   63.51
     93.9538	   58.00	   81.58	-1582.58	   63.50
     93.9872	   68.00	   81.58	-1572.58	   63.49
     94.0206	   79.00	   81.58	-1561.58	   63.48
     94.0540	   81.00	   81.59	-1559.59	   63.46
     94.0874	   88.00	   81.62	-1552.62	   63.45
     94.1209	   83.00	   81.62	-1557.62	   63.44
     94.1543	   84.00	   81.64	-1556.64	   63.42
     94.1877	   96.00	   81.66	-1544.66	   63.41
     94.2211	   86.00	   81.69	-1554.69	   63.40
     94.2546	   75.00	   81.72	-1565.72	   63.39
     94.2880	   89.00	   81.76	-1551.76	   63.37
     94.3214	   85.00	   81.80	-1555.80	   63.36
     94.3548	   83.00	   81.85	-1557.85	   63.35
     94.3883	   81.00	   81.91	-1559.91	   63.34
     94.4217	   97.00	   81.99	-1543.99	   63.33
     94.4551	   74.00	   82.07	-1567.07	   63.31
     94.4885	   82.00	   82.17	-1559.17	   63.30
     94.5219	   75.00	   82.27	-1566.27	   63.29
     94.5554	   96.00	   82.40	-1545.40	   63.28
     94.5888	   89.00	   82.54	-1552.54	   63.26
     94.6222	   96.00	   82.70	-1545.70	   63.25
     94.6556	   75.00	   82.90	-1566.90	   63.24
     94.6891	   74.00	   83.13	-1568.13	   63.23
     94.7225	   86.00	   83.40	-1556.40	   63.21
     94.7559	   96.00	   83.72	-1546.72	   63.20
     94.7893	   84.00	   84.11	-1559.11	   63.19
     94.8227	   73.00	   84.58	-1570.58	   63.18
     94.8562	   72.00	   85.16	-1572.16	   63.17
     94.8896	   88.00	   85.89	-1556.89	   63.15
     94.9230	   94.00	   86.82	-1551.82	   63.14
     94.9564	   74.00	   88.02	-1573.02	   63.13
     94.9899	   99.00	   89.64	-1549.64	   63.12
     95.0233	   89.00	   92.01	-1562.01	   63.10
     95.0567	  106.00	   95.93	-1548.93	   63.09
     95.0901	  109.00	  103.20	-1553.20	   63.08
     95.1236	  101.00	  117.14	-1575.14	   63.07
     95.1570	  127.00	  142.00	-1574.00	   63.06
     95.1904	  152.00	  180.34	-1587.34	   63.04
     95.2238	  229.00	  228.11	-1558.11	   63.03
     95.2572	  324.00	  268.40	-1503.40	   63.02
     95.2907	  310.00	  273.73	-1522.73	   63.01
     95.3241	  245.00	  240.06	-1554.06	   63.00
     95.3575	  166.00	  193.94	-1586.94	   62.98
     95.3909	  130.00	  156.28	-1585.28	   62.97
     95.4244	  127.00	  134.71	-1566.71	   62.96
     95.4578	  124.00	  129.68	-1564.68	   62.95
     95.4912	  125.00	  138.65	-1572.65	   62.94
     95.5246	  163.00	  157.17	-1553.17	   62.92
     95.5580	  173.00	  176.75	-1562.75	   62.91
     95.5915	  199.00	  183.22	-1543.22	   62.90
     95.6249	  173.00	  169.12	-1555.12	   62.89
     95.6583	  148.00	  144.91	-1555.91	   62.88
     95.6917	  115.00	  122.45	-1566.45	   62.86
     95.7252	   96.00	  106.40	-1569.40	   62.85
     95.7586	  106.00	   96.71	-1549.71	   62.84
     95.7920	  104.00	   91.42	-1546.42	   62.83
     95.8254	   92.00	   88.55	-1555.55	   62.82
     95.8588	   79.00	   86.85	-1566.85	   62.80
     95.8923	   78.00	   85.71	-1566.71	   62.79
     95.9257	   85.00	   84.86	-1558.86	   62.78
     95.9591	   97.00	   84.20	-1546.20	   62.77
     95.9925	   82.00	   83.67	-1560.67	   62.76
     96.0260	   84.00	   83.24	-1558.24	   62.75
     96.0594	   85.00	   82.88	-1556.88	   62.73
     96.0928	   78.00	   82.58	-1563.58	   62.72
     96.1262	   76.00	   82.32	-1565.32	   62.71
     96.1597	   83.00	   82.10	-1558.10	   62.70
     96.1931	   91.00	   81.91	-1549.91	   62.69
     96.2265	   87.00	   81.75	-1553.75	   62.68
     96.2599	   65.00	   81.60	-1575.60	   62.66
     96.2933	   95.00	   81.47	-1545.47	   62.65
     96.3268	   76.00	   81.36	-1564.36	   62.64
     96.3602	   78.00	   81.25	-1562.25	   62.63
     96.3936	   77.00	   81.16	-1563.16	   62.62
     96.4270	   66.00	   81.07	-1574.07	   62.61
     96.4604	   73.00	   81.00	-1567.00	   62.59
     96.4939	   88.00	   80.93	-1551.93	   62.58
     96.5273	   82.00	   80.86	-1557.86	   62.57
     96.5607	   76.00	   80.80	-1563.80	   62.56
     96.5941	   69.00	   80.75	-1570.75	   62.55
     96.6276	   86.00	   80.70	-1553.70	   62.54
     96.6610	   69.00	   80.65	-1570.65	   62.52
     96.6944	   78.00	   80.61	-1561.61	   62.51
     96.7278	  100.00	   80.57	-1539.57	   62.50
     96.7613	   84.00	   80.53	-1555.53	   62.49
     96.7947	   85.00	   80.50	-1554.50	   62.48
     96.8281	   68.00	   80.47	-1571.47	   62.47
     96.8615	   82.00	   80.44	-1557.44	   62.46
     96.8949	   77.00	   80.41	-1562.41	   62.44
     96.9284	   92.00	   80.39	-1547.39	   62.43
     96.9618	  101.00	   80.36	-1538.36	   62.42
     96.9952	   95.00	   80.34	-1544.34	   62.41
     97.0286	   81.00	   80.32	-1558.32	   62.40
     97.0621	   83.00	   80.30	-1556.30	   62.39
     97.0955	  109.00	   80.28	-1530.28	   62.38
     97.1289	   79.00	   80.26	-1560.26	   62.37
     97.1623	   97.00	   80.25	-1542.25	   62.35
     97.1957	   97.00	   80.24	-1542.24	   62.34
     97.2292	   74.00	   80.23	-1565.23	   62.33
     97.2626	   86.00	   80.22	-1553.22	   62.32
     97.2960	   85.00	   80.21	-1554.21	   62.31
     97.3294	   82.00	   80.21	-1557.21	   62.30
     97.3629	   85.00	   80.20	-1554.20	   62.29
     97.3963	   88.00	   80.20	-1551.20	   62.27
     97.4297	   86.00	   80.20	-1553.20	   62.26
     97.4631	   83.00	   80.20	-1556.20	   62.25
     97.4966	   77.00	   80.21	-1562.21	   62.24
     97.5300	   76.00	   80.22	-1563.22	   62.23
     97.5634	   86.00	   80.23	-1553.23	   62.22
     97.5968	   83.00	   80.25	-1556.25	   62.21
     97.6302	   94.00	   80.27	-1545.27	   62.20
     97.6637	   83.00	   80.29	-1556.29	   62.19
     97.6971	   76.00	   80.32	-1563.32	   62.17
     97.7305	   78.00	   80.35	-1561.35	   62.16
     97.7639	   86.00	   80.39	-1553.39	   62.15
     97.7974	   95.00	   80.44	-1544.44	   62.14
     97.8308	   73.00	   80.49	-1566.49	   62.13
     97.8642	   95.00	   80.55	-1544.55	   62.12
     97.8976	   75.00	   80.63	-1564.63	   62.11
     97.9310	   84.00	   80.72	-1555.72	   62.10
     97.9645	   85.00	   80.82	-1554.82	   62.09
     97.9979	   83.00	   80.95	-1556.95	   62.07
     98.0313	   85.00	   81.09	-1555.09	   62.06
     98.0647	   94.00	   81.27	-1546.27	   62.05
     98.0982	   88.00	   81.49	-1552.49	   62.04
     98.1316	   75.00	   81.75	-1565.75	   62.03
     98.1650	   89.00	   82.07	-1552.07	   62.02
     98.1984	   86.00	   82.47	-1555.47	   62.01
     98.2318	   69.00	   82.98	-1572.98	   62.00
     98.2653	   91.00	   83.66	-1551.66	   61.99
     98.2987	   91.00	   84.56	-1552.56	   61.98
     98.3321	   90.00	   85.86	-1554.86	   61.96
     98.3655	   74.00	   87.97	-1572.97	   61.95
     98.3990	   82.00	   91.82	-1568.82	   61.94
     98.4324	   85.00	   99.09	-1573.09	   61.93
     98.4658	  102.00	  112.00	-1569.00	   61.92
     98.4992	  128.00	  132.08	-1563.08	   61.91
     98.5326	  155.00	  157.87	-1561.87	   61.90
     98.5661	  175.00	  181.77	-1565.77	   61.89
     98.5995	  195.00	  189.45	-1553.45	   61.88
     98.6329	  158.00	  174.67	-1575.67	   61.87
     98.6663	  126.00	  149.52	-1582.52	   61.86
     98.6998	  115.00	  126.70	-1570.70	   61.85
     98.7332	   94.00	  111.61	-1576.61	   61.83
     98.7666	   85.00	  105.18	-1579.18	   61.82
     98.8000	   98.00	  106.49	-1567.49	   61.81
     98.8335	   91.00	  114.03	-1582.03	   61.80
     98.8669	  140.00	  125.30	-1544.30	   61.79
     98.9003	  141.00	  135.13	-1553.13	   61.78
     98.9337	  129.00	  136.05	-1566.05	   61.77
     98.9671	  121.00	  126.46	-1564.46	   61.76
     99.0006	  104.00	  113.00	-1568.00	   61.75
     99.0340	   97.00	  101.19	-1563.19	   61.74
     99.0674	   91.00	   92.93	-1560.93	   61.73
     99.1008	   98.00	   87.95	-1548.95	   61.72
     99.1343	   90.00	   85.21	-1554.21	   61.71
     99.1677	   99.00	   83.69	-1543.69	   61.69
     99.2011	   86.00	   82.77	-1555.77	   61.68
     99.2345	  106.00	   82.14	-1535.14	   61.67
     99.2679	  102.00	   81.67	-1538.67	   61.66
     99.3014	   84.00	   81.30	-1556.30	   61.65
     99.3348	   79.00	   81.00	-1561.00	   61.64
     99.3682	   85.00	   80.75	-1554.75	   61.63
     99.4016	   66.00	   80.57	-1573.57	   61.62
     99.4351	   76.00	   80.39	-1563.40	   61.61
     99.4685	   77.00	   80.25	-1562.25	   61.60
     99.5019	   72.00	   80.12	-1567.12	   61.59
     99.5353	   60.00	   80.00	-1579.00	   61.58
     99.5687	   96.00	   79.91	-1542.91	   61.57
     99.6022	   92.00	   79.82	-1546.82	   61.56
     99.6356	  102.00	   79.74	-1536.74	   61.55
     99.6690	   91.00	   79.67	-1547.67	   61.54
     99.7024	   86.00	   79.57	-1552.57	   61.53
     99.7359	   77.00	   79.51	-1561.51	   61.51
     99.7693	   82.00	   79.46	-1556.46	   61.50
     99.8027	   87.00	   79.42	-1551.42	   61.49
     99.8361	   74.00	   79.37	-1564.37	   61.48
     99.8696	   75.00	   79.33	-1563.33	   61.47
     99.9030	   86.00	   79.29	-1552.29	   61.46
     99.9364	   86.00	   79.25	-1552.25	   61.45
     99.9698	   79.00	   79.22	-1559.22	   61.44
    100.0032	   79.00	   79.17	-1559.17	   61.43
    100.0367	   88.00	   79.14	-1550.14	   61.42
    100.0701	   84.00	   79.11	-1554.11	   61.41
    100.1035	   84.00	   79.09	-1554.09	   61.40
    100.1369	   84.00	   79.06	-1554.06	   61.39
    100.1704	   70.00	   79.04	-1568.04	   61.38
    100.2038	   68.00	   79.01	-1570.01	   61.37
    100.2372	   76.00	   78.99	-1561.99	   61.36
    100.2706	   81.00	   78.97	-1556.97	   61.35
    100.3040	   90.00	   78.95	-1547.95	   61.34
    100.3375	   86.00	   78.93	-1551.93	   61.33
    100.3709	   79.00	   78.91	-1558.91	   61.32
    100.4043	   95.00	   78.90	-1542.90	   61.31
    100.4377	   90.00	   78.88	-1547.88	   61.30
    100.4712	   79.00	   78.86	-1558.86	   61.29
    100.5046	   78.00	   78.85	-1559.85	   61.28
    100.5380	   71.00	   78.83	-1566.83	   61.27
    100.5714	   69.00	   78.82	-1568.82	   61.26
    100.6048	   92.00	   78.80	-1545.80	   61.24
    100.6383	   60.00	   78.79	-1577.79	   61.23
    100.6717	   89.00	   78.78	-1548.78	   61.22
    100.7051	   86.00	   78.76	-1551.76	   61.21
    100.7385	   71.00	   78.75	-1566.75	   61.20
    100.7720	   66.00	   78.74	-1571.74	   61.19
    100.8054	   78.00	   78.73	-1559.73	   61.18
    100.8388	   66.00	   78.71	-1571.71	   61.17
    100.8722	   75.00	   78.70	-1562.70	   61.16
    100.9056	   65.00	   78.69	-1572.69	   61.15
    100.9391	   75.00	   78.68	-1562.68	   61.14
    100.9725	   68.00	   78.67	-1569.67	   61.13
    101.0059	   90.00	   78.66	-1547.66	   61.12
    101.0393	   71.00	   78.66	-1566.66	   61.11
    101.0728	   77.00	   78.65	-1560.65	   61.10
    101.1062	   68.00	   78.64	-1569.64	   61.09
    101.1396	   73.00	   78.63	-1564.63	   61.08
    101.1730	   76.00	   78.62	-1561.62	   61.07
    101.2065	   78.00	   78.62	-1559.62	   61.06
    101.2399	   69.00	   78.61	-1568.61	   61.05
    101.2733	   77.00	   78.60	-1560.60	   61.04
    101.3067	   74.00	   78.60	-1563.60	   61.03
    101.3401	  100.00	   78.59	-1537.59	   61.02
    101.3736	   76.00	   78.59	-1561.59	   61.01
    101.4070	   86.00	   78.59	-1551.59	   61.00
    101.4404	   78.00	   78.58	-1559.58	   60.99
    101.4738	   82.00	   78.58	-1555.58	   60.98
    101.5073	   66.00	   78.58	-1571.58	   60.97
    101.5407	   77.00	   78.58	-1560.58	   60.96
    101.5741	   68.00	   78.57	-1569.57	   60.95
    101.6075	   76.00	   78.58	-1561.58	   60.94
    101.6409	   87.00	   78.58	-1550.58	   60.93
    101.6744	   83.00	   78.58	-1554.58	   60.92
    101.7078	   74.00	   78.58	-1563.58	   60.91
    101.7412	   78.00	   78.59	-1559.59	   60.90
    101.7746	   69.00	   78.59	-1568.59	   60.89
    101.8081	   82.00	   78.60	-1555.60	   60.88
    101.8415	   90.00	   78.61	-1547.61	   60.87
    101.8749	   81.00	   78.62	-1556.62	   60.86
    101.9083	   83.00	   78.63	-1554.63	   60.85
    101.9417	   72.00	   78.64	-1565.64	   60.84
    101.9752	   75.00	   78.66	-1562.66	   60.83
    102.0086	  102.00	   78.68	-1535.68	   60.82
    102.0420	   73.00	   78.70	-1564.70	   60.81
    102.0754	   89.00	   78.73	-1548.73	   60.80
    102.1089	   77.00	   78.76	-1560.76	   60.79
    102.1423	   65.00	   78.80	-1572.80	   60.78
    102.1757	   72.00	   78.84	-1565.84	   60.77
    102.2091	   79.00	   78.89	-1558.89	   60.76
    102.2426	   76.00	   78.95	-1561.95	   60.75
    102.2760	   84.00	   79.01	-1554.01	   60.74
    102.3094	   96.00	   79.09	-1542.09	   60.73
    102.3428	   73.00	   79.18	-1565.18	   60.72
    102.3762	   83.00	   79.29	-1555.29	   60.71
    102.4097	   82.00	   79.43	-1556.43	   60.70
    102.4431	   84.00	   79.59	-1554.59	   60.69
    102.4765	   74.00	   79.78	-1564.78	   60.68
    102.5099	   79.00	   80.03	-1560.03	   60.67
    102.5434	   83.00	   80.33	-1556.33	   60.66
    102.5768	   68.00	   80.74	-1571.74	   60.65
    102.6102	   81.00	   81.27	-1559.27	   60.64
    102.6436	   81.00	   82.05	-1560.05	   60.63
    102.6770	  101.00	   83.32	-1541.32	   60.62
    102.7105	   72.00	   85.60	-1572.60	   60.61
    102.7439	  100.00	   89.78	-1548.78	   60.60
    102.7773	  104.00	   96.99	-1551.99	   60.59
    102.8107	   97.00	  107.95	-1569.95	   60.58
    102.8442	  103.00	  121.89	-1577.89	   60.57
    102.8776	  133.00	  135.04	-1561.04	   60.56
    102.9110	  156.00	  140.12	-1543.12	   60.55
    102.9444	  131.00	  133.23	-1561.23	   60.54
    102.9778	  123.00	  119.87	-1555.87	   60.54
    103.0113	  103.00	  106.90	-1562.90	   60.53
    103.0447	   96.00	   97.56	-1560.56	   60.52
    103.0781	   99.00	   92.55	-1552.55	   60.51
    103.1115	   92.00	   91.48	-1558.48	   60.50
    103.1450	   89.00	   93.80	-1563.80	   60.49
    103.1784	  101.00	   98.83	-1556.83	   60.48
    103.2118	  104.00	  105.24	-1560.24	   60.47
    103.2452	  103.00	  110.19	-1566.19	   60.46
    103.2786	  104.00	  109.99	-1564.99	   60.45
    103.3121	  112.00	  104.52	-1551.52	   60.44
    103.3455	  100.00	   97.31	-1556.31	   60.43
    103.3789	  105.00	   91.05	-1545.05	   60.42
    103.4123	   87.00	   86.65	-1558.65	   60.41
    103.4458	   83.00	   83.98	-1559.98	   60.40
    103.4792	  104.00	   82.54	-1537.54	   60.39
    103.5126	   85.00	   81.80	-1555.80	   60.38
    103.5460	   70.00	   81.42	-1570.42	   60.37
    103.5795	   73.00	   81.25	-1567.25	   60.36
    103.6129	   82.00	   81.20	-1558.20	   60.35
    103.6463	   72.00	   81.26	-1568.26	   60.34
    103.6797	   92.00	   81.42	-1548.42	   60.33
    103.7131	   90.00	   81.68	-1550.68	   60.32
    103.7466	   77.00	   82.08	-1564.08	   60.31
    103.7800	   75.00	   82.64	-1566.64	   60.30
    103.8134	   71.00	   83.44	-1571.44	   60.29
    103.8468	  115.00	   84.66	-1528.66	   60.28
    103.8803	   81.00	   86.69	-1564.69	   60.27
    103.9137	   78.00	   90.36	-1571.36	   60.26
    103.9471	  118.00	   97.13	-1538.13	   60.25
    103.9805	  103.00	  108.79	-1564.79	   60.25
    104.0139	  129.00	  126.57	-1556.57	   60.24
    104.0474	  153.00	  149.37	-1555.37	   60.23
    104.0808	  204.00	  171.38	-1526.38	   60.22
    104.1142	  212.00	  181.05	-1528.05	   60.21
    104.1476	  191.00	  171.02	-1539.02	   60.20
    104.1811	  152.00	  149.31	-1556.31	   60.19
    104.2145	  110.00	  127.43	-1576.43	   60.18
    104.2479	  122.00	  111.11	-1548.11	   60.17
    104.2813	  109.00	  101.78	-1551.78	   60.16
    104.3148	  106.00	   98.90	-1551.90	   60.15
    104.3482	  101.00	  101.57	-1559.57	   60.14
    104.3816	  106.00	  108.86	-1561.86	   60.13
    104.4150	  100.00	  119.11	-1578.11	   60.12
    104.4484	  166.00	  128.61	-1521.61	   60.11
    104.4819	  146.00	  131.25	-1544.25	   60.10
    104.5153	  115.00	  124.36	-1568.36	   60.09
    104.5487	   97.00	  112.63	-1574.63	   60.08
    104.5821	  101.00	  101.37	-1559.37	   60.07
    104.6155	  103.00	   92.87	-1548.87	   60.06
    104.6490	   77.00	   87.38	-1569.38	   60.05
    104.6824	   78.00	   84.19	-1565.19	   60.05
    104.7158	   76.00	   82.40	-1565.40	   60.04
    104.7492	   87.00	   81.34	-1553.34	   60.03
    104.7827	   88.00	   80.64	-1551.64	   60.02
    104.8161	   57.00	   80.14	-1582.14	   60.01
    104.8495	   73.00	   79.75	-1565.75	   60.00
    104.8829	   77.00	   79.44	-1561.44	   59.99
    104.9164	   69.00	   79.18	-1569.18	   59.98
    104.9498	   72.00	   78.97	-1565.97	   59.97
    104.9832	   99.00	   78.79	-1538.79	   59.96
    105.0166	   64.00	   78.63	-1573.63	   59.95
    105.0500	   91.00	   78.50	-1546.50	   59.94
    105.0835	   82.00	   78.38	-1555.38	   59.93
    105.1169	   75.00	   78.28	-1562.28	   59.92
    105.1503	   82.00	   78.19	-1555.19	   59.91
    105.1837	   63.00	   78.11	-1574.11	   59.90
    105.2172	   88.00	   78.04	-1549.04	   59.89
    105.2506	   86.00	   77.97	-1550.97	   59.88
    105.2840	   66.00	   77.91	-1570.91	   59.88
    105.3174	   89.00	   77.85	-1547.85	   59.87
    105.3508	   87.00	   77.80	-1549.80	   59.86
    105.3843	   79.00	   77.77	-1557.77	   59.85
    105.4177	   81.00	   77.72	-1555.72	   59.84
    105.4511	   96.00	   77.68	-1540.68	   59.83
    105.4845	   91.00	   77.65	-1545.65	   59.82
    105.5180	   54.00	   77.61	-1582.61	   59.81
    105.5514	   75.00	   77.58	-1561.58	   59.80
    105.5848	   72.00	   77.55	-1564.55	   59.79
    105.6182	   81.00	   77.52	-1555.52	   59.78
    105.6516	   92.00	   77.49	-1544.49	   59.77
    105.6851	   76.00	   77.46	-1560.46	   59.76
    105.7185	   89.00	   77.44	-1547.44	   59.75
    105.7519	   78.00	   77.42	-1558.42	   59.74
    105.7853	   94.00	   77.40	-1542.40	   59.73
    105.8188	   83.00	   77.38	-1553.38	   59.73
    105.8522	   75.00	   77.36	-1561.36	   59.72
    105.8856	   78.00	   77.34	-1558.34	   59.71
    105.9190	   66.00	   77.32	-1570.32	   59.70
    105.9525	   72.00	   77.30	-1564.30	   59.69
    105.9859	   65.00	   77.29	-1571.29	   59.68
    106.0193	   85.00	   77.27	-1551.27	   59.67
    106.0527	   65.00	   77.26	-1571.26	   59.66
    106.0861	   78.00	   77.24	-1558.24	   59.65
    106.1196	   73.00	   77.23	-1563.23	   59.64
    106.1530	   66.00	   77.21	-1570.21	   59.63
    106.1864	   76.00	   77.20	-1560.20	   59.62
    106.2198	   83.00	   77.19	-1553.19	   59.61
    106.2533	   90.00	   77.18	-1546.18	   59.60
    106.2867	   78.00	   77.17	-1558.17	   59.59
    106.3201	   74.00	   77.16	-1562.16	   59.59
    106.3535	   88.00	   77.15	-1548.15	   59.58
    106.3869	   84.00	   77.14	-1552.14	   59.57
    106.4204	   78.00	   77.14	-1558.14	   59.56
    106.4538	   73.00	   77.13	-1563.13	   59.55
    106.4872	   56.00	   77.12	-1580.12	   59.54
    106.5206	   84.00	   77.12	-1552.12	   59.53
    106.5541	   84.00	   77.12	-1552.12	   59.52
    106.5875	   76.00	   77.12	-1560.12	   59.51
    106.6209	   60.00	   77.12	-1576.12	   59.50
    106.6543	   72.00	   77.12	-1564.12	   59.49
    106.6878	   84.00	   77.12	-1552.12	   59.48
    106.7212	   75.00	   77.13	-1561.13	   59.47
    106.7546	   72.00	   77.14	-1564.14	   59.46
    106.7880	   68.00	   77.15	-1568.15	   59.46
    106.8214	   64.00	   77.17	-1572.17	   59.45
    106.8549	   65.00	   77.19	-1571.19	   59.44
    106.8883	   71.00	   77.22	-1565.22	   59.43
    106.9217	   82.00	   77.26	-1554.26	   59.42
    106.9551	   83.00	   77.31	-1553.31	   59.41
    106.9885	   73.00	   77.37	-1563.37	   59.40
    107.0220	   69.00	   77.45	-1567.45	   59.39
    107.0554	   82.00	   77.55	-1554.55	   59.38
    107.0888	   64.00	   77.68	-1572.68	   59.37
    107.1222	   60.00	   77.87	-1576.87	   59.36
    107.1557	   86.00	   78.15	-1551.15	   59.35
    107.1891	   78.00	   78.64	-1559.64	   59.34
    107.2225	   60.00	   79.51	-1578.51	   59.34
    107.2559	   76.00	   81.06	-1564.06	   59.33
    107.2894	   89.00	   83.60	-1553.60	   59.32
    107.3228	  103.00	   87.27	-1543.27	   59.31
    107.3562	   72.00	   91.71	-1578.71	   59.30
    107.3896	  105.00	   95.61	-1549.61	   59.29
    107.4230	  103.00	   96.80	-1552.80	   59.28
    107.4565	  102.00	   94.40	-1551.40	   59.27
    107.4899	   81.00	   90.16	-1568.16	   59.26
    107.5233	   82.00	   86.05	-1563.05	   59.25
    107.5567	   72.00	   82.99	-1569.99	   59.24
    107.5902	   82.00	   81.17	-1558.17	   59.23
    107.6236	  105.00	   80.49	-1534.49	   59.22
    107.6570	   73.00	   80.79	-1566.79	   59.22
    107.6904	   85.00	   81.93	-1555.93	   59.21
    107.7238	   81.00	   83.73	-1561.73	   59.20
    107.7573	   83.00	   85.74	-1561.74	   59.19
    107.7907	   66.00	   87.02	-1580.02	   59.18
    107.8241	   76.00	   86.59	-1569.59	   59.17
    107.8575	   72.00	   84.70	-1571.70	   59.16
    107.8910	   75.00	   82.42	-1566.42	   59.15
    107.9244	   66.00	   80.47	-1573.47	   59.14
    107.9578	   86.00	   79.07	-1552.07	   59.13
    107.9912	   82.00	   78.19	-1555.19	   59.12
    108.0247	   71.00	   77.68	-1565.68	   59.11
    108.0581	   60.00	   77.38	-1576.38	   59.10
    108.0915	   63.00	   77.20	-1573.20	   59.10
    108.1249	   81.00	   77.07	-1555.07	   59.09
    108.1583	   88.00	   76.97	-1547.97	   59.08
    108.1918	   78.00	   76.90	-1557.90	   59.07
    108.2252	   72.00	   76.83	-1563.83	   59.06
    108.2586	   73.00	   76.78	-1562.78	   59.05
    108.2920	   68.00	   76.74	-1567.74	   59.04
    108.3255	   84.00	   76.70	-1551.70	   59.03
    108.3589	   68.00	   76.66	-1567.66	   59.02
    108.3923	   96.00	   76.63	-1539.63	   59.01
    108.4257	   72.00	   76.61	-1563.61	   59.00
    108.4591	   79.00	   76.58	-1556.58	   58.99
    108.4926	   76.00	   76.56	-1559.56	   58.99
    108.5260	   89.00	   76.54	-1546.54	   58.98
    108.5594	   74.00	   76.53	-1561.53	   58.97
    108.5928	   61.00	   76.51	-1574.51	   58.96
    108.6263	   69.00	   76.49	-1566.49	   58.95
    108.6597	   81.00	   76.48	-1554.48	   58.94
    108.6931	   69.00	   76.47	-1566.47	   58.93
    108.7265	   81.00	   76.46	-1554.46	   58.92
    108.7599	   81.00	   76.45	-1554.45	   58.91
    108.7934	   90.00	   76.44	-1545.44	   58.90
    108.8268	   72.00	   76.43	-1563.43	   58.89
    108.8602	   77.00	   76.40	-1558.40	   58.88
    108.8936	   81.00	   76.39	-1554.39	   58.88
    108.9271	   65.00	   76.39	-1570.39	   58.87
    108.9605	   85.00	   76.38	-1550.38	   58.86
    108.9939	   71.00	   76.38	-1564.38	   58.85
    109.0273	   84.00	   76.37	-1551.37	   58.84
    109.0607	   71.00	   76.37	-1564.37	   58.83
    109.0942	   73.00	   76.37	-1562.37	   58.82
    109.1276	   79.00	   76.37	-1556.37	   58.81
    109.1610	   70.00	   76.37	-1565.37	   58.80
    109.1944	   71.00	   76.37	-1564.37	   58.79
    109.2279	   77.00	   76.36	-1558.36	   58.78
    109.2613	   74.00	   76.37	-1561.37	   58.77
    109.2947	   73.00	   76.38	-1562.38	   58.77
    109.3281	   68.00	   76.38	-1567.38	   58.76
    109.3615	   69.00	   76.39	-1566.39	   58.75
    109.3950	   74.00	   76.41	-1561.41	   58.74
    109.4284	   68.00	   76.42	-1567.42	   58.73
    109.4618	   74.00	   76.44	-1561.44	   58.72
    109.4952	   62.00	   76.46	-1573.46	   58.71
    109.5287	   70.00	   76.48	-1565.48	   58.70
    109.5621	   84.00	   76.51	-1551.51	   58.69
    109.5955	   71.00	   76.54	-1564.54	   58.68
    109.6289	   82.00	   76.58	-1553.58	   58.67
    109.6624	   65.00	   76.63	-1570.63	   58.66
    109.6958	   61.00	   76.68	-1574.68	   58.66
    109.7292	   69.00	   76.74	-1566.74	   58.65
    109.7626	   70.00	   76.82	-1565.82	   58.64
    109.7960	   86.00	   76.91	-1549.91	   58.63
    109.8295	   68.00	   77.01	-1568.01	   58.62
    109.8629	   77.00	   77.14	-1559.14	   58.61
    109.8963	   74.00	   77.30	-1562.30	   58.60
    109.9297	   62.00	   77.49	-1574.49	   58.59
    109.9632	   87.00	   77.73	-1549.73	   58.58
    109.9966	   90.00	   78.04	-1547.04	   58.57
    110.0300	   65.00	   78.44	-1572.44	   58.56
    110.0634	   77.00	   78.99	-1560.99	   58.55
    110.0968	   69.00	   79.81	-1569.81	   58.54
    110.1303	   78.00	   81.18	-1562.18	   58.54
    110.1637	   86.00	   83.57	-1556.57	   58.53
    110.1971	   97.00	   87.74	-1549.74	   58.52
    110.2305	  101.00	   94.50	-1552.50	   58.51
    110.2640	  121.00	  104.23	-1542.23	   58.50
    110.2974	  138.00	  116.13	-1537.13	   58.49
    110.3308	  165.00	  127.18	-1521.18	   58.48
    110.3642	  148.00	  131.90	-1542.90	   58.47
    110.3977	  153.00	  126.99	-1532.99	   58.46
    110.4311	  136.00	  116.04	-1539.04	   58.45
    110.4645	   85.00	  104.51	-1578.51	   58.44
    110.4979	   94.00	   95.34	-1560.34	   58.43
    110.5313	   97.00	   89.37	-1551.37	   58.43
    110.5648	   71.00	   86.41	-1574.41	   58.42
    110.5982	   91.00	   86.00	-1554.00	   58.41
    110.6316	   83.00	   87.81	-1563.81	   58.40
    110.6650	  102.00	   91.61	-1548.61	   58.39
    110.6985	  106.00	   96.86	-1549.86	   58.38
    110.7319	  121.00	  102.16	-1540.16	   58.37
    110.7653	  118.00	  104.88	-1545.88	   58.36
    110.7987	  116.00	  102.91	-1545.91	   58.35
    110.8321	  111.00	   97.49	-1545.49	   58.34
    110.8656	  117.00	   91.38	-1533.38	   58.33
    110.8990	   89.00	   86.24	-1556.24	   58.32
    110.9324	   91.00	   82.61	-1550.61	   58.31
    110.9658	   94.00	   80.29	-1545.29	   58.31
    110.9993	   75.00	   78.92	-1562.92	   58.30
    111.0327	   78.00	   78.12	-1559.12	   58.29
    111.0661	   65.00	   77.62	-1571.62	   58.28
    111.0995	   79.00	   77.28	-1557.28	   58.27
    111.1329	   79.00	   77.03	-1557.03	   58.26
    111.1664	   86.00	   76.83	-1549.83	   58.25
    111.1998	   79.00	   76.66	-1556.66	   58.24
    111.2332	   71.00	   76.53	-1564.53	   58.23
    111.2666	   74.00	   76.41	-1561.41	   58.22
    111.3001	   75.00	   76.31	-1560.31	   58.21
    111.3335	   98.00	   76.23	-1537.23	   58.20
    111.3669	   71.00	   76.17	-1564.17	   58.19
    111.4003	   69.00	   76.10	-1566.10	   58.19
    111.4337	   73.00	   76.04	-1562.04	   58.18
    111.4672	   78.00	   75.99	-1556.99	   58.17
    111.5006	   83.00	   75.94	-1551.94	   58.16
    111.5340	   57.00	   75.90	-1577.90	   58.15
    111.5674	   64.00	   75.86	-1570.86	   58.14
    111.6009	   86.00	   75.83	-1548.83	   58.13
    111.6343	   56.00	   75.79	-1578.79	   58.12
    111.6677	   77.00	   75.76	-1557.76	   58.11
    111.7011	   78.00	   75.73	-1556.73	   58.10
    111.7346	   84.00	   75.71	-1550.71	   58.09
    111.7680	   60.00	   75.68	-1574.68	   58.08
    111.8014	   77.00	   75.66	-1557.66	   58.07
    111.8348	   61.00	   75.63	-1573.63	   58.07
    111.8682	   57.00	   75.61	-1577.61	   58.06
    111.9017	   84.00	   75.59	-1550.59	   58.05
    111.9351	   71.00	   75.57	-1563.57	   58.04
    111.9685	   75.00	   75.55	-1559.55	   58.03
    112.0019	   74.00	   75.53	-1560.53	   58.02
    112.0354	   69.00	   75.52	-1565.52	   58.01
    112.0688	   69.00	   75.50	-1565.50	   58.00
    112.1022	   68.00	   75.48	-1566.48	   57.99
    112.1356	   62.00	   75.47	-1572.47	   57.98
    112.1690	   71.00	   75.45	-1563.45	   57.97
    112.2025	   84.00	   75.44	-1550.44	   57.96
    112.2359	   76.00	   75.42	-1558.42	   57.95
    112.2693	   78.00	   75.41	-1556.41	   57.94
    112.3027	   75.00	   75.39	-1559.39	   57.93
    112.3362	   76.00	   75.38	-1558.38	   57.93
    112.3696	   76.00	   75.37	-1558.37	   57.92
    112.4030	   76.00	   75.35	-1558.35	   57.91
    112.4364	   87.00	   75.34	-1547.34	   57.90
    112.4698	   74.00	   75.33	-1560.33	   57.89
    112.5033	   82.00	   75.32	-1552.32	   57.88
    112.5367	   77.00	   75.30	-1557.30	   57.87
    112.5701	   86.00	   75.29	-1548.29	   57.86
    112.6035	   68.00	   75.28	-1566.28	   57.85
    112.6370	   70.00	   75.27	-1564.27	   57.84
    112.6704	   62.00	   75.26	-1572.26	   57.83
    112.7038	   87.00	   75.25	-1547.25	   57.82
    112.7372	   77.00	   75.24	-1557.24	   57.81
    112.7707	   86.00	   75.23	-1548.23	   57.80
    112.8041	   86.00	   75.22	-1548.22	   57.79
    112.8375	   60.00	   75.21	-1574.21	   57.79
    112.8709	   56.00	   75.20	-1578.20	   57.78
    112.9043	   77.00	   75.19	-1557.19	   57.77
    112.9378	   78.00	   75.18	-1556.18	   57.76
    112.9712	   60.00	   75.17	-1574.17	   57.75
    113.0046	   76.00	   75.16	-1558.16	   57.74
    113.0380	   55.00	   75.15	-1579.15	   57.73
    113.0714	   77.00	   75.14	-1557.14	   57.72
    113.1049	   75.00	   75.13	-1559.13	   57.71
    113.1383	   70.00	   75.12	-1564.12	   57.70
    113.1717	   73.00	   75.11	-1561.11	   57.69
    113.2051	   77.00	   75.10	-1557.10	   57.68
    113.2386	   86.00	   75.09	-1548.09	   57.67
    113.2720	   72.00	   75.09	-1562.09	   57.66
    113.3054	   75.00	   75.08	-1559.08	   57.65
    113.3388	   89.00	   75.07	-1545.07	   57.64
    113.3723	   62.00	   75.06	-1572.06	   57.63
    113.4057	   78.00	   75.05	-1556.05	   57.63
    113.4391	   66.00	   75.05	-1568.05	   57.62
    113.4725	   72.00	   75.04	-1562.04	   57.61
    113.5059	   69.00	   75.03	-1565.03	   57.60
    113.5394	   74.00	   75.02	-1560.02	   57.59
    113.5728	   72.00	   75.02	-1562.02	   57.58
    113.6062	   63.00	   75.01	-1571.01	   57.57
    113.6396	   62.00	   75.00	-1572.00	   57.56
    113.6731	   71.00	   75.00	-1563.00	   57.55
    113.7065	   84.00	   74.99	-1549.99	   57.54
    113.7399	   68.00	   74.98	-1565.98	   57.53
    113.7733	   76.00	   74.98	-1557.98	   57.52
    113.8067	   76.00	   74.97	-1557.97	   57.51
    113.8402	   74.00	   74.97	-1559.97	   57.50
    113.8736	   86.00	   74.96	-1547.96	   57.49
    113.9070	   69.00	   74.95	-1564.95	   57.48
    113.9404	   70.00	   74.95	-1563.95	   57.47
    113.9739	   77.00	   74.94	-1556.94	   57.46
    114.0073	   61.00	   74.94	-1572.94	   57.45
    114.0407	   72.00	   74.94	-1561.94	   57.45
    114.0741	   62.00	   74.93	-1571.93	   57.44
    114.1076	   72.00	   74.93	-1561.93	   57.43
    114.1410	   73.00	   74.92	-1560.92	   57.42
    114.1744	   81.00	   74.92	-1552.92	   57.41
    114.2078	   90.00	   74.92	-1543.92	   57.40
    114.2412	   73.00	   74.91	-1560.91	   57.39
    114.2747	   88.00	   74.91	-1545.91	   57.38
    114.3081	   64.00	   74.91	-1569.91	   57.37
    114.3415	   66.00	   74.91	-1567.91	   57.36
    114.3749	   76.00	   74.91	-1557.91	   57.35
    114.4084	   58.00	   74.91	-1575.91	   57.34
    114.4418	   69.00	   74.91	-1564.91	   57.33
    114.4752	   69.00	   74.91	-1564.91	   57.32
    114.5086	   63.00	   74.91	-1570.91	   57.31
    114.5420	   65.00	   74.91	-1568.91	   57.30
    114.5755	   71.00	   74.91	-1562.91	   57.29
    114.6089	   60.00	   74.92	-1573.92	   57.28
    114.6423	   75.00	   74.92	-1558.92	   57.27
    114.6757	   91.00	   74.93	-1542.93	   57.26
    114.7092	   59.00	   74.93	-1574.93	   57.25
    114.7426	   71.00	   74.94	-1562.94	   57.24
    114.7760	   85.00	   74.95	-1548.95	   57.23
    114.8094	   76.00	   74.96	-1557.96	   57.22
    114.8428	   74.00	   74.97	-1559.97	   57.22
    114.8763	   79.00	   74.98	-1554.98	   57.21
    114.9097	   83.00	   74.99	-1550.99	   57.20
    114.9431	   62.00	   75.01	-1572.01	   57.19
    114.9765	   65.00	   75.02	-1569.02	   57.18
    115.0100	   77.00	   75.04	-1557.04	   57.17
    115.0434	   76.00	   75.07	-1558.07	   57.16
    115.0768	   82.00	   75.09	-1552.09	   57.15
    115.1102	   62.00	   75.12	-1572.12	   57.14
    115.1437	   60.00	   75.15	-1574.15	   57.13
    115.1771	   74.00	   75.18	-1560.18	   57.12
    115.2105	   63.00	   75.22	-1571.22	   57.11
    115.2439	   72.00	   75.26	-1562.26	   57.10
    115.2773	   69.00	   75.31	-1565.31	   57.09
    115.3108	   69.00	   75.36	-1565.36	   57.08
    115.3442	   89.00	   75.42	-1545.42	   57.07
    115.3776	   92.00	   75.48	-1542.48	   57.06
    115.4110	   63.00	   75.55	-1571.55	   57.05
    115.4445	   72.00	   75.64	-1562.64	   57.04
    115.4779	   86.00	   75.74	-1548.74	   57.03
    115.5113	   91.00	   75.85	-1543.85	   57.02
    115.5447	   70.00	   75.98	-1564.98	   57.01
    115.5781	   89.00	   76.12	-1546.12	   57.00
    115.6116	   77.00	   76.29	-1558.29	   56.99
    115.6450	   81.00	   76.49	-1554.49	   56.98
    115.6784	   88.00	   76.72	-1547.72	   56.97
    115.7118	   78.00	   77.00	-1558.00	   56.96
    115.7453	   73.00	   77.33	-1563.33	   56.95
    115.7787	   99.00	   77.72	-1537.72	   56.94
    115.8121	   84.00	   78.19	-1553.19	   56.93
    115.8455	   72.00	   78.79	-1565.79	   56.92
    115.8789	   87.00	   79.53	-1551.53	   56.91
    115.9124	   87.00	   80.49	-1552.49	   56.90
    115.9458	   83.00	   81.81	-1557.81	   56.89
    115.9792	   88.00	   83.76	-1554.76	   56.88
    116.0126	  102.00	   86.91	-1543.91	   56.87
    116.0461	   96.00	   92.25	-1555.25	   56.86
    116.0795	  112.00	  101.20	-1548.20	   56.85
    116.1129	  135.00	  115.28	-1539.28	   56.84
    116.1463	  166.00	  135.33	-1528.33	   56.83
    116.1797	  207.00	  160.24	-1512.24	   56.82
    116.2132	  253.00	  185.31	-1491.31	   56.81
    116.2466	  274.00	  200.93	-1485.93	   56.80
    116.2800	  284.00	  197.81	-1472.81	   56.79
    116.3134	  232.00	  178.25	-1505.25	   56.78
    116.3469	  161.00	  152.95	-1550.95	   56.77
    116.3803	  152.00	  129.99	-1536.99	   56.76
    116.4137	  135.00	  112.77	-1536.77	   56.75
    116.4471	  119.00	  101.77	-1541.77	   56.74
    116.4806	  102.00	   96.18	-1553.18	   56.73
    116.5140	   87.00	   95.03	-1567.03	   56.72
    116.5474	  101.00	   97.77	-1555.77	   56.71
    116.5808	  128.00	  104.25	-1535.25	   56.70
    116.6142	  121.00	  114.12	-1552.12	   56.69
    116.6477	  140.00	  126.04	-1545.04	   56.68
    116.6811	  143.00	  136.63	-1552.63	   56.67
    116.7145	  155.00	  140.55	-1544.55	   56.66
    116.7479	  154.00	  134.86	-1539.86	   56.65
    116.7814	  142.00	  122.91	-1539.91	   56.64
    116.8148	  130.00	  109.91	-1538.91	   56.63
    116.8482	  100.00	   98.86	-1557.86	   56.62
    116.8816	  103.00	   90.76	-1546.76	   56.61
    116.9150	   92.00	   85.42	-1552.42	   56.60
    116.9485	   76.00	   82.14	-1565.14	   56.59
    116.9819	   81.00	   80.16	-1558.16	   56.58
    117.0153	   73.00	   78.92	-1564.92	   56.57
    117.0487	   72.00	   78.09	-1565.09	   56.56
    117.0822	   72.00	   77.48	-1564.48	   56.55
    117.1156	   63.00	   77.00	-1573.00	   56.54
    117.1490	   82.00	   76.62	-1553.62	   56.53
    117.1824	   73.00	   76.30	-1562.30	   56.52
    117.2159	   55.00	   76.03	-1580.03	   56.51
    117.2493	   71.00	   75.80	-1563.80	   56.50
    117.2827	   77.00	   75.61	-1557.61	   56.49
    117.3161	   74.00	   75.44	-1560.44	   56.48
    117.3495	   72.00	   75.29	-1562.29	   56.47
    117.3830	   85.00	   75.16	-1549.16	   56.46
    117.4164	   84.00	   75.04	-1550.04	   56.45
    117.4498	   81.00	   74.94	-1552.94	   56.44
    117.4832	   62.00	   74.84	-1571.84	   56.43
    117.5166	   99.00	   74.76	-1534.76	   56.42
    117.5501	   78.00	   74.68	-1555.68	   56.41
    117.5835	   92.00	   74.61	-1541.61	   56.40
    117.6169	   69.00	   74.54	-1564.54	   56.39
    117.6503	   63.00	   74.48	-1570.48	   56.38
    117.6838	   63.00	   74.43	-1570.43	   56.37
    117.7172	   63.00	   74.38	-1570.38	   56.36
    117.7506	   79.00	   74.33	-1554.33	   56.35
    117.7840	   87.00	   74.28	-1546.28	   56.34
    117.8175	   76.00	   74.24	-1557.24	   56.33
    117.8509	   65.00	   74.20	-1568.20	   56.32
    117.8843	   66.00	   74.16	-1567.16	   56.31
    117.9177	   76.00	   74.13	-1557.13	   56.30
    117.9511	   70.00	   74.10	-1563.10	   56.29
    117.9846	   73.00	   74.06	-1560.06	   56.28
    118.0180	   70.00	   74.03	-1563.03	   56.27
    118.0514	   76.00	   74.00	-1557.00	   56.26
    118.0848	   60.00	   73.98	-1572.98	   56.25
    118.1183	   86.00	   73.95	-1546.95	   56.24
    118.1517	   64.00	   73.93	-1568.93	   56.23
    118.1851	   76.00	   73.90	-1556.90	   56.22
    118.2185	   75.00	   73.88	-1557.88	   56.21
    118.2519	   65.00	   73.85	-1567.85	   56.20
    118.2854	   89.00	   73.83	-1543.83	   56.19
    118.3188	   69.00	   73.81	-1563.81	   56.17
    118.3522	   58.00	   73.79	-1574.79	   56.16
    118.3856	   78.00	   73.77	-1554.77	   56.15
    118.4191	   76.00	   73.75	-1556.75	   56.14
    118.4525	   68.00	   73.73	-1564.73	   56.13
    118.4859	   58.00	   73.71	-1574.71	   56.12
    118.5193	   77.00	   73.70	-1555.70	   56.11
    118.5527	   69.00	   73.68	-1563.68	   56.10
    118.5862	   61.00	   73.66	-1571.66	   56.09
    118.6196	   73.00	   73.65	-1559.65	   56.08
    118.6530	   83.00	   73.63	-1549.63	   56.07
    118.6864	   60.00	   73.61	-1572.61	   56.06
    118.7199	   69.00	   73.60	-1563.60	   56.05
    118.7533	   54.00	   73.58	-1578.58	   56.04
    118.7867	   70.00	   73.57	-1562.57	   56.03
    118.8201	   73.00	   73.56	-1559.56	   56.02
    118.8536	   60.00	   73.54	-1572.54	   56.01
    118.8870	   57.00	   73.53	-1575.53	   56.00
    118.9204	   81.00	   73.51	-1551.51	   55.99
    118.9538	   73.00	   73.50	-1559.50	   55.98
    118.9872	   89.00	   73.49	-1543.49	   55.96
    119.0207	   65.00	   73.48	-1567.48	   55.95
    119.0541	   88.00	   73.46	-1544.46	   55.94
    119.0875	   71.00	   73.45	-1561.45	   55.93
    119.1209	   77.00	   73.44	-1555.44	   55.92
    119.1544	   79.00	   73.43	-1553.43	   55.91
    119.1878	   89.00	   73.42	-1543.42	   55.90
    119.2212	   83.00	   73.41	-1549.41	   55.89
    119.2546	   62.00	   73.40	-1570.40	   55.88
    119.2880	   64.00	   73.39	-1568.39	   55.87
    119.3215	   63.00	   73.38	-1569.38	   55.86
    119.3549	   72.00	   73.37	-1560.37	   55.85
    119.3883	   62.00	   73.36	-1570.36	   55.84
    119.4217	   76.00	   73.35	-1556.35	   55.83
    119.4552	   78.00	   73.34	-1554.34	   55.82
    119.4886	   64.00	   73.33	-1568.33	   55.80
    119.5220	   76.00	   73.32	-1556.32	   55.79
    119.5554	   78.00	   73.31	-1554.31	   55.78
    119.5888	   73.00	   73.31	-1559.31	   55.77
    119.6223	   87.00	   73.30	-1545.30	   55.76
    119.6557	   77.00	   73.29	-1555.29	   55.75
    119.6891	   72.00	   73.28	-1560.28	   55.74
    119.7225	   66.00	   73.28	-1566.28	   55.73
    119.7560	   77.00	   73.27	-1555.27	   55.72
    119.7894	   63.00	   73.27	-1569.27	   55.71
    119.8228	   69.00	   73.26	-1563.26	   55.70
    119.8562	   83.00	   73.26	-1549.26	   55.69
    119.8896	   75.00	   73.25	-1557.25	   55.67
    119.9231	   76.00	   73.25	-1556.25	   55.66
    119.9565	   85.00	   73.24	-1547.24	   55.65
    119.9899	   69.00	   73.24	-1563.24	   55.64
    120.0233	   78.00	   73.24	-1554.24	   55.63
    120.0568	   73.00	   73.24	-1559.24	   55.62
    120.0902	   66.00	   73.24	-1566.24	   55.61
    120.1236	   50.00	   73.24	-1582.24	   55.60
    120.1570	   91.00	   73.24	-1541.24	   55.59
    120.1905	   47.00	   73.24	-1585.24	   55.58
    120.2239	   56.00	   73.25	-1576.25	   55.57
    120.2573	   85.00	   73.25	-1547.25	   55.55
    120.2907	   72.00	   73.26	-1560.26	   55.54
    120.3241	   63.00	   73.26	-1569.26	   55.53
    120.3576	   56.00	   73.27	-1576.27	   55.52
    120.3910	   73.00	   73.28	-1559.28	   55.51
    120.4244	   76.00	   73.30	-1556.30	   55.50
    120.4578	   66.00	   73.31	-1566.31	   55.49
    120.4913	   70.00	   73.33	-1562.33	   55.48
    120.5247	   70.00	   73.35	-1562.35	   55.47
    120.5581	   74.00	   73.37	-1558.37	   55.46
    120.5915	   77.00	   73.40	-1555.40	   55.44
    120.6249	   77.00	   73.43	-1555.43	   55.43
    120.6584	   81.00	   73.47	-1551.47	   55.42
    120.6918	   70.00	   73.51	-1562.51	   55.41
    120.7252	   61.00	   73.56	-1571.56	   55.40
    120.7586	   81.00	   73.61	-1551.61	   55.39
    120.7921	   78.00	   73.67	-1554.67	   55.38
    120.8255	   75.00	   73.75	-1557.75	   55.37
    120.8589	   82.00	   73.83	-1550.83	   55.36
    120.8923	   77.00	   73.93	-1555.93	   55.34
    120.9258	   73.00	   74.05	-1560.05	   55.33
    120.9592	   68.00	   74.18	-1565.18	   55.32
    120.9926	   82.00	   74.34	-1551.34	   55.31
    121.0260	   88.00	   74.53	-1545.54	   55.30
    121.0594	   75.00	   74.77	-1558.77	   55.29
    121.0929	   65.00	   75.05	-1569.05	   55.28
    121.1263	   66.00	   75.39	-1568.39	   55.27
    121.1597	   70.00	   75.83	-1564.83	   55.25
    121.1931	   76.00	   76.40	-1559.40	   55.24
    121.2266	   94.00	   77.20	-1542.20	   55.23
    121.2600	   72.00	   78.37	-1565.38	   55.22
    121.2934	   91.00	   80.25	-1548.25	   55.21
    121.3268	   86.00	   83.33	-1556.33	   55.20
    121.3602	  108.00	   88.29	-1539.29	   55.19
    121.3937	   86.00	   95.82	-1568.82	   55.17
    121.4271	  103.00	  106.28	-1562.28	   55.16
    121.4605	  133.00	  119.21	-1545.21	   55.15
    121.4939	  157.00	  132.61	-1534.61	   55.14
    121.5274	  210.00	  142.34	-1491.34	   55.13
    121.5608	  179.00	  143.53	-1523.53	   55.12
    121.5942	  144.00	  135.51	-1550.51	   55.11
    121.6276	  146.00	  122.67	-1535.67	   55.09
    121.6610	  138.00	  109.66	-1530.66	   55.08
    121.6945	   88.00	   98.89	-1569.89	   55.07
    121.7279	   92.00	   91.14	-1558.14	   55.06
    121.7613	  108.00	   86.26	-1537.26	   55.05
    121.7947	   84.00	   83.73	-1558.73	   55.04
    121.8282	   86.00	   83.10	-1556.10	   55.03
    121.8616	   78.00	   84.14	-1565.14	   55.01
    121.8950	   83.00	   86.85	-1562.85	   55.00
    121.9284	  100.00	   91.25	-1550.25	   54.99
    121.9618	  109.00	   97.07	-1547.07	   54.98
    121.9953	  135.00	  103.40	-1527.40	   54.97
    122.0287	  109.00	  108.32	-1558.32	   54.96
    122.0621	  121.00	  109.34	-1547.34	   54.94
    122.0955	  114.00	  105.67	-1550.67	   54.93
    122.1290	  101.00	   99.25	-1557.25	   54.92
    122.1624	   98.00	   92.43	-1553.43	   54.91
    122.1958	   85.00	   86.58	-1560.58	   54.90
    122.2292	   90.00	   82.17	-1551.17	   54.89
    122.2626	   72.00	   79.13	-1566.13	   54.87
    122.2961	   86.00	   77.18	-1550.18	   54.86
    122.3295	   66.00	   75.97	-1568.97	   54.85
    122.3629	   86.00	   75.19	-1548.19	   54.84
    122.3963	   90.00	   74.67	-1543.67	   54.83
    122.4298	   61.00	   74.29	-1572.29	   54.82
    122.4632	   69.00	   74.00	-1564.00	   54.80
    122.4966	   74.00	   73.76	-1558.76	   54.79
    122.5300	   72.00	   73.57	-1560.57	   54.78
    122.5635	   71.00	   73.40	-1561.40	   54.77
    122.5969	   65.00	   73.26	-1567.26	   54.76
    122.6303	   82.00	   73.13	-1550.13	   54.74
    122.6637	   75.00	   73.02	-1557.02	   54.73
    122.6971	   64.00	   72.93	-1567.93	   54.72
    122.7306	   88.00	   72.84	-1543.84	   54.71
    122.7640	   74.00	   72.76	-1557.76	   54.70
    122.7974	   72.00	   72.70	-1559.70	   54.69
    122.8308	   70.00	   72.63	-1561.63	   54.67
    122.8643	   78.00	   72.57	-1553.57	   54.66
    122.8977	   77.00	   72.52	-1554.52	   54.65
    122.9311	   84.00	   72.47	-1547.47	   54.64
    122.9645	   82.00	   72.43	-1549.43	   54.63
    122.9979	   62.00	   72.39	-1569.39	   54.61
    123.0314	   76.00	   72.35	-1555.35	   54.60
    123.0648	   81.00	   72.31	-1550.31	   54.59
    123.0982	   61.00	   72.27	-1570.27	   54.58
    123.1316	   76.00	   72.24	-1555.24	   54.57
    123.1651	   83.00	   72.21	-1548.21	   54.55
    123.1985	   76.00	   72.18	-1555.18	   54.54
    123.2319	   86.00	   72.15	-1545.15	   54.53
    123.2653	   70.00	   72.12	-1561.12	   54.52
    123.2988	   69.00	   72.10	-1562.10	   54.50
    123.3322	   68.00	   72.07	-1563.07	   54.49
    123.3656	   86.00	   72.05	-1545.05	   54.48
    123.3990	   69.00	   72.02	-1562.02	   54.47
    123.4324	   62.00	   72.00	-1569.00	   54.46
    123.4659	   78.00	   71.98	-1552.98	   54.44
    123.4993	   69.00	   71.96	-1561.96	   54.43
    123.5327	   74.00	   71.94	-1556.94	   54.42
    123.5661	   71.00	   71.92	-1559.92	   54.41
    123.5995	   76.00	   71.90	-1554.90	   54.40
    123.6330	   74.00	   71.88	-1556.88	   54.38
    123.6664	   86.00	   71.86	-1544.86	   54.37
    123.6998	   73.00	   71.85	-1557.85	   54.36
    123.7332	   71.00	   71.83	-1559.83	   54.35
    123.7667	   74.00	   71.81	-1556.81	   54.33
    123.8001	   72.00	   71.80	-1558.80	   54.32
    123.8335	   72.00	   71.78	-1558.78	   54.31
    123.8669	   57.00	   71.76	-1573.76	   54.30
    123.9004	   70.00	   71.75	-1560.75	   54.28
    123.9338	   74.00	   71.73	-1556.73	   54.27
    123.9672	   62.00	   71.72	-1568.72	   54.26
    124.0006	   59.00	   71.71	-1571.71	   54.25
    124.0340	   83.00	   71.69	-1547.69	   54.23
    124.0675	   84.00	   71.68	-1546.68	   54.22
    124.1009	   65.00	   71.67	-1565.67	   54.21
    124.1343	   82.00	   71.66	-1548.66	   54.20
    124.1677	   52.00	   71.65	-1578.65	   54.18
    124.2012	   72.00	   71.64	-1558.64	   54.17
    124.2346	   78.00	   71.63	-1552.63	   54.16
    124.2680	   75.00	   71.62	-1555.62	   54.15
    124.3014	   85.00	   71.61	-1545.61	   54.13
    124.3348	   78.00	   71.60	-1552.60	   54.12
    124.3683	   74.00	   71.60	-1556.60	   54.11
    124.4017	   70.00	   71.59	-1560.59	   54.10
    124.4351	   69.00	   71.59	-1561.59	   54.08
    124.4685	   81.00	   71.59	-1549.59	   54.07
    124.5020	   86.00	   71.59	-1544.59	   54.06
    124.5354	   69.00	   71.59	-1561.59	   54.05
    124.5688	  105.00	   71.60	-1525.60	   54.03
    124.6022	   73.00	   71.61	-1557.61	   54.02
    124.6357	   70.00	   71.62	-1560.62	   54.01
    124.6691	   76.00	   71.64	-1554.64	   54.00
    124.7025	   66.00	   71.67	-1564.67	   53.98
    124.7359	   78.00	   71.70	-1552.70	   53.97
    124.7693	   70.00	   71.75	-1560.75	   53.96
    124.8028	   69.00	   71.82	-1561.82	   53.94
    124.8362	   61.00	   71.93	-1569.93	   53.93
    124.8696	   68.00	   72.09	-1563.09	   53.92
    124.9030	   78.00	   72.36	-1553.36	   53.91
    124.9365	   71.00	   72.79	-1560.79	   53.89
    124.9699	   72.00	   73.47	-1560.47	   53.88
    125.0033	   86.00	   74.47	-1547.47	   53.87
    125.0367	   86.00	   75.80	-1548.80	   53.85
    125.0701	   70.00	   77.39	-1566.39	   53.84
    125.1036	   95.00	   78.98	-1542.98	   53.83
    125.1370	  102.00	   80.09	-1537.09	   53.82
    125.1704	  100.00	   80.18	-1539.18	   53.80
    125.2038	   85.00	   79.21	-1553.21	   53.79
    125.2373	   73.00	   77.66	-1563.66	   53.78
    125.2707	   73.00	   76.05	-1562.05	   53.76
    125.3041	   79.00	   74.67	-1554.67	   53.75
    125.3375	   78.00	   73.64	-1554.64	   53.74
    125.3709	   88.00	   72.94	-1543.94	   53.72
    125.4044	   72.00	   72.52	-1559.52	   53.71
    125.4378	   78.00	   72.33	-1553.33	   53.70
    125.4712	   68.00	   72.32	-1563.32	   53.69
    125.5046	   87.00	   72.48	-1544.48	   53.67
    125.5381	   73.00	   72.83	-1558.83	   53.66
    125.5715	   59.00	   73.37	-1573.37	   53.65
    125.6049	   76.00	   74.07	-1557.07	   53.63
    125.6383	   79.00	   74.83	-1554.83	   53.62
    125.6718	   90.00	   75.45	-1544.45	   53.61
    125.7052	   72.00	   75.64	-1562.64	   53.59
    125.7386	   75.00	   75.29	-1559.29	   53.58
    125.7720	   71.00	   74.55	-1562.55	   53.57
    125.8054	   88.00	   73.71	-1544.71	   53.55
    125.8389	   75.00	   72.93	-1556.93	   53.54
    125.8723	   72.00	   72.32	-1559.32	   53.53
    125.9057	   81.00	   71.86	-1549.86	   53.51
    125.9391	   72.00	   71.56	-1558.56	   53.50
    125.9725	   84.00	   71.35	-1546.35	   53.49
    126.0060	   64.00	   71.22	-1566.22	   53.47
    126.0394	   92.00	   71.12	-1538.12	   53.46
    126.0728	   87.00	   71.05	-1543.05	   53.45
    126.1062	   84.00	   71.00	-1546.00	   53.43
    126.1397	   74.00	   70.95	-1555.95	   53.42
    126.1731	   68.00	   70.91	-1561.91	   53.41
    126.2065	   72.00	   70.87	-1557.87	   53.39
    126.2399	   56.00	   70.84	-1573.84	   53.38
    126.2734	   70.00	   70.81	-1559.81	   53.37
    126.3068	   64.00	   70.78	-1565.78	   53.35
    126.3402	   69.00	   70.76	-1560.76	   53.34
    126.3736	   74.00	   70.73	-1555.73	   53.33
    126.4070	   62.00	   70.71	-1567.71	   53.31
    126.4405	   74.00	   70.69	-1555.69	   53.30
    126.4739	   78.00	   70.67	-1551.67	   53.28
    126.5073	   72.00	   70.65	-1557.65	   53.27
    126.5407	   88.00	   70.63	-1541.63	   53.26
    126.5742	   72.00	   70.61	-1557.61	   53.24
    126.6076	   73.00	   70.59	-1556.59	   53.23
    126.6410	   70.00	   70.57	-1559.57	   53.22
    126.6744	   66.00	   70.55	-1563.55	   53.20
    126.7078	   74.00	   70.53	-1555.53	   53.19
    126.7413	   78.00	   70.52	-1551.52	   53.18
    126.7747	   70.00	   70.50	-1559.50	   53.16
    126.8081	   76.00	   70.48	-1553.48	   53.15
    126.8415	   74.00	   70.47	-1555.46	   53.13
    126.8750	   63.00	   70.45	-1566.45	   53.12
    126.9084	   78.00	   70.43	-1551.43	   53.11
    126.9418	   78.00	   70.42	-1551.42	   53.09
    126.9752	   79.00	   70.41	-1550.41	   53.08
    127.0087	   56.00	   70.39	-1573.39	   53.07
    127.0421	   69.00	   70.38	-1560.38	   53.05
    127.0755	   68.00	   70.36	-1561.36	   53.04
    127.1089	   58.00	   70.35	-1571.35	   53.02
    127.1423	   68.00	   70.33	-1561.33	   53.01
    127.1758	   68.00	   70.32	-1561.32	   53.00
    127.2092	   77.00	   70.30	-1552.30	   52.98
    127.2426	   92.00	   70.29	-1537.29	   52.97
    127.2760	   68.00	   70.25	-1561.26	   52.95
    127.3095	   70.00	   70.24	-1559.24	   52.94
    127.3429	   90.00	   70.22	-1539.22	   52.93
    127.3763	   60.00	   70.21	-1569.21	   52.91
    127.4097	   52.00	   70.19	-1577.19	   52.90
    127.4431	   68.00	   70.18	-1561.18	   52.88
    127.4766	   66.00	   70.17	-1563.17	   52.87
    127.5100	   81.00	   70.15	-1548.15	   52.85
    127.5434	   74.00	   70.14	-1555.14	   52.84
    127.5768	   76.00	   70.13	-1553.13	   52.83
    127.6103	   69.00	   70.11	-1560.11	   52.81
    127.6437	   75.00	   70.10	-1554.10	   52.80
    127.6771	   72.00	   70.08	-1557.08	   52.78
    127.7105	   71.00	   70.07	-1558.07	   52.77
    127.7439	   79.00	   70.05	-1550.05	   52.76
    127.7774	   86.00	   70.04	-1543.04	   52.74
    127.8108	   62.00	   70.02	-1567.02	   52.73
    127.8442	   81.00	   70.00	-1548.00	   52.71
    127.8776	   71.00	   69.99	-1557.99	   52.70
    127.9111	   76.00	   69.97	-1552.97	   52.68
    127.9445	   86.00	   69.96	-1542.96	   52.67
    127.9779	   83.00	   69.94	-1545.94	   52.65
    128.0113	   84.00	   69.93	-1544.93	   52.64
    128.0448	   64.00	   69.91	-1564.91	   52.63
    128.0782	   73.00	   69.90	-1555.90	   52.61
    128.1116	   66.00	   69.88	-1562.88	   52.60
    128.1450	   76.00	   69.87	-1552.87	   52.58
    128.1784	   70.00	   69.85	-1558.85	   52.57
    128.2119	   66.00	   69.84	-1562.84	   52.55
    128.2453	   65.00	   69.83	-1563.83	   52.54
    128.2787	   72.00	   69.81	-1556.81	   52.52
    128.3121	   63.00	   69.80	-1565.80	   52.51
    128.3456	   74.00	   69.78	-1554.78	   52.50
    128.3790	   72.00	   69.77	-1556.77	   52.48
    128.4124	   64.00	   69.75	-1564.75	   52.47
    128.4458	   68.00	   69.74	-1560.74	   52.45
    128.4792	   66.00	   69.72	-1562.72	   52.44
    128.5127	   74.00	   69.71	-1554.71	   52.42
    128.5461	   87.00	   69.69	-1541.69	   52.41
    128.5795	   84.00	   69.68	-1544.68	   52.39
    128.6129	   70.00	   69.66	-1558.66	   52.38
    128.6464	   71.00	   69.65	-1557.65	   52.36
    128.6798	   73.00	   69.64	-1555.64	   52.35
    128.7132	   66.00	   69.62	-1562.62	   52.33
    128.7466	   61.00	   69.61	-1567.61	   52.32
    128.7800	   76.00	   69.59	-1552.59	   52.30
    128.8135	   73.00	   69.58	-1555.58	   52.29
    128.8469	   72.00	   69.56	-1556.56	   52.27
    128.8803	   87.00	   69.55	-1541.55	   52.26
    128.9137	   76.00	   69.53	-1552.53	   52.24
    128.9472	   76.00	   69.52	-1552.52	   52.23
    128.9806	   71.00	   69.50	-1557.50	   52.21
    129.0140	   71.00	   69.49	-1557.49	   52.20
    129.0474	   78.00	   69.47	-1550.47	   52.18
    129.0809	   77.00	   69.46	-1551.46	   52.17
    129.1143	   76.00	   69.44	-1552.44	   52.15
    129.1477	   70.00	   69.43	-1558.43	   52.14
    129.1811	   61.00	   69.41	-1567.41	   52.12
    129.2145	   62.00	   69.40	-1566.40	   52.11
    129.2480	   62.00	   69.39	-1566.39	   52.09
    129.2814	   68.00	   69.37	-1560.37	   52.08
    129.3148	   77.00	   69.36	-1551.36	   52.06
    129.3482	   60.00	   69.34	-1568.34	   52.05
    129.3817	   65.00	   69.33	-1563.33	   52.03
    129.4151	   71.00	   69.31	-1557.31	   52.02
    129.4485	   76.00	   69.30	-1552.30	   52.00
    129.4819	   63.00	   69.28	-1565.28	   51.99
    129.5154	   62.00	   69.27	-1566.27	   51.97
    129.5488	   62.00	   69.25	-1566.25	   51.96
    129.5822	   82.00	   69.24	-1546.24	   51.94
    129.6156	   71.00	   69.22	-1557.22	   51.93
    129.6490	   59.00	   69.21	-1569.21	   51.91
    129.6825	   68.00	   69.19	-1560.19	   51.90
    129.7159	   83.00	   69.18	-1545.18	   51.88
    129.7493	   87.00	   69.16	-1541.16	   51.86
    129.7827	   70.00	   69.15	-1558.15	   51.85
    129.8161	   62.00	   69.13	-1566.13	   51.83
    129.8496	   52.00	   69.12	-1576.12	   51.82
    129.8830	   59.00	   69.11	-1569.11	   51.80
    129.9164	   72.00	   69.09	-1556.09	   51.79
    129.9498	   56.00	   69.08	-1572.08	   51.77
    129.9833	   62.00	   69.06	-1566.06	   51.76
     31.7203	        	        	        	        	       0	(  1  0  0)	  0  1 :  1
     31.8006	        	        	        	        	       0	(  1  0  0)	  0  2 :  1
     34.3755	        	        	        	        	       0	(  0  0  2)	  0  1 :  1
     34.4628	        	        	        	        	       0	(  0  0  2)	  0  2 :  1
     36.2066	        	        	        	        	       0	(  1  0  1)	  0  1 :  1
     36.2989	        	        	        	        	       0	(  1  0  1)	  0  2 :  1
     47.4955	        	        	        	        	       0	(  1  0  2)	  0  1 :  1
     47.6197	        	        	        	        	       0	(  1  0  2)	  0  2 :  1
     56.5524	        	        	        	        	       0	(  1  1  0)	  0  1 :  1
     56.7043	        	        	        	        	       0	(  1  1  0)	  0  2 :  1
     62.8183	        	        	        	        	       0	(  1  0  3)	  0  1 :  1
     62.9907	        	        	        	        	       0	(  1  0  3)	  0  2 :  1
     66.3359	        	        	        	        	       0	(  2  0  0)	  0  1 :  1
     66.5205	        	        	        	        	       0	(  2  0  0)	  0  2 :  1
     67.9092	        	        	        	        	       0	(  1  1  2)	  0  1 :  1
     68.0993	        	        	        	        	       0	(  1  1  2)	  0  2 :  1
     69.0475	        	        	        	        	       0	(  2  0  1)	  0  1 :  1
     69.2417	        	        	        	        	       0	(  2  0  1)	  0  2 :  1
     72.5317	        	        	        	        	       0	(  0  0  4)	  0  1 :  1
     72.7389	        	        	        	        	       0	(  0  0  4)	  0  2 :  1
     76.9240	        	        	        	        	       0	(  2  0  2)	  0  1 :  1
     77.1484	        	        	        	        	       0	(  2  0  2)	  0  2 :  1
     81.3538	        	        	        	        	       0	(  1  0  4)	  0  1 :  1
     81.5965	        	        	        	        	       0	(  1  0  4)	  0  2 :  1
     89.5826	        	        	        	        	       0	(  2  0  3)	  0  1 :  1
     89.8630	        	        	        	        	       0	(  2  0  3)	  0  2 :  1
     92.7616	        	        	        	        	       0	(  2  1  0)	  0  1 :  1
     93.0581	        	        	        	        	       0	(  2  1  0)	  0  2 :  1
     95.2774	        	        	        	        	       0	(  2  1  1)	  0  1 :  1
     95.5873	        	        	        	        	       0	(  2  1  1)	  0  2 :  1
     98.5932	        	        	        	        	       0	(  1  1  4)	  0  1 :  1
     98.9217	        	        	        	        	       0	(  1  1  4)	  0  2 :  1
    102.9077	        	        	        	        	       0	(  2  1  2)	  0  1 :  1
    103.2625	        	        	        	        	       0	(  2  1  2)	  0  2 :  1
    104.1134	        	        	        	        	       0	(  1  0  5)	  0  1 :  1
    104.4760	        	        	        	        	       0	(  1  0  5)	  0  2 :  1
    107.4166	        	        	        	        	       0	(  2  0  4)	  0  1 :  1
    107.8017	        	        	        	        	       0	(  2  0  4)	  0  2 :  1
    110.3634	        	        	        	        	       0	(  3  0  0)	  0  1 :  1
    110.7702	        	        	        	        	       0	(  3  0  0)	  0  2 :  1
    113.0653	        	        	        	        	       0	(  3  0  1)	  0  1 :  1
    113.4934	        	        	        	        	       0	(  3  0  1)	  0  2 :  1
    116.2578	        	        	        	        	       0	(  2  1  3)	  0  1 :  1
    116.7130	        	        	        	        	       0	(  2  1  3)	  0  2 :  1
    121.5477	        	        	        	        	       0	(  3  0  2)	  0  1 :  1
    122.0540	        	        	        	        	       0	(  3  0  2)	  0  2 :  1
    125.1565	        	        	        	        	       0	(  0  0  6)	  0  1 :  1
    125.7028	        	        	        	        	       0	(  0  0  6)	  0  2 :  1
    133.9164	        	        	        	        	       0	(  2  0  5)	  0  1 :  1
    134.5843	        	        	        	        	       0	(  2  0  5)	  0  2 :  1
    136.5311	        	        	        	        	       0	(  1  0  6)	  0  1 :  1
    137.2445	        	        	        	        	       0	(  1  0  6)	  0  2 :  1
    137.9255	        	        	        	        	       0	(  3  0  3)	  0  1 :  1
    138.5122	        	        	        	        	       0	(  2  1  4)	  0  1 :  1
    138.6654	        	        	        	        	       0	(  3  0  3)	  0  2 :  1
    139.2637	        	        	        	        	       0	(  2  1  4)	  0  2 :  1
