 ZnO   Chi2:  2.5619  CELL:    3.24994   3.24994   5.20716   90.0000   90.0000  120.0000   SPGR: P 63 m c               TEMP:      0.00
  1   2992     1.54060     1.54439     0.00000    -0.05949     0.00000    0
    50     0     1
       0.00000      15.00000
 2Theta	Yobs	Ycal	Yobs-Ycal	Backg	Posr	(hkl)	K
     20.0165	   30.00	   23.51	 -293.09	   19.54
     20.0499	   25.00	   23.51	 -298.08	   19.54
     20.0834	   18.00	   23.51	 -305.08	   19.54
     20.1168	   31.00	   23.50	 -292.08	   19.54
     20.1502	   21.00	   23.50	 -302.08	   19.53
     20.1836	   30.00	   23.50	 -293.07	   19.53
     20.2170	   23.00	   23.50	 -300.07	   19.53
     20.2505	   27.00	   23.49	 -296.07	   19.53
     20.2839	   31.00	   23.49	 -292.07	   19.52
     20.3173	   21.00	   23.49	 -302.06	   19.52
     20.3507	   23.00	   23.49	 -300.06	   19.52
     20.3842	   26.00	   23.48	 -297.06	   19.52
     20.4176	   23.00	   23.48	 -300.05	   19.51
     20.4510	   38.00	   23.48	 -285.05	   19.51
     20.4844	   33.00	   23.48	 -290.05	   19.51
     20.5179	   32.00	   23.47	 -291.05	   19.50
     20.5513	   20.00	   23.47	 -303.04	   19.50
     20.5847	   23.00	   23.47	 -300.04	   19.50
     20.6181	   28.00	   23.47	 -295.04	   19.50
     20.6515	   17.00	   23.46	 -306.04	   19.49
     20.6850	   32.00	   23.46	 -291.03	   19.49
     20.7184	   25.00	   23.46	 -298.03	   19.49
     20.7518	   28.00	   23.46	 -295.03	   19.49
     20.7852	   22.00	   23.45	 -301.03	   19.48
     20.8187	   28.00	   23.45	 -295.02	   19.48
     20.8521	   32.00	   23.45	 -291.02	   19.48
     20.8855	   23.00	   23.45	 -300.02	   19.48
     20.9189	   32.00	   23.44	 -291.02	   19.47
     20.9523	   33.00	   23.44	 -290.01	   19.47
     20.9858	   23.00	   23.44	 -300.01	   19.47
     21.0192	   28.00	   23.43	 -295.01	   19.47
     21.0526	   18.00	   23.43	 -305.01	   19.46
     21.0860	   27.00	   23.43	 -296.00	   19.46
     21.1195	   26.00	   23.43	 -297.00	   19.46
     21.1529	   31.00	   23.42	 -292.00	   19.46
     21.1863	   25.00	   23.42	 -298.00	   19.45
     21.2197	   28.00	   23.42	 -294.99	   19.45
     21.2531	   26.00	   23.42	 -296.99	   19.45
     21.2866	   27.00	   23.41	 -295.99	   19.45
     21.3200	   31.00	   23.41	 -291.99	   19.44
     21.3534	   21.00	   23.41	 -301.98	   19.44
     21.3868	   30.00	   23.41	 -292.98	   19.44
     21.4203	   23.00	   23.40	 -299.98	   19.44
     21.4537	   17.00	   23.40	 -305.98	   19.43
     21.4871	   36.00	   23.40	 -286.97	   19.43
     21.5205	   37.00	   23.40	 -285.97	   19.43
     21.5539	   28.00	   23.39	 -294.97	   19.43
     21.5874	   22.00	   23.39	 -300.97	   19.42
     21.6208	   15.00	   23.39	 -307.96	   19.42
     21.6542	   32.00	   23.39	 -290.96	   19.42
     21.6876	   43.00	   23.38	 -279.96	   19.42
     21.7211	   27.00	   23.38	 -295.96	   19.41
     21.7545	   15.00	   23.38	 -307.95	   19.41
     21.7879	   18.00	   23.38	 -304.95	   19.41
     21.8213	   33.00	   23.37	 -289.95	   19.41
     21.8548	   31.00	   23.37	 -291.95	   19.40
     21.8882	   35.00	   23.37	 -287.94	   19.40
     21.9216	   12.00	   23.37	 -310.94	   19.40
     21.9550	   20.00	   23.36	 -302.94	   19.40
     21.9884	   22.00	   23.36	 -300.93	   19.39
     22.0219	   13.00	   23.36	 -309.93	   19.39
     22.0553	   31.00	   23.36	 -291.93	   19.39
     22.0887	   28.00	   23.35	 -294.93	   19.38
     22.1221	   11.00	   23.35	 -311.92	   19.38
     22.1556	   31.00	   23.35	 -291.92	   19.38
     22.1890	   32.00	   23.35	 -290.92	   19.38
     22.2224	   23.00	   23.34	 -299.92	   19.37
     22.2558	   28.00	   23.34	 -294.91	   19.37
     22.2892	   31.00	   23.34	 -291.91	   19.37
     22.3227	   40.00	   23.34	 -282.91	   19.37
     22.3561	   36.00	   23.33	 -286.91	   19.36
     22.3895	   25.00	   23.33	 -297.90	   19.36
     22.4229	   26.00	   23.33	 -296.90	   19.36
     22.4564	   22.00	   23.33	 -300.90	   19.36
     22.4898	   26.00	   23.32	 -296.90	   19.35
     22.5232	   20.00	   23.32	 -302.89	   19.35
     22.5566	   25.00	   23.32	 -297.89	   19.35
     22.5900	   27.00	   23.31	 -295.89	   19.35
     22.6235	   26.00	   23.31	 -296.89	   19.34
     22.6569	   25.00	   23.31	 -297.88	   19.34
     22.6903	   20.00	   23.31	 -302.88	   19.34
     22.7237	   25.00	   23.30	 -297.88	   19.34
     22.7572	   22.00	   23.30	 -300.88	   19.33
     22.7906	   22.00	   23.30	 -300.87	   19.33
     22.8240	   26.00	   23.30	 -296.87	   19.33
     22.8574	   28.00	   23.29	 -294.87	   19.33
     22.8909	   12.00	   23.29	 -310.87	   19.32
     22.9243	   22.00	   23.29	 -300.86	   19.32
     22.9577	   23.00	   23.29	 -299.86	   19.32
     22.9911	   23.00	   23.28	 -299.86	   19.32
     23.0245	   21.00	   23.28	 -301.86	   19.31
     23.0580	   16.00	   23.28	 -306.85	   19.31
     23.0914	   17.00	   23.28	 -305.85	   19.31
     23.1248	   18.00	   23.27	 -304.85	   19.31
     23.1582	   25.00	   23.27	 -297.85	   19.30
     23.1917	   27.00	   23.27	 -295.84	   19.30
     23.2251	   33.00	   23.27	 -289.84	   19.30
     23.2585	   13.00	   23.26	 -309.84	   19.30
     23.2919	   26.00	   23.26	 -296.84	   19.29
     23.3253	   23.00	   23.26	 -299.83	   19.29
     23.3588	   26.00	   23.26	 -296.83	   19.29
     23.3922	   22.00	   23.25	 -300.83	   19.29
     23.4256	   22.00	   23.25	 -300.83	   19.28
     23.4590	   21.00	   23.25	 -301.82	   19.28
     23.4925	   21.00	   23.25	 -301.82	   19.28
     23.5259	   28.00	   23.24	 -294.82	   19.28
     23.5593	   28.00	   23.24	 -294.81	   19.27
     23.5927	   23.00	   23.24	 -299.81	   19.27
     23.6261	   15.00	   23.24	 -307.81	   19.27
     23.6596	   22.00	   23.23	 -300.81	   19.26
     23.6930	   25.00	   23.23	 -297.80	   19.26
     23.7264	   23.00	   23.23	 -299.80	   19.26
     23.7598	   27.00	   23.23	 -295.80	   19.26
     23.7933	   27.00	   23.22	 -295.80	   19.25
     23.8267	   21.00	   23.22	 -301.79	   19.25
     23.8601	   23.00	   23.22	 -299.79	   19.25
     23.8935	   16.00	   23.22	 -306.79	   19.25
     23.9269	   33.00	   23.21	 -289.79	   19.24
     23.9604	   13.00	   23.21	 -309.78	   19.24
     23.9938	   21.00	   23.21	 -301.78	   19.24
     24.0272	   26.00	   23.21	 -296.78	   19.24
     24.0606	   17.00	   23.20	 -305.78	   19.23
     24.0941	   27.00	   23.20	 -295.77	   19.23
     24.1275	   27.00	   23.20	 -295.77	   19.23
     24.1609	   20.00	   23.19	 -302.77	   19.23
     24.1943	   31.00	   23.19	 -291.77	   19.22
     24.2278	   23.00	   23.19	 -299.76	   19.22
     24.2612	   26.00	   23.19	 -296.76	   19.22
     24.2946	   26.00	   23.18	 -296.76	   19.22
     24.3280	   31.00	   23.18	 -291.76	   19.21
     24.3614	   18.00	   23.18	 -304.75	   19.21
     24.3949	   17.00	   23.18	 -305.75	   19.21
     24.4283	   27.00	   23.17	 -295.75	   19.21
     24.4617	   28.00	   23.17	 -294.75	   19.20
     24.4951	   25.00	   23.17	 -297.74	   19.20
     24.5286	   25.00	   23.17	 -297.74	   19.20
     24.5620	   18.00	   23.16	 -304.74	   19.20
     24.5954	   22.00	   23.16	 -300.74	   19.19
     24.6288	   27.00	   23.16	 -295.73	   19.19
     24.6622	   21.00	   23.16	 -301.73	   19.19
     24.6957	   23.00	   23.15	 -299.73	   19.19
     24.7291	   25.00	   23.15	 -297.73	   19.18
     24.7625	   17.00	   23.15	 -305.72	   19.18
     24.7959	   23.00	   23.15	 -299.72	   19.18
     24.8294	   25.00	   23.14	 -297.72	   19.18
     24.8628	   18.00	   23.14	 -304.72	   19.17
     24.8962	   18.00	   23.14	 -304.71	   19.17
     24.9296	   20.00	   23.14	 -302.71	   19.17
     24.9630	   30.00	   23.13	 -292.71	   19.17
     24.9965	   15.00	   23.13	 -307.71	   19.16
     25.0299	   15.00	   23.13	 -307.70	   19.16
     25.0633	   18.00	   23.13	 -304.70	   19.16
     25.0967	   23.00	   23.12	 -299.70	   19.16
     25.1302	   17.00	   23.12	 -305.69	   19.15
     25.1636	   23.00	   23.12	 -299.69	   19.15
     25.1970	   12.00	   23.12	 -310.69	   19.15
     25.2304	   13.00	   23.11	 -309.69	   19.14
     25.2639	   18.00	   23.11	 -304.68	   19.14
     25.2973	   27.00	   23.11	 -295.68	   19.14
     25.3307	   22.00	   23.11	 -300.68	   19.14
     25.3641	   28.00	   23.10	 -294.68	   19.13
     25.3975	   27.00	   23.10	 -295.67	   19.13
     25.4310	   23.00	   23.10	 -299.67	   19.13
     25.4644	   21.00	   23.10	 -301.67	   19.13
     25.4978	   30.00	   23.09	 -292.67	   19.12
     25.5312	   23.00	   23.09	 -299.66	   19.12
     25.5647	   27.00	   23.09	 -295.66	   19.12
     25.5981	   13.00	   23.09	 -309.66	   19.12
     25.6315	   18.00	   23.08	 -304.66	   19.11
     25.6649	   30.00	   23.08	 -292.65	   19.11
     25.6983	   21.00	   23.08	 -301.65	   19.11
     25.7318	   23.00	   23.07	 -299.65	   19.11
     25.7652	   17.00	   23.07	 -305.65	   19.10
     25.7986	   27.00	   23.07	 -295.64	   19.10
     25.8320	   25.00	   23.07	 -297.64	   19.10
     25.8655	   28.00	   23.06	 -294.64	   19.10
     25.8989	   25.00	   23.06	 -297.64	   19.09
     25.9323	   28.00	   23.06	 -294.63	   19.09
     25.9657	   27.00	   23.06	 -295.63	   19.09
     25.9991	   31.00	   23.05	 -291.63	   19.09
     26.0326	   15.00	   23.05	 -307.63	   19.08
     26.0660	   35.00	   23.05	 -287.62	   19.08
     26.0994	   16.00	   23.05	 -306.62	   19.08
     26.1328	   16.00	   23.04	 -306.62	   19.08
     26.1663	   21.00	   23.04	 -301.62	   19.07
     26.1997	   23.00	   23.04	 -299.61	   19.07
     26.2331	   22.00	   23.04	 -300.61	   19.07
     26.2665	   20.00	   23.03	 -302.61	   19.07
     26.2999	   31.00	   23.03	 -291.61	   19.06
     26.3334	   31.00	   23.03	 -291.60	   19.06
     26.3668	   35.00	   23.03	 -287.60	   19.06
     26.4002	   26.00	   23.02	 -296.60	   19.06
     26.4336	   42.00	   23.02	 -280.60	   19.05
     26.4671	   33.00	   23.02	 -289.59	   19.05
     26.5005	   21.00	   23.02	 -301.59	   19.05
     26.5339	   28.00	   23.01	 -294.59	   19.05
     26.5673	   12.00	   23.01	 -310.59	   19.04
     26.6008	   15.00	   23.01	 -307.58	   19.04
     26.6342	   25.00	   23.01	 -297.58	   19.04
     26.6676	   25.00	   23.00	 -297.58	   19.04
     26.7010	   30.00	   23.00	 -292.57	   19.03
     26.7344	   17.00	   23.00	 -305.57	   19.03
     26.7679	   27.00	   23.00	 -295.57	   19.03
     26.8013	   18.00	   22.99	 -304.57	   19.02
     26.8347	   22.00	   22.99	 -300.56	   19.02
     26.8681	   20.00	   22.99	 -302.56	   19.02
     26.9016	   20.00	   22.99	 -302.56	   19.02
     26.9350	   21.00	   22.98	 -301.56	   19.01
     26.9684	   21.00	   22.98	 -301.55	   19.01
     27.0018	   27.00	   22.98	 -295.55	   19.01
     27.0352	   31.00	   22.98	 -291.55	   19.01
     27.0687	   27.00	   22.97	 -295.55	   19.00
     27.1021	   20.00	   22.97	 -302.54	   19.00
     27.1355	   25.00	   23.18	 -297.75	   19.00
     27.1689	   25.00	   23.18	 -297.75	   19.00
     27.2024	   27.00	   23.18	 -295.75	   18.99
     27.2358	   18.00	   23.28	 -304.86	   18.99
     27.2692	   20.00	   23.29	 -302.86	   18.99
     27.3026	   18.00	   23.29	 -304.86	   18.99
     27.3360	   36.00	   23.29	 -286.87	   18.98
     27.3695	   18.00	   23.29	 -304.87	   18.98
     27.4029	   17.00	   23.30	 -305.87	   18.98
     27.4363	   23.00	   23.30	 -299.87	   18.98
     27.4697	   22.00	   23.30	 -300.88	   18.97
     27.5032	   17.00	   23.31	 -305.88	   18.97
     27.5366	   23.00	   23.31	 -299.88	   18.97
     27.5700	   13.00	   23.31	 -309.89	   18.97
     27.6034	   23.00	   23.32	 -299.89	   18.96
     27.6369	   12.00	   23.32	 -310.89	   18.96
     27.6703	   36.00	   23.32	 -286.90	   18.96
     27.7037	   18.00	   23.33	 -304.90	   18.96
     27.7371	   22.00	   23.33	 -300.91	   18.95
     27.7705	   20.00	   23.34	 -302.91	   18.95
     27.8040	   33.00	   23.34	 -289.92	   18.95
     27.8374	   28.00	   23.35	 -294.92	   18.95
     27.8708	   21.00	   23.35	 -301.92	   18.94
     27.9042	   15.00	   23.36	 -307.93	   18.94
     27.9377	   25.00	   23.36	 -297.94	   18.94
     27.9711	   18.00	   23.37	 -304.94	   18.94
     28.0045	   13.00	   23.37	 -309.95	   18.93
     28.0379	   22.00	   23.38	 -300.95	   18.93
     28.0713	   17.00	   23.38	 -305.96	   18.93
     28.1048	   22.00	   23.39	 -300.97	   18.93
     28.1382	   22.00	   23.40	 -300.97	   18.92
     28.1716	   18.00	   23.40	 -304.98	   18.92
     28.2050	   25.00	   23.41	 -297.99	   18.92
     28.2385	   21.00	   23.42	 -301.99	   18.91
     28.2719	   31.00	   23.43	 -292.00	   18.91
     28.3053	   26.00	   23.44	 -297.01	   18.91
     28.3387	   23.00	   23.44	 -300.02	   18.91
     28.3721	   23.00	   23.45	 -300.03	   18.90
     28.4056	   23.00	   23.46	 -300.04	   18.90
     28.4390	   27.00	   23.47	 -296.05	   18.90
     28.4724	   23.00	   23.48	 -300.06	   18.90
     28.5058	   25.00	   23.49	 -298.07	   18.89
     28.5393	   32.00	   23.50	 -291.08	   18.89
     28.5727	   27.00	   23.51	 -296.09	   18.89
     28.6061	   17.00	   23.52	 -306.10	   18.89
     28.6395	   30.00	   23.54	 -293.11	   18.88
     28.6729	   25.00	   23.55	 -298.12	   18.88
     28.7064	   22.00	   23.56	 -301.14	   18.88
     28.7398	   26.00	   23.58	 -297.15	   18.88
     28.7732	   22.00	   23.59	 -301.16	   18.87
     28.8066	   33.00	   23.60	 -290.18	   18.87
     28.8401	   23.00	   23.62	 -300.19	   18.87
     28.8735	   22.00	   23.64	 -301.21	   18.87
     28.9069	   27.00	   23.65	 -296.23	   18.86
     28.9403	   38.00	   23.67	 -285.24	   18.86
     28.9738	   26.00	   23.69	 -297.26	   18.86
     29.0072	   23.00	   23.71	 -300.28	   18.86
     29.0406	   25.00	   23.72	 -298.30	   18.85
     29.0740	   17.00	   23.74	 -306.32	   18.85
     29.1074	   18.00	   23.77	 -305.34	   18.85
     29.1409	   21.00	   23.79	 -302.36	   18.85
     29.1743	   21.00	   23.81	 -302.38	   18.84
     29.2077	   36.00	   23.83	 -287.41	   18.84
     29.2411	   22.00	   23.86	 -301.43	   18.84
     29.2746	   33.00	   23.89	 -290.46	   18.84
     29.3080	   17.00	   23.91	 -306.49	   18.83
     29.3414	   27.00	   23.94	 -296.52	   18.83
     29.3748	   23.00	   23.97	 -300.55	   18.83
     29.4082	   16.00	   24.00	 -307.58	   18.83
     29.4417	   17.00	   24.04	 -306.61	   18.82
     29.4751	   21.00	   24.07	 -302.64	   18.82
     29.5085	   18.00	   24.11	 -305.68	   18.82
     29.5419	   21.00	   24.14	 -302.72	   18.82
     29.5754	   22.00	   24.18	 -301.76	   18.81
     29.6088	   26.00	   24.23	 -297.80	   18.81
     29.6422	   25.00	   24.27	 -298.84	   18.81
     29.6756	   26.00	   24.32	 -297.89	   18.81
     29.7090	   22.00	   24.37	 -301.94	   18.80
     29.7425	   30.00	   24.42	 -293.99	   18.80
     29.7759	   28.00	   24.63	 -296.20	   18.80
     29.8093	   36.00	   24.69	 -288.26	   18.79
     29.8427	   27.00	   24.83	 -297.40	   18.79
     29.8762	   36.00	   24.90	 -288.47	   18.79
     29.9096	   30.00	   24.97	 -294.54	   18.79
     29.9430	   18.00	   25.04	 -306.62	   18.78
     29.9764	   26.00	   25.12	 -298.70	   18.78
     30.0098	   23.00	   25.21	 -301.78	   18.78
     30.0433	   27.00	   25.29	 -297.87	   18.78
     30.0767	   30.00	   25.39	 -294.96	   18.77
     30.1101	   27.00	   25.49	 -298.06	   18.77
     30.1435	   27.00	   25.59	 -298.17	   18.77
     30.1770	   35.00	   25.71	 -290.28	   18.77
     30.2104	   23.00	   25.83	 -302.40	   18.76
     30.2438	   18.00	   25.96	 -307.53	   18.76
     30.2772	   35.00	   26.10	 -290.67	   18.76
     30.3107	   28.00	   26.24	 -297.82	   18.76
     30.3441	   30.00	   26.40	 -295.97	   18.75
     30.3775	   32.00	   26.57	 -294.14	   18.75
     30.4109	   23.00	   26.75	 -303.33	   18.75
     30.4443	   31.00	   26.95	 -295.52	   18.75
     30.4778	   25.00	   27.16	 -301.74	   18.74
     30.5112	   27.00	   27.39	 -299.97	   18.74
     30.5446	   31.00	   27.64	 -296.21	   18.74
     30.5780	   28.00	   27.91	 -299.48	   18.74
     30.6115	   23.00	   28.21	 -304.78	   18.73
     30.6449	   35.00	   28.53	 -293.10	   18.73
     30.6783	   38.00	   28.88	 -290.45	   18.73
     30.7117	   25.00	   29.27	 -303.84	   18.73
     30.7451	   26.00	   29.69	 -303.26	   18.72
     30.7786	   23.00	   30.16	 -306.73	   18.72
     30.8120	   46.00	   30.68	 -284.26	   18.72
     30.8454	   41.00	   31.26	 -289.84	   18.72
     30.8788	   35.00	   31.91	 -296.48	   18.71
     30.9123	   30.00	   32.63	 -302.21	   18.71
     30.9457	   38.00	   33.45	 -295.03	   18.71
     30.9791	   43.00	   34.38	 -290.95	   18.71
     31.0125	   41.00	   35.43	 -294.00	   18.70
     31.0459	   31.00	   36.63	 -305.21	   18.70
     31.0794	   41.00	   38.02	 -296.60	   18.70
     31.1128	   43.00	   39.63	 -296.20	   18.70
     31.1462	   47.00	   41.51	 -294.08	   18.69
     31.1796	   38.00	   43.72	 -305.30	   18.69
     31.2131	   48.00	   46.35	 -297.93	   18.69
     31.2465	   46.00	   49.51	 -303.09	   18.69
     31.2799	   55.00	   53.35	 -297.93	   18.68
     31.3133	   60.00	   58.09	 -297.66	   18.68
     31.3468	   59.00	   64.03	 -304.61	   18.68
     31.3802	   77.00	   71.71	 -294.28	   18.67
     31.4136	  101.00	   82.02	 -280.59	   18.67
     31.4470	   79.00	   96.54	 -317.12	   18.67
     31.4804	  114.00	  118.00	 -303.57	   18.67
     31.5139	  141.00	  150.54	 -309.11	   18.66
     31.5473	  170.00	  199.71	 -329.29	   18.66
     31.5807	  214.00	  271.85	 -357.43	   18.66
     31.6141	  271.00	  369.97	 -398.54	   18.66
     31.6476	  454.00	  490.20	 -335.77	   18.65
     31.6810	  631.00	  609.54	 -278.11	   18.65
     31.7144	  788.00	  683.43	 -195.01	   18.65
     31.7478	  685.00	  683.46	 -298.04	   18.65
     31.7812	  570.00	  621.86	 -351.44	   18.64
     31.8147	  508.00	  521.19	 -312.77	   18.64
     31.8481	  351.00	  406.95	 -355.52	   18.64
     31.8815	  273.00	  304.46	 -331.04	   18.64
     31.9149	  178.00	  225.20	 -346.77	   18.63
     31.9484	  134.00	  168.91	 -334.48	   18.63
     31.9818	  108.00	  130.76	 -322.33	   18.63
     32.0152	  128.00	  105.37	 -276.94	   18.63
     32.0486	  111.00	   88.31	 -276.88	   18.62
     32.0820	   95.00	   76.45	 -281.02	   18.62
     32.1155	   90.00	   67.83	 -277.41	   18.62
     32.1489	   70.00	   61.30	 -290.88	   18.62
     32.1823	   72.00	   56.18	 -283.76	   18.61
     32.2157	   60.00	   52.08	 -291.65	   18.61
     32.2492	   48.00	   48.73	 -300.31	   18.61
     32.2826	   50.00	   45.97	 -295.54	   18.61
     32.3160	   55.00	   43.66	 -288.24	   18.60
     32.3494	   50.00	   41.73	 -291.30	   18.60
     32.3829	   50.00	   40.08	 -289.66	   18.60
     32.4163	   42.00	   38.68	 -296.25	   18.60
     32.4497	   47.00	   37.47	 -290.05	   18.59
     32.4831	   36.00	   36.43	 -300.01	   18.59
     32.5165	   27.00	   35.53	 -308.11	   18.59
     32.5500	   31.00	   34.75	 -303.32	   18.59
     32.5834	   37.00	   34.07	 -296.64	   18.58
     32.6168	   36.00	   33.47	 -297.04	   18.58
     32.6502	   40.00	   32.95	 -292.52	   18.58
     32.6837	   45.00	   32.49	 -287.07	   18.58
     32.7171	   40.00	   32.10	 -291.67	   18.57
     32.7505	   35.00	   31.75	 -296.32	   18.57
     32.7839	   33.00	   31.45	 -298.02	   18.57
     32.8173	   38.00	   31.19	 -292.76	   18.57
     32.8508	   30.00	   30.97	 -300.54	   18.56
     32.8842	   42.00	   30.78	 -288.35	   18.56
     32.9176	   35.00	   30.62	 -295.20	   18.56
     32.9510	   32.00	   30.50	 -298.07	   18.55
     32.9845	   42.00	   30.40	 -287.98	   18.55
     33.0179	   28.00	   30.33	 -301.91	   18.55
     33.0513	   35.00	   30.29	 -294.86	   18.55
     33.0847	   26.00	   30.27	 -303.85	   18.54
     33.1181	   18.00	   30.28	 -311.85	   18.54
     33.1516	   48.00	   30.31	 -281.89	   18.54
     33.1850	   37.00	   30.37	 -292.95	   18.54
     33.2184	   31.00	   30.46	 -299.03	   18.53
     33.2518	   51.00	   30.57	 -279.14	   18.53
     33.2853	   32.00	   30.71	 -298.29	   18.53
     33.3187	   33.00	   30.88	 -297.46	   18.53
     33.3521	   40.00	   31.09	 -290.66	   18.52
     33.3855	   42.00	   31.33	 -288.91	   18.52
     33.4189	   38.00	   31.61	 -293.19	   18.52
     33.4524	   37.00	   31.94	 -294.51	   18.52
     33.4858	   41.00	   32.31	 -290.88	   18.51
     33.5192	   40.00	   32.74	 -292.31	   18.51
     33.5526	   35.00	   33.23	 -297.80	   18.51
     33.5861	   47.00	   33.79	 -286.36	   18.51
     33.6195	   57.00	   34.43	 -277.01	   18.50
     33.6529	   46.00	   35.18	 -288.75	   18.50
     33.6863	   40.00	   36.03	 -295.60	   18.50
     33.7198	   45.00	   37.02	 -291.59	   18.50
     33.7532	   46.00	   38.17	 -291.74	   18.49
     33.7866	   42.00	   39.52	 -297.09	   18.49
     33.8200	   45.00	   41.10	 -295.68	   18.49
     33.8534	   43.00	   42.99	 -299.56	   18.49
     33.8869	   51.00	   45.25	 -293.82	   18.48
     33.9203	   47.00	   47.98	 -300.55	   18.48
     33.9537	   75.00	   51.33	 -275.91	   18.48
     33.9871	   42.00	   55.52	 -313.09	   18.48
     34.0206	   71.00	   60.87	 -289.44	   18.47
     34.0540	   62.00	   67.94	 -305.52	   18.47
     34.0874	   66.00	   77.75	 -311.33	   18.47
     34.1208	   82.00	   92.02	 -309.59	   18.47
     34.1542	  119.00	  113.46	 -294.03	   18.46
     34.1877	  138.00	  145.87	 -307.45	   18.46
     34.2211	  148.00	  193.63	 -345.20	   18.46
     34.2545	  206.00	  260.21	 -353.79	   18.46
     34.2879	  341.00	  345.02	 -303.59	   18.45
     34.3214	  483.00	  436.28	 -252.86	   18.45
     34.3548	  607.00	  505.15	 -197.72	   18.45
     34.3882	  580.00	  523.56	 -243.13	   18.45
     34.4216	  567.00	  493.80	 -226.37	   18.44
     34.4550	  443.00	  432.05	 -288.62	   18.44
     34.4885	  350.00	  351.93	 -301.51	   18.44
     34.5219	  233.00	  271.57	 -338.15	   18.43
     34.5553	  155.00	  204.80	 -349.37	   18.43
     34.5887	  118.00	  155.33	 -336.91	   18.43
     34.6222	   96.00	  120.95	 -324.52	   18.43
     34.6556	   97.00	   97.84	 -300.41	   18.42
     34.6890	  104.00	   82.42	 -278.00	   18.42
     34.7224	   65.00	   71.95	 -306.53	   18.42
     34.7559	   74.00	   64.58	 -290.15	   18.42
     34.7893	   65.00	   59.17	 -293.75	   18.41
     34.8227	   67.00	   55.07	 -287.65	   18.41
     34.8561	   71.00	   51.89	 -280.46	   18.41
     34.8895	   64.00	   49.38	 -284.95	   18.41
     34.9230	   43.00	   47.39	 -303.96	   18.40
     34.9564	   60.00	   45.82	 -285.39	   18.40
     34.9898	   59.00	   44.58	 -285.16	   18.40
     35.0232	   42.00	   43.63	 -301.20	   18.40
     35.0567	   55.00	   42.91	 -287.48	   18.39
     35.0901	   62.00	   42.40	 -279.97	   18.39
     35.1235	   48.00	   42.07	 -293.64	   18.39
     35.1569	   47.00	   41.90	 -294.48	   18.39
     35.1903	   61.00	   41.89	 -280.47	   18.38
     35.2238	   37.00	   42.03	 -304.60	   18.38
     35.2572	   50.00	   42.32	 -291.89	   18.38
     35.2906	   54.00	   42.75	 -288.32	   18.38
     35.3240	   46.00	   43.34	 -296.91	   18.37
     35.3575	   42.00	   44.09	 -301.66	   18.37
     35.3909	   42.00	   45.01	 -302.59	   18.37
     35.4243	   45.00	   46.13	 -300.71	   18.37
     35.4577	   54.00	   47.47	 -293.05	   18.36
     35.4911	   69.00	   49.06	 -279.64	   18.36
     35.5246	   64.00	   50.94	 -286.51	   18.36
     35.5580	   51.00	   53.16	 -301.73	   18.36
     35.5914	   62.00	   55.78	 -293.35	   18.35
     35.6248	   52.00	   58.89	 -306.46	   18.35
     35.6583	   72.00	   62.60	 -290.17	   18.35
     35.6917	   76.00	   67.04	 -290.61	   18.35
     35.7251	   87.00	   72.40	 -284.98	   18.34
     35.7585	   84.00	   78.95	 -294.52	   18.34
     35.7920	  105.00	   87.03	 -281.61	   18.34
     35.8254	  110.00	   97.19	 -286.76	   18.34
     35.8588	  124.00	  110.28	 -285.85	   18.33
     35.8922	  128.00	  127.76	 -299.33	   18.33
     35.9256	  148.00	  152.23	 -303.81	   18.33
     35.9591	  183.00	  188.07	 -304.64	   18.33
     35.9925	  193.00	  242.09	 -348.66	   18.32
     36.0259	  295.00	  323.48	 -328.06	   18.32
     36.0593	  359.00	  442.38	 -382.96	   18.32
     36.0928	  476.00	  606.18	 -429.75	   18.31
     36.1262	  704.00	  810.79	 -406.36	   18.31
     36.1596	 1072.00	 1023.21	 -250.79	   18.31
     36.1930	 1188.00	 1171.63	 -283.20	   18.31
     36.2264	 1134.00	 1198.30	 -363.87	   18.30
     36.2599	 1051.00	 1120.06	 -368.64	   18.30
     36.2933	  943.00	  974.51	 -331.09	   18.30
     36.3267	  665.00	  788.22	 -422.80	   18.30
     36.3601	  489.00	  600.49	 -411.06	   18.29
     36.3936	  354.00	  443.80	 -389.37	   18.29
     36.4270	  260.00	  327.07	 -366.64	   18.29
     36.4604	  237.00	  245.41	 -307.98	   18.29
     36.4938	  169.00	  190.09	 -320.66	   18.28
     36.5272	  134.00	  152.85	 -318.42	   18.28
     36.5607	  129.00	  127.31	 -297.88	   18.28
     36.5941	  118.00	  109.12	 -290.70	   18.28
     36.6275	  131.00	   95.60	 -264.17	   18.27
     36.6609	   90.00	   85.14	 -294.72	   18.27
     36.6944	   77.00	   76.83	 -299.40	   18.27
     36.7278	   81.00	   70.07	 -288.64	   18.27
     36.7612	   75.00	   64.50	 -289.07	   18.26
     36.7946	   60.00	   59.85	 -299.43	   18.26
     36.8280	   59.00	   55.93	 -296.51	   18.26
     36.8615	   57.00	   52.60	 -295.17	   18.26
     36.8949	   51.00	   49.74	 -298.31	   18.25
     36.9283	   56.00	   47.27	 -290.84	   18.25
     36.9617	   61.00	   45.12	 -283.69	   18.25
     36.9952	   56.00	   43.23	 -286.81	   18.25
     37.0286	   55.00	   41.57	 -286.15	   18.24
     37.0620	   43.00	   40.11	 -296.68	   18.24
     37.0954	   45.00	   38.80	 -293.38	   18.24
     37.1289	   43.00	   37.64	 -294.21	   18.24
     37.1623	   52.00	   36.59	 -284.16	   18.23
     37.1957	   46.00	   35.65	 -289.22	   18.23
     37.2291	   36.00	   34.80	 -298.37	   18.23
     37.2625	   31.00	   34.02	 -302.60	   18.23
     37.2960	   42.00	   33.32	 -290.90	   18.22
     37.3294	   46.00	   32.68	 -286.25	   18.22
     37.3628	   45.00	   32.09	 -286.67	   18.22
     37.3962	   50.00	   31.56	 -281.13	   18.22
     37.4297	   35.00	   31.06	 -295.63	   18.21
     37.4631	   23.00	   30.60	 -307.18	   18.21
     37.4965	   31.00	   30.18	 -298.76	   18.21
     37.5299	   41.00	   29.79	 -288.36	   18.21
     37.5633	   52.00	   29.43	 -277.00	   18.20
     37.5968	   30.00	   29.09	 -298.66	   18.20
     37.6302	   31.00	   28.78	 -297.35	   18.20
     37.6636	   32.00	   28.48	 -296.06	   18.19
     37.6970	   33.00	   28.21	 -294.78	   18.19
     37.7305	   17.00	   27.95	 -310.53	   18.19
     37.7639	   23.00	   27.71	 -304.29	   18.19
     37.7973	   26.00	   27.49	 -301.06	   18.18
     37.8307	   31.00	   27.27	 -295.85	   18.18
     37.8641	   27.00	   27.07	 -299.65	   18.18
     37.8976	   26.00	   26.88	 -300.46	   18.18
     37.9310	   28.00	   26.71	 -298.28	   18.17
     37.9644	   30.00	   26.54	 -296.11	   18.17
     37.9978	   36.00	   26.38	 -289.95	   18.17
     38.0313	   31.00	   26.23	 -294.80	   18.17
     38.0647	   22.00	   26.09	 -303.66	   18.16
     38.0981	   23.00	   25.95	 -302.52	   18.16
     38.1315	   18.00	   25.82	 -307.40	   18.16
     38.1649	   23.00	   25.70	 -302.27	   18.16
     38.1984	   31.00	   25.58	 -294.16	   18.15
     38.2318	   32.00	   25.47	 -293.04	   18.15
     38.2652	   30.00	   25.36	 -294.94	   18.15
     38.2986	   35.00	   25.26	 -289.84	   18.15
     38.3321	   26.00	   25.17	 -298.74	   18.14
     38.3655	   16.00	   25.07	 -308.65	   18.14
     38.3989	   18.00	   24.99	 -306.56	   18.14
     38.4323	   15.00	   24.90	 -309.47	   18.14
     38.4658	   30.00	   24.82	 -294.39	   18.13
     38.4992	   30.00	   24.74	 -294.32	   18.13
     38.5326	   32.00	   24.67	 -292.24	   18.13
     38.5660	   22.00	   24.59	 -302.17	   18.13
     38.5994	   22.00	   24.53	 -302.10	   18.12
     38.6329	   25.00	   24.46	 -299.03	   18.12
     38.6663	   32.00	   24.40	 -291.97	   18.12
     38.6997	   28.00	   24.33	 -295.91	   18.12
     38.7331	   33.00	   24.28	 -290.85	   18.11
     38.7666	   26.00	   24.22	 -297.79	   18.11
     38.8000	   16.00	   24.16	 -307.74	   18.11
     38.8334	   25.00	   24.11	 -298.68	   18.11
     38.8668	   31.00	   24.06	 -292.63	   18.10
     38.9002	   23.00	   24.01	 -300.58	   18.10
     38.9337	   25.00	   23.96	 -298.54	   18.10
     38.9671	   25.00	   23.92	 -298.49	   18.10
     39.0005	   27.00	   23.72	 -296.29	   18.09
     39.0339	   20.00	   23.68	 -303.25	   18.09
     39.0674	   11.00	   23.56	 -312.13	   18.09
     39.1008	   23.00	   23.52	 -300.09	   18.09
     39.1342	   23.00	   23.48	 -300.06	   18.08
     39.1676	   12.00	   23.45	 -311.02	   18.08
     39.2010	   15.00	   23.42	 -307.99	   18.08
     39.2345	   26.00	   23.38	 -296.96	   18.07
     39.2679	   26.00	   23.35	 -296.92	   18.07
     39.3013	   23.00	   23.32	 -299.89	   18.07
     39.3347	   17.00	   23.29	 -305.86	   18.07
     39.3682	   20.00	   23.26	 -302.83	   18.06
     39.4016	   31.00	   23.23	 -291.81	   18.06
     39.4350	   21.00	   23.21	 -301.78	   18.06
     39.4684	   33.00	   23.18	 -289.75	   18.06
     39.5019	   16.00	   23.15	 -306.73	   18.05
     39.5353	   28.00	   23.13	 -294.70	   18.05
     39.5687	   23.00	   23.10	 -299.68	   18.05
     39.6021	   28.00	   23.08	 -294.65	   18.05
     39.6355	   21.00	   23.06	 -301.63	   18.04
     39.6690	   38.00	   23.03	 -284.61	   18.04
     39.7024	   26.00	   23.01	 -296.58	   18.04
     39.7358	   32.00	   22.99	 -290.56	   18.04
     39.7692	   21.00	   22.97	 -301.54	   18.03
     39.8027	   16.00	   22.95	 -306.52	   18.03
     39.8361	   16.00	   22.93	 -306.50	   18.03
     39.8695	   27.00	   22.91	 -295.48	   18.03
     39.9029	   21.00	   22.89	 -301.46	   18.02
     39.9363	   28.00	   22.87	 -294.44	   18.02
     39.9698	   22.00	   22.85	 -300.43	   18.02
     40.0032	   22.00	   22.83	 -300.41	   18.02
     40.0366	   27.00	   22.82	 -295.39	   18.01
     40.0700	   21.00	   22.80	 -301.37	   18.01
     40.1035	   16.00	   22.78	 -306.36	   18.01
     40.1369	   22.00	   22.77	 -300.34	   18.01
     40.1703	   27.00	   22.75	 -295.33	   18.00
     40.2037	   26.00	   22.74	 -296.31	   18.00
     40.2371	   22.00	   22.72	 -300.29	   18.00
     40.2706	   26.00	   22.71	 -296.28	   18.00
     40.3040	   28.00	   22.69	 -294.26	   17.99
     40.3374	   26.00	   22.68	 -296.25	   17.99
     40.3708	   30.00	   22.66	 -292.24	   17.99
     40.4043	   31.00	   22.65	 -291.22	   17.99
     40.4377	   16.00	   22.63	 -306.21	   17.98
     40.4711	   23.00	   22.62	 -299.20	   17.98
     40.5045	   25.00	   22.61	 -297.18	   17.98
     40.5379	   26.00	   22.60	 -296.17	   17.98
     40.5714	   23.00	   22.58	 -299.16	   17.97
     40.6048	   25.00	   22.57	 -297.14	   17.97
     40.6382	   21.00	   22.56	 -301.13	   17.97
     40.6716	   22.00	   22.55	 -300.12	   17.96
     40.7051	   28.00	   22.54	 -294.11	   17.96
     40.7385	   25.00	   22.52	 -297.10	   17.96
     40.7719	   23.00	   22.51	 -299.09	   17.96
     40.8053	   21.00	   22.50	 -301.08	   17.95
     40.8388	   27.00	   22.11	 -294.69	   17.95
     40.8722	   27.00	   22.11	 -294.68	   17.95
     40.9056	   28.00	   22.10	 -293.68	   17.95
     40.9390	   21.00	   21.91	 -300.49	   17.94
     40.9724	   18.00	   21.91	 -303.48	   17.94
     41.0059	   18.00	   21.91	 -303.48	   17.94
     41.0393	   22.00	   21.91	 -299.48	   17.94
     41.0727	   27.00	   21.90	 -294.48	   17.93
     41.1061	   16.00	   21.90	 -305.47	   17.93
     41.1396	   18.00	   21.90	 -303.47	   17.93
     41.1730	   23.00	   21.89	 -298.47	   17.93
     41.2064	   23.00	   21.89	 -298.47	   17.92
     41.2398	   21.00	   21.89	 -300.46	   17.92
     41.2732	   20.00	   21.89	 -301.46	   17.92
     41.3067	   25.00	   21.88	 -296.46	   17.92
     41.3401	   22.00	   21.88	 -299.46	   17.91
     41.3735	   30.00	   21.88	 -291.45	   17.91
     41.4069	   27.00	   21.88	 -294.45	   17.91
     41.4404	   17.00	   21.87	 -304.45	   17.91
     41.4738	   23.00	   21.87	 -298.45	   17.90
     41.5072	   28.00	   21.87	 -293.44	   17.90
     41.5406	   22.00	   21.87	 -299.44	   17.90
     41.5741	   17.00	   21.86	 -304.44	   17.90
     41.6075	   25.00	   21.86	 -296.44	   17.89
     41.6409	   27.00	   21.86	 -294.43	   17.89
     41.6743	   20.00	   21.86	 -301.43	   17.89
     41.7077	   21.00	   21.85	 -300.43	   17.89
     41.7412	   21.00	   21.85	 -300.43	   17.88
     41.7746	   16.00	   21.85	 -305.42	   17.88
     41.8080	   27.00	   21.85	 -294.42	   17.88
     41.8414	   22.00	   21.84	 -299.42	   17.88
     41.8749	   40.00	   21.84	 -281.42	   17.87
     41.9083	   32.00	   21.84	 -289.41	   17.87
     41.9417	   18.00	   21.84	 -303.41	   17.87
     41.9751	   30.00	   21.83	 -291.41	   17.87
     42.0085	   23.00	   21.83	 -298.41	   17.86
     42.0420	   30.00	   21.83	 -291.40	   17.86
     42.0754	   18.00	   21.83	 -303.40	   17.86
     42.1088	   25.00	   21.82	 -296.40	   17.86
     42.1422	   18.00	   21.82	 -303.39	   17.85
     42.1757	   27.00	   21.82	 -294.39	   17.85
     42.2091	   17.00	   21.82	 -304.39	   17.85
     42.2425	   16.00	   21.81	 -305.39	   17.84
     42.2759	   35.00	   21.81	 -286.38	   17.84
     42.3093	   15.00	   21.81	 -306.38	   17.84
     42.3428	   18.00	   21.81	 -303.38	   17.84
     42.3762	   25.00	   21.80	 -296.38	   17.83
     42.4096	   20.00	   21.80	 -301.37	   17.83
     42.4430	   23.00	   21.80	 -298.37	   17.83
     42.4765	   27.00	   21.80	 -294.37	   17.83
     42.5099	   18.00	   21.79	 -303.37	   17.82
     42.5433	   26.00	   21.79	 -295.36	   17.82
     42.5767	   31.00	   21.79	 -290.36	   17.82
     42.6101	   16.00	   21.79	 -305.36	   17.82
     42.6436	   20.00	   21.78	 -301.36	   17.81
     42.6770	   35.00	   21.78	 -286.35	   17.81
     42.7104	   25.00	   21.78	 -296.35	   17.81
     42.7438	   26.00	   21.86	 -295.44	   17.81
     42.7773	   18.00	   21.86	 -303.44	   17.80
     42.8107	   15.00	   21.86	 -306.43	   17.80
     42.8441	   21.00	   21.90	 -300.48	   17.80
     42.8775	   20.00	   21.90	 -301.48	   17.80
     42.9109	   20.00	   21.90	 -301.48	   17.79
     42.9444	   25.00	   21.90	 -296.48	   17.79
     42.9778	   27.00	   21.90	 -294.48	   17.79
     43.0112	   23.00	   21.90	 -298.47	   17.79
     43.0446	   16.00	   21.90	 -305.47	   17.78
     43.0781	   16.00	   21.90	 -305.47	   17.78
     43.1115	   20.00	   21.90	 -301.47	   17.78
     43.1449	   21.00	   21.90	 -300.47	   17.78
     43.1783	   23.00	   21.90	 -298.47	   17.77
     43.2118	   26.00	   21.90	 -295.47	   17.77
     43.2452	   18.00	   21.90	 -303.47	   17.77
     43.2786	   27.00	   21.90	 -294.47	   17.77
     43.3120	   27.00	   21.90	 -294.47	   17.76
     43.3454	   23.00	   21.90	 -298.47	   17.76
     43.3789	   23.00	   21.90	 -298.47	   17.76
     43.4123	   20.00	   21.90	 -301.47	   17.76
     43.4457	   27.00	   21.90	 -294.47	   17.75
     43.4791	   17.00	   21.90	 -304.47	   17.75
     43.5126	   27.00	   21.90	 -294.48	   17.75
     43.5460	   23.00	   21.90	 -298.48	   17.75
     43.5794	   21.00	   21.90	 -300.48	   17.74
     43.6128	   28.00	   21.90	 -293.48	   17.74
     43.6462	   11.00	   21.90	 -310.48	   17.74
     43.6797	   28.00	   21.90	 -293.48	   17.74
     43.7131	   20.00	   21.91	 -301.48	   17.73
     43.7465	   18.00	   21.91	 -303.48	   17.73
     43.7799	   17.00	   21.91	 -304.48	   17.73
     43.8134	   27.00	   21.91	 -294.48	   17.72
     43.8468	   26.00	   21.91	 -295.48	   17.72
     43.8802	   12.00	   21.91	 -309.49	   17.72
     43.9136	   27.00	   21.91	 -294.49	   17.72
     43.9470	   27.00	   21.92	 -294.49	   17.71
     43.9805	   16.00	   21.92	 -305.49	   17.71
     44.0139	   23.00	   21.92	 -298.49	   17.71
     44.0473	   20.00	   21.92	 -301.50	   17.71
     44.0807	   17.00	   21.92	 -304.50	   17.70
     44.1142	   23.00	   21.93	 -298.50	   17.70
     44.1476	   32.00	   21.93	 -289.50	   17.70
     44.1810	   31.00	   21.93	 -290.51	   17.70
     44.2144	   27.00	   21.93	 -294.51	   17.69
     44.2478	   21.00	   21.94	 -300.51	   17.69
     44.2813	   18.00	   21.94	 -303.51	   17.69
     44.3147	   21.00	   21.94	 -300.52	   17.69
     44.3481	   21.00	   21.95	 -300.52	   17.68
     44.3815	   23.00	   21.95	 -298.53	   17.68
     44.4150	   30.00	   21.96	 -291.53	   17.68
     44.4484	   20.00	   21.96	 -301.53	   17.68
     44.4818	   22.00	   21.96	 -299.54	   17.67
     44.5152	   21.00	   21.97	 -300.54	   17.67
     44.5487	   27.00	   21.97	 -294.55	   17.67
     44.5821	   30.00	   21.98	 -291.55	   17.67
     44.6155	   22.00	   21.98	 -299.56	   17.66
     44.6489	   28.00	   21.99	 -293.56	   17.66
     44.6823	   17.00	   22.00	 -304.57	   17.66
     44.7158	   32.00	   22.00	 -289.58	   17.66
     44.7492	   17.00	   22.01	 -304.58	   17.65
     44.7826	   30.00	   22.02	 -291.59	   17.65
     44.8160	   16.00	   22.02	 -305.60	   17.65
     44.8495	   20.00	   22.03	 -301.60	   17.65
     44.8829	   22.00	   22.04	 -299.61	   17.64
     44.9163	   25.00	   22.05	 -296.62	   17.64
     44.9497	   21.00	   22.06	 -300.63	   17.64
     44.9831	   26.00	   22.07	 -295.64	   17.64
     45.0166	   18.00	   22.08	 -303.65	   17.63
     45.0500	   25.00	   22.09	 -296.66	   17.63
     45.0834	   27.00	   22.10	 -294.67	   17.63
     45.1168	   17.00	   22.11	 -304.68	   17.63
     45.1503	   28.00	   22.12	 -293.69	   17.62
     45.1837	   25.00	   22.13	 -296.71	   17.62
     45.2171	   22.00	   22.15	 -299.72	   17.62
     45.2505	   26.00	   22.16	 -295.73	   17.62
     45.2840	   22.00	   22.17	 -299.75	   17.61
     45.3174	   20.00	   22.19	 -301.76	   17.61
     45.3508	   18.00	   22.21	 -303.78	   17.61
     45.3842	   23.00	   22.22	 -298.80	   17.60
     45.4176	   23.00	   22.24	 -298.82	   17.60
     45.4511	   40.00	   22.26	 -281.84	   17.60
     45.4845	   21.00	   22.28	 -300.86	   17.60
     45.5179	   20.00	   22.30	 -301.88	   17.59
     45.5513	   16.00	   22.33	 -305.90	   17.59
     45.5848	   38.00	   22.35	 -283.92	   17.59
     45.6182	   21.00	   22.38	 -300.95	   17.59
     45.6516	   18.00	   22.40	 -303.98	   17.58
     45.6850	   18.00	   22.43	 -304.00	   17.58
     45.7184	   30.00	   22.46	 -292.04	   17.58
     45.7519	   26.00	   22.49	 -296.07	   17.58
     45.7853	   33.00	   22.53	 -289.10	   17.57
     45.8187	   20.00	   22.56	 -302.14	   17.57
     45.8521	   20.00	   22.60	 -302.18	   17.57
     45.8856	   22.00	   22.64	 -300.22	   17.57
     45.9190	   30.00	   22.69	 -292.26	   17.56
     45.9524	   21.00	   22.74	 -301.31	   17.56
     45.9858	   22.00	   22.79	 -300.36	   17.56
     46.0192	   31.00	   22.84	 -291.41	   17.56
     46.0527	   15.00	   22.90	 -307.47	   17.55
     46.0861	   20.00	   22.96	 -302.53	   17.55
     46.1195	   40.00	   23.03	 -282.60	   17.55
     46.1529	   21.00	   23.10	 -301.67	   17.55
     46.1864	   30.00	   23.17	 -292.75	   17.54
     46.2198	   33.00	   23.26	 -289.83	   17.54
     46.2532	   26.00	   23.35	 -296.92	   17.54
     46.2866	   30.00	   23.45	 -293.02	   17.54
     46.3200	   33.00	   23.55	 -290.13	   17.53
     46.3535	   26.00	   23.67	 -297.24	   17.53
     46.3869	   25.00	   23.80	 -298.37	   17.53
     46.4203	   20.00	   23.93	 -303.51	   17.53
     46.4537	   23.00	   24.09	 -300.66	   17.52
     46.4872	   31.00	   24.25	 -292.83	   17.52
     46.5206	   25.00	   24.44	 -299.01	   17.52
     46.5540	   28.00	   24.64	 -296.22	   17.52
     46.5874	   23.00	   24.87	 -301.44	   17.51
     46.6208	   22.00	   25.12	 -302.69	   17.51
     46.6543	   31.00	   25.40	 -293.97	   17.51
     46.6877	   26.00	   25.71	 -299.29	   17.51
     46.7211	   28.00	   26.07	 -297.64	   17.50
     46.7545	   33.00	   26.47	 -293.05	   17.50
     46.7880	   27.00	   26.93	 -299.51	   17.50
     46.8214	   30.00	   27.46	 -297.03	   17.50
     46.8548	   23.00	   28.06	 -304.64	   17.49
     46.8882	   35.00	   28.76	 -293.34	   17.49
     46.9217	   38.00	   29.58	 -291.16	   17.49
     46.9551	   38.00	   30.55	 -292.12	   17.48
     46.9885	   38.00	   31.70	 -293.27	   17.48
     47.0219	   35.00	   33.07	 -297.65	   17.48
     47.0553	   42.00	   34.75	 -292.32	   17.48
     47.0888	   47.00	   36.82	 -289.39	   17.47
     47.1222	   45.00	   39.43	 -294.00	   17.47
     47.1556	   55.00	   42.82	 -287.40	   17.47
     47.1890	   45.00	   47.43	 -302.00	   17.47
     47.2225	   50.00	   53.96	 -303.53	   17.46
     47.2559	   62.00	   63.56	 -301.13	   17.46
     47.2893	   66.00	   77.83	 -311.40	   17.46
     47.3227	   87.00	   98.72	 -311.29	   17.46
     47.3561	  105.00	  128.03	 -322.60	   17.45
     47.3896	  110.00	  166.41	 -355.99	   17.45
     47.4230	  180.00	  211.06	 -330.64	   17.45
     47.4564	  242.00	  252.02	 -309.59	   17.45
     47.4898	  285.00	  273.88	 -288.45	   17.44
     47.5233	  214.00	  271.06	 -356.64	   17.44
     47.5567	  213.00	  253.67	 -340.24	   17.44
     47.5901	  168.00	  229.89	 -361.46	   17.44
     47.6235	  198.00	  199.32	 -300.90	   17.43
     47.6570	  131.00	  163.63	 -332.20	   17.43
     47.6904	   82.00	  129.45	 -347.03	   17.43
     47.7238	   92.00	  101.49	 -309.06	   17.43
     47.7572	   74.00	   80.57	 -306.14	   17.42
     47.7906	   59.00	   65.69	 -306.27	   17.42
     47.8241	   55.00	   55.38	 -299.96	   17.42
     47.8575	   45.00	   48.27	 -302.85	   17.42
     47.8909	   43.00	   43.28	 -299.86	   17.41
     47.9243	   46.00	   39.66	 -293.24	   17.41
     47.9578	   35.00	   36.93	 -301.50	   17.41
     47.9912	   40.00	   34.79	 -294.37	   17.41
     48.0246	   33.00	   33.08	 -299.65	   17.40
     48.0580	   32.00	   31.67	 -299.25	   17.40
     48.0914	   32.00	   30.50	 -298.08	   17.40
     48.1249	   47.00	   29.52	 -282.10	   17.40
     48.1583	   30.00	   28.69	 -298.27	   17.39
     48.1917	   31.00	   27.98	 -296.55	   17.39
     48.2251	   38.00	   27.36	 -288.94	   17.39
     48.2586	   18.00	   26.83	 -308.41	   17.39
     48.2920	   33.00	   26.37	 -292.94	   17.38
     48.3254	   27.00	   25.96	 -298.53	   17.38
     48.3588	   41.00	   25.59	 -284.17	   17.38
     48.3922	   23.00	   25.27	 -301.85	   17.38
     48.4257	   26.00	   24.98	 -298.56	   17.37
     48.4591	   20.00	   24.73	 -304.30	   17.37
     48.4925	   23.00	   24.50	 -301.07	   17.37
     48.5259	   30.00	   24.29	 -293.86	   17.36
     48.5594	   28.00	   24.10	 -295.67	   17.36
     48.5928	   18.00	   23.92	 -305.50	   17.36
     48.6262	   32.00	   23.77	 -291.34	   17.36
     48.6596	   30.00	   23.62	 -293.20	   17.35
     48.6930	   26.00	   23.49	 -297.07	   17.35
     48.7265	   30.00	   23.37	 -292.94	   17.35
     48.7599	   32.00	   23.26	 -290.83	   17.35
     48.7933	   22.00	   23.16	 -300.73	   17.34
     48.8267	   18.00	   23.06	 -304.63	   17.34
     48.8602	   33.00	   22.97	 -289.55	   17.34
     48.8936	   30.00	   22.89	 -292.46	   17.34
     48.9270	   12.00	   22.81	 -310.39	   17.33
     48.9604	   26.00	   22.74	 -296.31	   17.33
     48.9939	   38.00	   22.67	 -284.25	   17.33
     49.0273	   17.00	   22.61	 -305.18	   17.33
     49.0607	   15.00	   22.55	 -307.12	   17.32
     49.0941	   26.00	   22.50	 -296.07	   17.32
     49.1275	   28.00	   22.44	 -294.02	   17.32
     49.1610	   26.00	   22.39	 -295.97	   17.32
     49.1944	   21.00	   22.35	 -300.92	   17.31
     49.2278	   31.00	   22.30	 -290.88	   17.31
     49.2612	   31.00	   22.26	 -290.84	   17.31
     49.2947	   30.00	   22.22	 -291.80	   17.31
     49.3281	   28.00	   22.19	 -293.76	   17.30
     49.3615	   27.00	   22.15	 -294.72	   17.30
     49.3949	   31.00	   22.12	 -290.69	   17.30
     49.4283	   27.00	   22.08	 -294.66	   17.30
     49.4618	   20.00	   22.05	 -301.63	   17.29
     49.4952	   23.00	   22.02	 -298.60	   17.29
     49.5286	   22.00	   22.00	 -299.57	   17.29
     49.5620	   25.00	   21.97	 -296.54	   17.29
     49.5955	   15.00	   21.94	 -306.52	   17.28
     49.6289	   27.00	   21.92	 -294.49	   17.28
     49.6623	   37.00	   21.90	 -284.47	   17.28
     49.6957	   18.00	   21.87	 -303.45	   17.28
     49.7291	   30.00	   21.85	 -291.43	   17.27
     49.7626	   25.00	   21.83	 -296.41	   17.27
     49.7960	   21.00	   21.81	 -300.39	   17.27
     49.8294	   27.00	   21.79	 -294.37	   17.27
     49.8628	   28.00	   21.77	 -293.35	   17.26
     49.8963	   33.00	   21.76	 -288.33	   17.26
     49.9297	   26.00	   21.74	 -295.31	   17.26
     49.9631	   23.00	   21.72	 -298.30	   17.26
     49.9965	   28.00	   21.71	 -293.28	   17.25
     50.0300	   15.00	   21.69	 -306.27	   17.25
     50.0634	   20.00	   21.68	 -301.25	   17.25
     50.0968	   17.00	   21.66	 -304.24	   17.24
     50.1302	   26.00	   21.65	 -295.22	   17.24
     50.1636	   25.00	   21.63	 -296.21	   17.24
     50.1971	   20.00	   21.62	 -301.20	   17.24
     50.2305	   18.00	   21.61	 -303.18	   17.23
     50.2639	   28.00	   21.60	 -293.17	   17.23
     50.2973	   23.00	   21.58	 -298.16	   17.23
     50.3308	   23.00	   21.57	 -298.15	   17.23
     50.3642	   22.00	   21.56	 -299.14	   17.22
     50.3976	   20.00	   21.55	 -301.12	   17.22
     50.4310	   16.00	   21.54	 -305.11	   17.22
     50.4644	   18.00	   21.53	 -303.10	   17.22
     50.4979	   27.00	   21.52	 -294.09	   17.21
     50.5313	   18.00	   21.51	 -303.08	   17.21
     50.5647	   25.00	   21.50	 -296.07	   17.21
     50.5981	   16.00	   21.49	 -305.06	   17.21
     50.6316	   17.00	   21.48	 -304.05	   17.20
     50.6650	   27.00	   21.47	 -294.05	   17.20
     50.6984	   22.00	   21.46	 -299.04	   17.20
     50.7318	   23.00	   21.45	 -298.03	   17.20
     50.7652	   15.00	   21.45	 -306.02	   17.19
     50.7987	   21.00	   21.44	 -300.01	   17.19
     50.8321	   18.00	   21.43	 -303.00	   17.19
     50.8655	   26.00	   21.42	 -294.99	   17.19
     50.8989	   26.00	   21.41	 -294.99	   17.18
     50.9324	   22.00	   21.41	 -298.98	   17.18
     50.9658	   17.00	   21.40	 -303.97	   17.18
     50.9992	   15.00	   21.39	 -305.96	   17.18
     51.0326	   31.00	   21.38	 -289.96	   17.17
     51.0660	   26.00	   21.38	 -294.95	   17.17
     51.0995	   23.00	   21.37	 -297.94	   17.17
     51.1329	   17.00	   21.36	 -303.94	   17.17
     51.1663	   20.00	   21.36	 -300.93	   17.16
     51.1997	   28.00	   21.35	 -292.92	   17.16
     51.2332	   15.00	   21.34	 -305.92	   17.16
     51.2666	   16.00	   21.34	 -304.91	   17.16
     51.3000	   16.00	   21.33	 -304.90	   17.15
     51.3334	   32.00	   21.32	 -288.90	   17.15
     51.3669	   17.00	   21.32	 -303.89	   17.15
     51.4003	   17.00	   21.31	 -303.89	   17.15
     51.4337	   25.00	   21.31	 -295.88	   17.14
     51.4671	   23.00	   21.30	 -297.87	   17.14
     51.5005	   20.00	   21.29	 -300.87	   17.14
     51.5340	   31.00	   21.29	 -289.86	   17.14
     51.5674	   11.00	   21.28	 -309.86	   17.13
     51.6008	   12.00	   21.28	 -308.85	   17.13
     51.6342	   21.00	   21.40	 -299.98	   17.13
     51.6677	   20.00	   21.40	 -300.97	   17.12
     51.7011	   16.00	   21.39	 -304.97	   17.12
     51.7345	   26.00	   21.39	 -294.97	   17.12
     51.7679	   27.00	   21.45	 -294.03	   17.12
     51.8013	   23.00	   21.45	 -298.02	   17.11
     51.8348	   20.00	   21.45	 -301.02	   17.11
     51.8682	   15.00	   21.45	 -306.02	   17.11
     51.9016	   21.00	   21.44	 -300.02	   17.11
     51.9350	   30.00	   21.44	 -291.02	   17.10
     51.9685	   18.00	   21.44	 -303.01	   17.10
     52.0019	   23.00	   21.44	 -298.01	   17.10
     52.0353	   20.00	   21.44	 -301.01	   17.10
     52.0687	   27.00	   21.44	 -294.01	   17.09
     52.1021	   36.00	   21.43	 -285.01	   17.09
     52.1356	   26.00	   21.43	 -295.01	   17.09
     52.1690	   27.00	   21.43	 -294.01	   17.09
     52.2024	   26.00	   21.43	 -295.01	   17.08
     52.2358	   23.00	   21.43	 -298.00	   17.08
     52.2693	   18.00	   21.34	 -302.92	   17.08
     52.3027	   17.00	   21.34	 -303.92	   17.08
     52.3361	   15.00	   21.34	 -305.92	   17.07
     52.3695	   23.00	   21.35	 -297.92	   17.07
     52.4030	   13.00	   21.30	 -307.88	   17.07
     52.4364	   27.00	   21.31	 -293.88	   17.07
     52.4698	   23.00	   21.31	 -297.88	   17.06
     52.5032	   13.00	   21.31	 -307.88	   17.06
     52.5366	   28.00	   21.31	 -292.89	   17.06
     52.5701	   32.00	   21.31	 -288.89	   17.06
     52.6035	   21.00	   21.32	 -299.89	   17.05
     52.6369	   18.00	   21.32	 -302.89	   17.05
     52.6703	   15.00	   21.32	 -305.90	   17.05
     52.7038	   23.00	   21.32	 -297.90	   17.05
     52.7372	   15.00	   21.33	 -305.90	   17.04
     52.7706	   20.00	   21.33	 -300.90	   17.04
     52.8040	   35.00	   21.33	 -285.91	   17.04
     52.8374	   13.00	   21.34	 -307.91	   17.04
     52.8709	   30.00	   21.34	 -290.91	   17.03
     52.9043	   15.00	   21.34	 -305.92	   17.03
     52.9377	   32.00	   21.35	 -288.92	   17.03
     52.9711	   21.00	   21.35	 -299.92	   17.03
     53.0046	   20.00	   21.35	 -300.93	   17.02
     53.0380	   30.00	   21.36	 -290.93	   17.02
     53.0714	   20.00	   21.36	 -300.94	   17.02
     53.1048	   25.00	   21.37	 -295.94	   17.01
     53.1382	   25.00	   21.37	 -295.95	   17.01
     53.1717	   22.00	   21.38	 -298.95	   17.01
     53.2051	   16.00	   21.38	 -304.96	   17.01
     53.2385	   17.00	   21.39	 -303.96	   17.00
     53.2719	   26.00	   21.40	 -294.97	   17.00
     53.3054	   31.00	   21.40	 -289.98	   17.00
     53.3388	   27.00	   21.41	 -293.98	   17.00
     53.3722	   31.00	   21.41	 -289.99	   16.99
     53.4056	   13.00	   21.42	 -308.00	   16.99
     53.4390	   16.00	   21.43	 -305.00	   16.99
     53.4725	   16.00	   21.44	 -305.01	   16.99
     53.5059	   27.00	   21.44	 -294.02	   16.98
     53.5393	   21.00	   21.45	 -300.03	   16.98
     53.5727	   31.00	   21.46	 -290.04	   16.98
     53.6062	   23.00	   21.47	 -298.04	   16.98
     53.6396	   26.00	   21.48	 -295.05	   16.97
     53.6730	   26.00	   21.49	 -295.06	   16.97
     53.7064	   18.00	   21.50	 -303.07	   16.97
     53.7399	   28.00	   21.51	 -293.08	   16.97
     53.7733	   23.00	   21.52	 -298.10	   16.96
     53.8067	   18.00	   21.53	 -303.11	   16.96
     53.8401	   15.00	   21.55	 -306.12	   16.96
     53.8735	   28.00	   21.56	 -293.13	   16.96
     53.9070	   17.00	   21.57	 -304.15	   16.95
     53.9404	   17.00	   21.59	 -304.16	   16.95
     53.9738	   25.00	   21.60	 -296.17	   16.95
     54.0072	   32.00	   21.62	 -289.19	   16.95
     54.0407	   17.00	   21.63	 -304.21	   16.94
     54.0741	   30.00	   21.65	 -291.22	   16.94
     54.1075	   18.00	   21.67	 -303.24	   16.94
     54.1409	   26.00	   21.68	 -295.26	   16.94
     54.1743	   15.00	   21.70	 -306.28	   16.93
     54.2078	   21.00	   21.72	 -300.30	   16.93
     54.2412	   20.00	   21.74	 -301.32	   16.93
     54.2746	   21.00	   21.77	 -300.34	   16.93
     54.3080	    8.00	   21.79	 -313.36	   16.92
     54.3415	   22.00	   21.81	 -299.39	   16.92
     54.3749	   22.00	   21.84	 -299.41	   16.92
     54.4083	   17.00	   21.87	 -304.44	   16.92
     54.4417	   26.00	   21.89	 -295.47	   16.91
     54.4752	   17.00	   21.92	 -304.50	   16.91
     54.5086	   21.00	   21.96	 -300.53	   16.91
     54.5420	   23.00	   21.99	 -298.56	   16.91
     54.5754	   23.00	   22.02	 -298.60	   16.90
     54.6088	   15.00	   22.06	 -306.63	   16.90
     54.6423	   22.00	   22.10	 -299.67	   16.90
     54.6757	   33.00	   22.14	 -288.71	   16.89
     54.7091	   20.00	   22.18	 -301.76	   16.89
     54.7425	   31.00	   22.23	 -290.80	   16.89
     54.7759	   22.00	   22.28	 -299.85	   16.89
     54.8094	   25.00	   22.33	 -296.90	   16.88
     54.8428	   32.00	   22.38	 -289.96	   16.88
     54.8762	   26.00	   22.44	 -296.01	   16.88
     54.9096	   25.00	   22.50	 -297.07	   16.88
     54.9431	   31.00	   22.57	 -291.14	   16.87
     54.9765	   37.00	   22.64	 -285.21	   16.87
     55.0099	   25.00	   22.71	 -297.28	   16.87
     55.0433	   20.00	   22.79	 -302.36	   16.87
     55.0768	   31.00	   22.87	 -291.45	   16.86
     55.1102	   36.00	   22.96	 -286.54	   16.86
     55.1436	   28.00	   23.06	 -294.63	   16.86
     55.1770	   15.00	   23.16	 -307.74	   16.86
     55.2104	   28.00	   23.28	 -294.85	   16.85
     55.2439	   21.00	   23.40	 -301.97	   16.85
     55.2773	   31.00	   23.53	 -292.10	   16.85
     55.3107	   30.00	   23.67	 -293.24	   16.85
     55.3441	   28.00	   23.82	 -295.39	   16.84
     55.3776	   21.00	   23.99	 -302.56	   16.84
     55.4110	   31.00	   24.17	 -292.74	   16.84
     55.4444	   26.00	   24.36	 -297.94	   16.84
     55.4778	   40.00	   24.58	 -284.15	   16.83
     55.5112	   21.00	   24.81	 -303.38	   16.83
     55.5447	   27.00	   25.07	 -297.64	   16.83
     55.5781	   35.00	   25.35	 -289.92	   16.83
     55.6115	   32.00	   25.66	 -293.24	   16.82
     55.6449	   33.00	   26.01	 -292.58	   16.82
     55.6784	   35.00	   26.40	 -290.97	   16.82
     55.7118	   31.00	   26.83	 -295.40	   16.82
     55.7452	   36.00	   27.31	 -290.88	   16.81
     55.7786	   40.00	   27.85	 -287.43	   16.81
     55.8120	   35.00	   28.47	 -293.04	   16.81
     55.8455	   28.00	   29.17	 -300.74	   16.81
     55.8789	   28.00	   29.97	 -301.54	   16.80
     55.9123	   38.00	   30.89	 -292.46	   16.80
     55.9457	   31.00	   31.95	 -300.53	   16.80
     55.9792	   37.00	   33.19	 -295.77	   16.80
     56.0126	   37.00	   34.65	 -297.23	   16.79
     56.0460	   45.00	   36.39	 -290.96	   16.79
     56.0794	   43.00	   38.47	 -295.04	   16.79
     56.1129	   65.00	   40.99	 -275.56	   16.79
     56.1463	   51.00	   44.10	 -292.67	   16.78
     56.1797	   52.00	   48.03	 -295.60	   16.78
     56.2131	   61.00	   53.15	 -291.73	   16.78
     56.2465	   42.00	   60.11	 -317.68	   16.77
     56.2800	   72.00	   69.95	 -297.53	   16.77
     56.3134	   76.00	   84.28	 -307.85	   16.77
     56.3468	   84.00	  105.26	 -320.83	   16.77
     56.3802	   82.00	  135.37	 -352.95	   16.76
     56.4137	  104.00	  176.79	 -372.37	   16.76
     56.4471	  157.00	  229.98	 -372.55	   16.76
     56.4805	  219.00	  290.78	 -371.36	   16.76
     56.5139	  359.00	  345.79	 -286.37	   16.75
     56.5473	  374.00	  374.67	 -300.24	   16.75
     56.5808	  335.00	  369.75	 -334.32	   16.75
     56.6142	  278.00	  345.84	 -367.42	   16.75
     56.6476	  258.00	  318.92	 -360.49	   16.74
     56.6810	  255.00	  290.23	 -334.81	   16.74
     56.7145	  233.00	  253.43	 -320.00	   16.74
     56.7479	  182.00	  209.46	 -327.03	   16.74
     56.7813	  155.00	  166.61	 -311.19	   16.73
     56.8147	   79.00	  130.81	 -351.38	   16.73
     56.8481	   90.00	  103.40	 -312.98	   16.73
     56.8816	   76.00	   83.43	 -307.01	   16.73
     56.9150	   66.00	   69.30	 -302.87	   16.72
     56.9484	   72.00	   59.38	 -286.95	   16.72
     56.9818	   67.00	   52.34	 -284.92	   16.72
     57.0153	   60.00	   47.21	 -286.79	   16.72
     57.0487	   45.00	   43.33	 -297.90	   16.71
     57.0821	   41.00	   40.29	 -298.86	   16.71
     57.1155	   32.00	   37.84	 -305.42	   16.71
     57.1489	   54.00	   35.83	 -281.41	   16.71
     57.1824	   46.00	   34.16	 -287.73	   16.70
     57.2158	   42.00	   32.74	 -290.32	   16.70
     57.2492	   31.00	   31.54	 -300.12	   16.70
     57.2826	   51.00	   30.51	 -279.08	   16.70
     57.3161	   31.00	   29.62	 -298.19	   16.69
     57.3495	   31.00	   28.84	 -297.41	   16.69
     57.3829	   28.00	   28.16	 -299.73	   16.69
     57.4163	   22.00	   27.56	 -305.13	   16.69
     57.4498	   40.00	   27.03	 -286.60	   16.68
     57.4832	   25.00	   26.55	 -301.13	   16.68
     57.5166	   30.00	   26.13	 -295.71	   16.68
     57.5500	   30.00	   25.75	 -295.33	   16.68
     57.5834	   31.00	   25.41	 -293.99	   16.67
     57.6169	   36.00	   25.10	 -288.68	   16.67
     57.6503	   27.00	   24.82	 -297.40	   16.67
     57.6837	   22.00	   24.57	 -302.14	   16.67
     57.7171	   23.00	   24.33	 -300.91	   16.66
     57.7506	   30.00	   24.24	 -293.81	   16.66
     57.7840	   33.00	   24.04	 -290.62	   16.66
     57.8174	   25.00	   23.86	 -298.44	   16.65
     57.8508	   38.00	   23.70	 -285.27	   16.65
     57.8842	   25.00	   23.55	 -298.12	   16.65
     57.9177	   31.00	   23.46	 -292.04	   16.65
     57.9511	   20.00	   23.33	 -302.91	   16.64
     57.9845	   21.00	   23.21	 -301.79	   16.64
     58.0179	   23.00	   23.10	 -299.68	   16.64
     58.0514	   15.00	   23.00	 -307.57	   16.64
     58.0848	   25.00	   22.90	 -297.47	   16.63
     58.1182	   33.00	   22.81	 -289.38	   16.63
     58.1516	   26.00	   22.72	 -296.30	   16.63
     58.1851	   26.00	   22.64	 -296.22	   16.63
     58.2185	   18.00	   22.57	 -304.14	   16.62
     58.2519	   15.00	   22.50	 -307.07	   16.62
     58.2853	   26.00	   22.43	 -296.01	   16.62
     58.3187	   25.00	   22.37	 -296.95	   16.62
     58.3522	   22.00	   22.31	 -299.89	   16.61
     58.3856	   27.00	   22.26	 -294.83	   16.61
     58.4190	   35.00	   22.21	 -286.78	   16.61
     58.4524	   23.00	   22.16	 -298.73	   16.61
     58.4859	   25.00	   22.11	 -296.68	   16.60
     58.5193	   22.00	   22.07	 -299.64	   16.60
     58.5527	   21.00	   22.02	 -300.60	   16.60
     58.5861	   32.00	   21.99	 -289.56	   16.60
     58.6195	   37.00	   21.95	 -284.52	   16.59
     58.6530	   13.00	   21.91	 -308.49	   16.59
     58.6864	   20.00	   21.88	 -301.45	   16.59
     58.7198	   27.00	   21.85	 -294.42	   16.59
     58.7532	   22.00	   21.82	 -299.39	   16.58
     58.7867	   25.00	   21.79	 -296.36	   16.58
     58.8201	   23.00	   21.76	 -298.34	   16.58
     58.8535	   23.00	   21.74	 -298.31	   16.58
     58.8869	   22.00	   21.71	 -299.29	   16.57
     58.9203	   21.00	   21.69	 -300.26	   16.57
     58.9538	   17.00	   21.67	 -304.24	   16.57
     58.9872	   21.00	   21.65	 -300.22	   16.57
     59.0206	   23.00	   21.63	 -298.20	   16.56
     59.0540	   17.00	   21.61	 -304.18	   16.56
     59.0875	   22.00	   21.59	 -299.16	   16.56
     59.1209	   11.00	   21.57	 -310.15	   16.56
     59.1543	   17.00	   21.56	 -304.13	   16.55
     59.1877	   17.00	   21.54	 -304.12	   16.55
     59.2211	   27.00	   21.53	 -294.10	   16.55
     59.2546	   28.00	   21.52	 -293.09	   16.55
     59.2880	   26.00	   21.50	 -295.08	   16.54
     59.3214	   25.00	   21.49	 -296.07	   16.54
     59.3548	   23.00	   21.48	 -298.05	   16.54
     59.3883	   18.00	   21.47	 -303.04	   16.53
     59.4217	   18.00	   21.46	 -303.03	   16.53
     59.4551	   21.00	   21.45	 -300.03	   16.53
     59.4885	   25.00	   21.44	 -296.02	   16.53
     59.5219	   28.00	   21.44	 -293.01	   16.52
     59.5554	   23.00	   21.43	 -298.00	   16.52
     59.5888	   26.00	   21.42	 -295.00	   16.52
     59.6222	   32.00	   21.42	 -288.99	   16.52
     59.6556	   22.00	   21.41	 -298.99	   16.51
     59.6891	   11.00	   21.41	 -309.98	   16.51
     59.7225	   31.00	   21.41	 -289.98	   16.51
     59.7559	   18.00	   21.40	 -302.98	   16.51
     59.7893	   17.00	   21.40	 -303.98	   16.50
     59.8228	   16.00	   21.40	 -304.97	   16.50
     59.8562	   20.00	   21.40	 -300.97	   16.50
     59.8896	   36.00	   21.40	 -284.97	   16.50
     59.9230	   28.00	   21.40	 -292.97	   16.49
     59.9564	   28.00	   21.40	 -292.97	   16.49
     59.9899	   20.00	   21.40	 -300.98	   16.49
     60.0233	   28.00	   21.40	 -292.98	   16.49
     60.0567	   23.00	   21.41	 -297.98	   16.48
     60.0901	   27.00	   21.41	 -293.98	   16.48
     60.1236	   26.00	   21.42	 -294.99	   16.48
     60.1570	   23.00	   21.42	 -297.99	   16.48
     60.1904	   17.00	   21.43	 -304.00	   16.47
     60.2238	   21.00	   21.43	 -300.01	   16.47
     60.2572	   28.00	   21.44	 -293.01	   16.47
     60.2907	   31.00	   21.45	 -290.02	   16.47
     60.3241	   22.00	   21.46	 -299.03	   16.46
     60.3575	   22.00	   21.47	 -299.04	   16.46
     60.3909	   22.00	   21.48	 -299.05	   16.46
     60.4244	   21.00	   21.49	 -300.07	   16.46
     60.4578	   16.00	   21.50	 -305.08	   16.45
     60.4912	   28.00	   21.52	 -293.09	   16.45
     60.5246	   22.00	   21.53	 -299.11	   16.45
     60.5581	   22.00	   21.55	 -299.12	   16.45
     60.5915	   16.00	   21.57	 -305.14	   16.44
     60.6249	   23.00	   21.59	 -298.16	   16.44
     60.6583	   30.00	   21.61	 -291.18	   16.44
     60.6917	   18.00	   21.63	 -303.20	   16.44
     60.7252	   17.00	   21.65	 -304.22	   16.43
     60.7586	   27.00	   21.67	 -294.25	   16.43
     60.7920	   18.00	   21.70	 -303.27	   16.43
     60.8254	   20.00	   21.73	 -301.30	   16.43
     60.8588	   15.00	   21.76	 -306.33	   16.42
     60.8923	   27.00	   21.79	 -294.36	   16.42
     60.9257	   17.00	   21.82	 -304.40	   16.42
     60.9591	   22.00	   21.86	 -299.43	   16.41
     60.9925	   28.00	   21.90	 -293.47	   16.41
     61.0260	   30.00	   21.94	 -291.51	   16.41
     61.0594	   23.00	   21.98	 -298.55	   16.41
     61.0928	   22.00	   22.03	 -299.60	   16.40
     61.1262	   30.00	   22.08	 -291.65	   16.40
     61.1597	   25.00	   22.13	 -296.70	   16.40
     61.1931	   33.00	   22.20	 -288.78	   16.40
     61.2265	   20.00	   22.26	 -301.84	   16.39
     61.2599	   31.00	   22.33	 -290.90	   16.39
     61.2933	   27.00	   22.40	 -294.97	   16.39
     61.3268	   31.00	   22.47	 -291.05	   16.39
     61.3602	   28.00	   22.55	 -294.13	   16.38
     61.3936	   22.00	   22.65	 -300.22	   16.38
     61.4270	   23.00	   22.74	 -299.32	   16.38
     61.4605	   22.00	   22.84	 -300.42	   16.38
     61.4939	   32.00	   22.82	 -290.40	   16.37
     61.5273	   27.00	   22.94	 -295.51	   16.37
     61.5607	   31.00	   23.07	 -291.64	   16.37
     61.5941	   40.00	   23.21	 -282.78	   16.37
     61.6276	   35.00	   23.29	 -287.87	   16.36
     61.6610	   18.00	   23.46	 -305.03	   16.36
     61.6944	   23.00	   23.64	 -300.21	   16.36
     61.7278	   28.00	   23.83	 -295.40	   16.36
     61.7613	   30.00	   24.04	 -293.62	   16.35
     61.7947	   30.00	   24.28	 -293.85	   16.35
     61.8281	   23.00	   24.53	 -301.11	   16.35
     61.8615	   32.00	   24.82	 -292.39	   16.35
     61.8950	   45.00	   25.13	 -279.70	   16.34
     61.9284	   47.00	   25.48	 -278.05	   16.34
     61.9618	   28.00	   25.87	 -297.44	   16.34
     61.9952	   27.00	   26.30	 -298.88	   16.34
     62.0286	   40.00	   26.79	 -286.36	   16.33
     62.0621	   36.00	   27.34	 -290.92	   16.33
     62.0955	   33.00	   27.97	 -294.54	   16.33
     62.1289	   38.00	   28.68	 -290.25	   16.33
     62.1623	   40.00	   29.50	 -289.07	   16.32
     62.1958	   43.00	   30.44	 -287.02	   16.32
     62.2292	   54.00	   31.54	 -277.12	   16.32
     62.2626	   47.00	   32.83	 -285.41	   16.32
     62.2960	   47.00	   34.35	 -286.93	   16.31
     62.3294	   33.00	   36.17	 -302.75	   16.31
     62.3629	   46.00	   38.37	 -291.95	   16.31
     62.3963	   57.00	   41.07	 -283.64	   16.31
     62.4297	   61.00	   44.46	 -283.03	   16.30
     62.4631	   54.00	   48.84	 -294.42	   16.30
     62.4966	   64.00	   54.74	 -290.32	   16.30
     62.5300	   69.00	   62.99	 -293.56	   16.29
     62.5634	   81.00	   74.85	 -293.42	   16.29
     62.5968	   74.00	   92.03	 -317.60	   16.29
     62.6302	   85.00	  116.53	 -331.10	   16.29
     62.6637	  115.00	  150.14	 -334.72	   16.28
     62.6971	  100.00	  193.58	 -393.15	   16.28
     62.7305	  178.00	  244.54	 -366.11	   16.28
     62.7639	  275.00	  293.74	 -318.32	   16.28
     62.7974	  305.00	  324.96	 -319.54	   16.27
     62.8308	  277.00	  327.03	 -349.60	   16.27
     62.8642	  242.00	  307.97	 -365.54	   16.27
     62.8976	  188.00	  284.43	 -396.00	   16.27
     62.9311	  203.00	  264.08	 -360.66	   16.26
     62.9645	  182.00	  243.10	 -360.68	   16.26
     62.9979	  172.00	  214.70	 -342.28	   16.26
     63.0313	  109.00	  179.80	 -370.37	   16.26
     63.0647	  110.00	  145.17	 -334.74	   16.25
     63.0982	   79.00	  115.74	 -336.32	   16.25
     63.1316	   92.00	   92.82	 -300.39	   16.25
     63.1650	   47.00	   75.82	 -328.40	   16.25
     63.1984	   67.00	   63.62	 -296.19	   16.24
     63.2318	   43.00	   54.95	 -311.52	   16.24
     63.2653	   54.00	   48.76	 -294.33	   16.24
     63.2987	   41.00	   44.22	 -302.80	   16.24
     63.3321	   43.00	   40.79	 -297.37	   16.23
     63.3655	   51.00	   38.11	 -286.68	   16.23
     63.3990	   41.00	   35.94	 -294.52	   16.23
     63.4324	   36.00	   34.16	 -297.74	   16.23
     63.4658	   41.00	   32.68	 -291.25	   16.22
     63.4992	   23.00	   31.42	 -308.00	   16.22
     63.5327	   50.00	   30.35	 -279.93	   16.22
     63.5661	   38.00	   29.44	 -291.01	   16.22
     63.5995	   36.00	   28.64	 -292.21	   16.21
     63.6329	   22.00	   27.95	 -305.52	   16.21
     63.6663	   33.00	   27.34	 -293.92	   16.21
     63.6998	   32.00	   26.81	 -294.38	   16.21
     63.7332	   40.00	   26.33	 -285.91	   16.20
     63.7666	   33.00	   25.91	 -292.49	   16.20
     63.8000	   31.00	   25.53	 -294.11	   16.20
     63.8335	   37.00	   25.25	 -287.82	   16.20
     63.8669	   32.00	   24.94	 -292.52	   16.19
     63.9003	   31.00	   24.67	 -293.24	   16.19
     63.9337	   37.00	   24.42	 -287.00	   16.19
     63.9671	   33.00	   24.20	 -290.77	   16.19
     64.0006	   25.00	   23.99	 -298.57	   16.18
     64.0340	   33.00	   23.83	 -290.41	   16.18
     64.0674	   21.00	   23.66	 -302.24	   16.18
     64.1008	   40.00	   23.51	 -283.08	   16.17
     64.1343	   28.00	   23.36	 -294.94	   16.17
     64.1677	   31.00	   23.23	 -291.81	   16.17
     64.2011	   16.00	   23.11	 -306.69	   16.17
     64.2345	   27.00	   23.00	 -295.58	   16.16
     64.2680	   23.00	   22.90	 -299.48	   16.16
     64.3014	   21.00	   22.81	 -301.38	   16.16
     64.3348	   28.00	   22.72	 -294.30	   16.16
     64.3682	   18.00	   22.64	 -304.22	   16.15
     64.4016	   26.00	   22.57	 -296.14	   16.15
     64.4351	   33.00	   22.50	 -289.07	   16.15
     64.4685	   26.00	   22.44	 -296.01	   16.15
     64.5019	   31.00	   22.38	 -290.96	   16.14
     64.5353	   32.00	   22.33	 -289.90	   16.14
     64.5688	   21.00	   22.28	 -300.85	   16.14
     64.6022	   28.00	   22.24	 -293.81	   16.14
     64.6356	   15.00	   22.20	 -306.77	   16.13
     64.6690	   22.00	   22.16	 -299.73	   16.13
     64.7024	   42.00	   22.13	 -279.70	   16.13
     64.7359	   18.00	   22.10	 -303.67	   16.13
     64.7693	   26.00	   22.07	 -295.65	   16.12
     64.8027	   17.00	   22.05	 -304.62	   16.12
     64.8361	   18.00	   22.03	 -303.61	   16.12
     64.8696	   16.00	   22.02	 -305.59	   16.12
     64.9030	   17.00	   22.00	 -304.58	   16.11
     64.9364	   20.00	   21.99	 -301.57	   16.11
     64.9698	   13.00	   21.98	 -308.56	   16.11
     65.0033	   22.00	   21.98	 -299.55	   16.11
     65.0367	   20.00	   21.98	 -301.55	   16.10
     65.0701	   23.00	   21.98	 -298.56	   16.10
     65.1035	   25.00	   21.99	 -296.56	   16.10
     65.1369	   33.00	   22.00	 -288.57	   16.10
     65.1704	   17.00	   22.01	 -304.58	   16.09
     65.2038	   18.00	   22.02	 -303.60	   16.09
     65.2372	   23.00	   22.04	 -298.62	   16.09
     65.2706	   25.00	   22.07	 -296.64	   16.09
     65.3040	   31.00	   22.10	 -290.67	   16.08
     65.3375	   31.00	   22.13	 -290.71	   16.08
     65.3709	   38.00	   22.17	 -283.75	   16.08
     65.4043	   21.00	   22.22	 -300.79	   16.08
     65.4377	   21.00	   22.27	 -300.84	   16.07
     65.4712	   18.00	   22.33	 -303.90	   16.07
     65.5046	   26.00	   22.39	 -295.97	   16.07
     65.5380	   27.00	   22.47	 -295.04	   16.06
     65.5714	   18.00	   22.56	 -304.13	   16.06
     65.6049	   25.00	   22.66	 -297.23	   16.06
     65.6383	   30.00	   22.77	 -292.35	   16.06
     65.6717	   22.00	   22.90	 -300.48	   16.05
     65.7051	   31.00	   23.05	 -291.63	   16.05
     65.7385	   16.00	   23.23	 -306.80	   16.05
     65.7720	   30.00	   23.43	 -293.01	   16.05
     65.8054	   37.00	   23.67	 -286.25	   16.04
     65.8388	   31.00	   23.95	 -292.53	   16.04
     65.8722	   27.00	   24.29	 -296.87	   16.04
     65.9057	   35.00	   24.70	 -289.28	   16.04
     65.9391	   18.00	   25.21	 -306.78	   16.03
     65.9725	   25.00	   25.86	 -300.43	   16.03
     66.0059	   35.00	   26.71	 -291.28	   16.03
     66.0393	   31.00	   27.87	 -296.44	   16.03
     66.0728	   28.00	   29.51	 -301.09	   16.02
     66.1062	   33.00	   31.87	 -298.44	   16.02
     66.1396	   35.00	   35.21	 -299.79	   16.02
     66.1730	   28.00	   39.83	 -311.40	   16.02
     66.2065	   36.00	   45.88	 -309.46	   16.01
     66.2399	   42.00	   53.23	 -310.80	   16.01
     66.2733	   65.00	   60.93	 -295.50	   16.01
     66.3067	   64.00	   66.91	 -302.48	   16.01
     66.3401	   66.00	   68.90	 -302.48	   16.00
     66.3736	   60.00	   66.93	 -306.51	   16.00
     66.4070	   65.00	   63.34	 -297.91	   16.00
     66.4404	   52.00	   60.12	 -307.69	   16.00
     66.4738	   57.00	   57.56	 -300.13	   15.99
     66.5073	   33.00	   54.64	 -321.22	   15.99
     66.5407	   40.00	   50.48	 -310.06	   15.99
     66.5741	   48.00	   45.47	 -297.05	   15.99
     66.6075	   38.00	   40.64	 -302.21	   15.98
     66.6410	   38.00	   36.59	 -298.17	   15.98
     66.6744	   28.00	   33.48	 -305.06	   15.98
     66.7078	   33.00	   31.21	 -297.79	   15.98
     66.7412	   20.00	   29.62	 -309.20	   15.97
     66.7746	   33.00	   28.54	 -295.12	   15.97
     66.8081	   40.00	   27.82	 -287.40	   15.97
     66.8415	   27.00	   27.35	 -299.92	   15.97
     66.8749	   30.00	   27.05	 -296.63	   15.96
     66.9083	   28.00	   26.89	 -298.46	   15.96
     66.9418	   42.00	   26.81	 -284.39	   15.96
     66.9752	   28.00	   26.83	 -298.40	   15.96
     67.0086	   42.00	   26.91	 -284.48	   15.95
     67.0420	   48.00	   27.06	 -278.63	   15.95
     67.0754	   25.00	   27.28	 -301.85	   15.95
     67.1089	   50.00	   27.56	 -277.14	   15.94
     67.1423	   35.00	   27.92	 -292.49	   15.94
     67.1757	   37.00	   28.35	 -290.92	   15.94
     67.2091	   28.00	   28.88	 -300.45	   15.94
     67.2426	   47.00	   29.49	 -282.07	   15.93
     67.2760	   28.00	   30.22	 -301.80	   15.93
     67.3094	   30.00	   31.09	 -300.66	   15.93
     67.3428	   37.00	   32.11	 -294.69	   15.93
     67.3762	   45.00	   33.33	 -287.91	   15.92
     67.4097	   36.00	   34.80	 -298.37	   15.92
     67.4431	   40.00	   36.57	 -296.14	   15.92
     67.4765	   43.00	   38.74	 -295.31	   15.92
     67.5099	   41.00	   41.45	 -300.02	   15.91
     67.5434	   41.00	   44.93	 -303.50	   15.91
     67.5768	   54.00	   49.55	 -295.12	   15.91
     67.6102	   57.00	   55.92	 -298.50	   15.91
     67.6436	   42.00	   64.97	 -322.55	   15.90
     67.6770	   59.00	   77.96	 -318.53	   15.90
     67.7105	   65.00	   96.41	 -330.98	   15.90
     67.7439	   90.00	  121.80	 -331.37	   15.90
     67.7773	  114.00	  154.99	 -340.57	   15.89
     67.8107	  129.00	  195.05	 -365.63	   15.89
     67.8442	  207.00	  236.87	 -329.44	   15.89
     67.8776	  291.00	  268.94	 -277.51	   15.89
     67.9110	  260.00	  279.26	 -318.84	   15.88
     67.9444	  199.00	  267.87	 -368.45	   15.88
     67.9779	  151.00	  247.50	 -396.07	   15.88
     68.0113	  144.00	  229.28	 -384.85	   15.88
     68.0447	  136.00	  215.37	 -378.95	   15.87
     68.0781	  162.00	  200.70	 -338.27	   15.87
     68.1115	  157.00	  179.43	 -322.01	   15.87
     68.1450	  115.00	  152.52	 -337.10	   15.87
     68.1784	   85.00	  125.42	 -340.00	   15.86
     68.2118	   64.00	  102.08	 -337.65	   15.86
     68.2452	   79.00	   83.67	 -304.24	   15.86
     68.2787	   55.00	   69.91	 -314.48	   15.86
     68.3121	   46.00	   59.98	 -313.55	   15.85
     68.3455	   57.00	   52.97	 -295.54	   15.85
     68.3789	   40.00	   48.05	 -307.62	   15.85
     68.4123	   50.00	   44.57	 -294.14	   15.85
     68.4458	   32.00	   42.08	 -309.65	   15.84
     68.4792	   47.00	   40.30	 -292.88	   15.84
     68.5126	   37.00	   39.06	 -301.63	   15.84
     68.5460	   43.00	   38.26	 -294.83	   15.84
     68.5795	   43.00	   37.85	 -294.42	   15.83
     68.6129	   41.00	   37.82	 -296.39	   15.83
     68.6463	   43.00	   38.20	 -294.78	   15.83
     68.6797	   40.00	   39.08	 -298.65	   15.82
     68.7132	   51.00	   40.59	 -289.16	   15.82
     68.7466	   54.00	   43.01	 -288.59	   15.82
     68.7800	   52.00	   46.77	 -294.34	   15.82
     68.8134	   41.00	   52.43	 -311.00	   15.81
     68.8468	   56.00	   60.72	 -304.29	   15.81
     68.8803	   59.00	   72.34	 -312.91	   15.81
     68.9137	   57.00	   87.73	 -330.30	   15.81
     68.9471	   94.00	  106.54	 -312.11	   15.80
     68.9805	   97.00	  126.55	 -329.13	   15.80
     69.0140	  151.00	  142.57	 -291.14	   15.80
     69.0474	  136.00	  148.46	 -312.04	   15.80
     69.0808	  101.00	  143.49	 -342.06	   15.79
     69.1142	   94.00	  133.41	 -338.98	   15.79
     69.1476	   69.00	  124.02	 -354.59	   15.79
     69.1811	   72.00	  117.07	 -344.64	   15.79
     69.2145	   86.00	  110.46	 -324.03	   15.78
     69.2479	   84.00	  101.07	 -316.65	   15.78
     69.2813	   91.00	   88.48	 -297.06	   15.78
     69.3148	   64.00	   75.10	 -310.67	   15.78
     69.3482	   46.00	   63.14	 -316.72	   15.77
     69.3816	   56.00	   53.48	 -297.05	   15.77
     69.4150	   50.00	   46.10	 -295.68	   15.77
     69.4484	   45.00	   40.66	 -295.24	   15.77
     69.4819	   45.00	   36.73	 -291.30	   15.76
     69.5153	   33.00	   33.88	 -300.45	   15.76
     69.5487	   41.00	   31.78	 -290.36	   15.76
     69.5821	   38.00	   30.20	 -291.77	   15.76
     69.6156	   45.00	   28.95	 -283.52	   15.75
     69.6490	   31.00	   27.95	 -296.52	   15.75
     69.6824	   33.00	   27.11	 -293.69	   15.75
     69.7158	   25.00	   26.41	 -300.99	   15.75
     69.7492	   22.00	   25.82	 -303.39	   15.74
     69.7827	   33.00	   25.31	 -291.88	   15.74
     69.8161	   38.00	   24.86	 -286.44	   15.74
     69.8495	   32.00	   24.47	 -292.05	   15.74
     69.8829	   20.00	   24.13	 -303.70	   15.73
     69.9164	   22.00	   23.83	 -301.40	   15.73
     69.9498	   25.00	   23.56	 -298.13	   15.73
     69.9832	   18.00	   23.31	 -304.89	   15.73
     70.0166	   27.00	   23.10	 -295.67	   15.72
     70.0500	   25.00	   22.90	 -297.47	   15.72
     70.0835	   23.00	   22.72	 -299.29	   15.72
     70.1169	   27.00	   22.56	 -295.13	   15.72
     70.1503	   26.00	   22.41	 -295.98	   15.71
     70.1837	   23.00	   22.27	 -298.85	   15.71
     70.2172	   13.00	   22.15	 -308.72	   15.71
     70.2506	   30.00	   22.03	 -291.61	   15.70
     70.2840	   30.00	   21.92	 -291.50	   15.70
     70.3174	   16.00	   21.83	 -305.40	   15.70
     70.3509	   17.00	   21.73	 -304.31	   15.70
     70.3843	   17.00	   21.65	 -304.22	   15.69
     70.4177	   25.00	   21.57	 -296.14	   15.69
     70.4511	   23.00	   21.49	 -298.07	   15.69
     70.4845	   23.00	   21.42	 -298.00	   15.69
     70.5180	   12.00	   21.36	 -308.93	   15.68
     70.5514	   12.00	   21.30	 -308.87	   15.68
     70.5848	   20.00	   21.24	 -300.82	   15.68
     70.6182	   27.00	   21.19	 -293.76	   15.68
     70.6517	   25.00	   21.14	 -295.71	   15.67
     70.6851	   18.00	   21.09	 -302.66	   15.67
     70.7185	   22.00	   21.05	 -298.62	   15.67
     70.7519	   26.00	   21.00	 -294.58	   15.67
     70.7853	   23.00	   20.96	 -297.54	   15.66
     70.8188	   27.00	   20.93	 -293.50	   15.66
     70.8522	   26.00	   20.89	 -294.46	   15.66
     70.8856	   25.00	   20.86	 -295.43	   15.66
     70.9190	   23.00	   20.83	 -297.40	   15.65
     70.9525	   31.00	   20.80	 -289.37	   15.65
     70.9859	   15.00	   20.77	 -305.34	   15.65
     71.0193	   20.00	   20.74	 -300.32	   15.65
     71.0527	   20.00	   20.72	 -300.29	   15.64
     71.0862	   13.00	   20.70	 -307.27	   15.64
     71.1196	   17.00	   20.68	 -303.25	   15.64
     71.1530	   23.00	   20.66	 -297.23	   15.64
     71.1864	   22.00	   20.64	 -298.21	   15.63
     71.2198	   17.00	   20.62	 -303.20	   15.63
     71.2533	   15.00	   20.61	 -305.18	   15.63
     71.2867	   20.00	   20.59	 -300.17	   15.63
     71.3201	   17.00	   20.58	 -303.16	   15.62
     71.3535	   17.00	   20.57	 -303.15	   15.62
     71.3870	   12.00	   20.57	 -308.14	   15.62
     71.4204	   22.00	   20.56	 -298.13	   15.62
     71.4538	   22.00	   20.56	 -298.13	   15.61
     71.4872	   27.00	   20.55	 -293.13	   15.61
     71.5206	   15.00	   20.55	 -305.13	   15.61
     71.5541	   22.00	   20.55	 -298.13	   15.61
     71.5875	   18.00	   20.56	 -302.13	   15.60
     71.6209	   13.00	   20.57	 -307.14	   15.60
     71.6543	   17.00	   20.58	 -303.15	   15.60
     71.6878	   20.00	   20.59	 -300.17	   15.60
     71.7212	   21.00	   20.61	 -299.19	   15.59
     71.7546	   20.00	   20.64	 -300.21	   15.59
     71.7880	   23.00	   20.67	 -297.24	   15.59
     71.8214	   30.00	   20.70	 -290.28	   15.58
     71.8549	   15.00	   20.75	 -305.32	   15.58
     71.8883	   20.00	   20.80	 -300.37	   15.58
     71.9217	   15.00	   20.86	 -305.43	   15.58
     71.9551	   12.00	   20.93	 -308.51	   15.57
     71.9886	   22.00	   21.03	 -298.60	   15.57
     72.0220	   28.00	   21.14	 -292.71	   15.57
     72.0554	   18.00	   21.27	 -302.84	   15.57
     72.0888	   33.00	   21.44	 -288.01	   15.56
     72.1222	   28.00	   21.65	 -293.22	   15.56
     72.1557	   23.00	   21.92	 -298.50	   15.56
     72.1891	   26.00	   22.29	 -295.86	   15.56
     72.2225	   11.00	   22.80	 -311.37	   15.55
     72.2559	   28.00	   23.51	 -295.09	   15.55
     72.2894	   20.00	   24.54	 -304.12	   15.55
     72.3228	   31.00	   25.99	 -294.56	   15.55
     72.3562	   17.00	   27.96	 -310.54	   15.54
     72.3896	   16.00	   30.53	 -314.10	   15.54
     72.4230	   22.00	   33.61	 -311.18	   15.54
     72.4565	   21.00	   36.83	 -315.41	   15.54
     72.4899	   41.00	   39.37	 -297.94	   15.53
     72.5233	   43.00	   40.27	 -296.84	   15.53
     72.5567	   31.00	   39.43	 -308.01	   15.53
     72.5902	   22.00	   37.76	 -315.33	   15.53
     72.6236	   20.00	   36.20	 -315.78	   15.52
     72.6570	   28.00	   35.11	 -306.69	   15.52
     72.6904	   27.00	   34.26	 -306.84	   15.52
     72.7239	   23.00	   33.11	 -309.68	   15.52
     72.7573	   21.00	   31.37	 -309.94	   15.51
     72.7907	   35.00	   29.30	 -293.87	   15.51
     72.8241	   13.00	   27.30	 -313.88	   15.51
     72.8575	   17.00	   25.62	 -308.19	   15.51
     72.8910	   28.00	   24.29	 -295.87	   15.50
     72.9244	   22.00	   23.29	 -300.87	   15.50
     72.9578	   21.00	   22.56	 -301.14	   15.50
     72.9912	   21.00	   22.03	 -300.61	   15.50
     73.0247	   22.00	   21.64	 -299.22	   15.49
     73.0581	   26.00	   21.35	 -294.93	   15.49
     73.0915	   20.00	   21.03	 -300.61	   15.49
     73.1249	   32.00	   20.86	 -288.43	   15.49
     73.1583	   21.00	   20.71	 -299.29	   15.48
     73.1918	   21.00	   20.59	 -299.17	   15.48
     73.2252	   20.00	   20.49	 -300.07	   15.48
     73.2586	   22.00	   20.41	 -297.98	   15.48
     73.2920	   28.00	   20.28	 -291.86	   15.47
     73.3255	   23.00	   20.22	 -296.79	   15.47
     73.3589	   35.00	   20.16	 -284.74	   15.47
     73.3923	   25.00	   20.11	 -294.69	   15.46
     73.4257	   21.00	   20.07	 -298.64	   15.46
     73.4592	   17.00	   20.03	 -302.60	   15.46
     73.4926	   28.00	   19.99	 -291.57	   15.46
     73.5260	   15.00	   19.96	 -304.54	   15.45
     73.5594	   21.00	   19.93	 -298.51	   15.45
     73.5928	   23.00	   19.91	 -296.48	   15.45
     73.6263	   27.00	   19.88	 -292.46	   15.45
     73.6597	   32.00	   19.86	 -287.44	   15.44
     73.6931	   22.00	   19.84	 -297.42	   15.44
     73.7265	   17.00	   19.82	 -302.40	   15.44
     73.7599	   15.00	   19.81	 -304.38	   15.44
     73.7934	   12.00	   19.79	 -307.36	   15.43
     73.8268	   30.00	   19.78	 -289.35	   15.43
     73.8602	   30.00	   19.76	 -289.34	   15.43
     73.8936	   15.00	   19.75	 -304.32	   15.43
     73.9271	   13.00	   19.74	 -306.31	   15.42
     73.9605	   16.00	   19.73	 -303.30	   15.42
     73.9939	   31.00	   19.72	 -288.29	   15.42
     74.0273	   18.00	   19.71	 -301.28	   15.42
     74.0608	   21.00	   19.70	 -298.27	   15.41
     74.0942	   21.00	   19.69	 -298.26	   15.41
     74.1276	   27.00	   19.68	 -292.26	   15.41
     74.1610	   20.00	   19.67	 -299.25	   15.41
     74.1944	   28.00	   19.67	 -291.24	   15.40
     74.2279	   20.00	   19.66	 -299.23	   15.40
     74.2613	   20.00	   19.61	 -299.18	   15.40
     74.2947	   22.00	   19.60	 -297.17	   15.40
     74.3281	   21.00	   19.60	 -298.17	   15.39
     74.3616	   25.00	   19.59	 -294.17	   15.39
     74.3950	   23.00	   19.59	 -296.16	   15.39
     74.4284	   22.00	   19.58	 -297.16	   15.39
     74.4618	   15.00	   19.56	 -304.13	   15.38
     74.4952	   17.00	   19.55	 -302.13	   15.38
     74.5287	   22.00	   19.55	 -297.12	   15.38
     74.5621	   13.00	   19.55	 -306.12	   15.38
     74.5955	   22.00	   19.55	 -297.12	   15.37
     74.6289	   16.00	   19.54	 -303.12	   15.37
     74.6624	   22.00	   19.54	 -297.12	   15.37
     74.6958	   22.00	   19.54	 -297.12	   15.37
     74.7292	   16.00	   19.54	 -303.12	   15.36
     74.7626	   21.00	   19.54	 -298.11	   15.36
     74.7961	   21.00	   19.54	 -298.11	   15.36
     74.8295	   20.00	   19.54	 -299.11	   15.36
     74.8629	   13.00	   19.54	 -306.11	   15.35
     74.8963	   26.00	   19.54	 -293.12	   15.35
     74.9297	   18.00	   19.54	 -301.12	   15.35
     74.9632	   22.00	   19.54	 -297.12	   15.34
     74.9966	   18.00	   19.54	 -301.12	   15.34
     75.0300	   23.00	   19.55	 -296.12	   15.34
     75.0634	   26.00	   19.55	 -293.12	   15.34
     75.0969	   23.00	   19.55	 -296.13	   15.33
     75.1303	   28.00	   19.56	 -291.13	   15.33
     75.1637	   23.00	   19.56	 -296.13	   15.33
     75.1971	   13.00	   19.56	 -306.14	   15.33
     75.2305	   15.00	   19.57	 -304.14	   15.32
     75.2640	   31.00	   19.57	 -288.15	   15.32
     75.2974	   17.00	   19.58	 -302.15	   15.32
     75.3308	   18.00	   19.59	 -301.16	   15.32
     75.3642	   30.00	   19.59	 -289.17	   15.31
     75.3977	   31.00	   19.60	 -288.17	   15.31
     75.4311	   21.00	   19.61	 -298.18	   15.31
     75.4645	   13.00	   19.62	 -306.19	   15.31
     75.4979	   18.00	   19.63	 -301.20	   15.30
     75.5313	   23.00	   19.64	 -296.21	   15.30
     75.5648	   17.00	   19.65	 -302.23	   15.30
     75.5982	   23.00	   19.67	 -296.24	   15.30
     75.6316	   30.00	   19.68	 -289.26	   15.29
     75.6650	   36.00	   19.70	 -283.27	   15.29
     75.6985	   27.00	   19.72	 -292.29	   15.29
     75.7319	   26.00	   19.74	 -293.32	   15.29
     75.7653	   15.00	   19.77	 -304.34	   15.28
     75.7987	   23.00	   19.79	 -296.36	   15.28
     75.8321	   22.00	   19.82	 -297.39	   15.28
     75.8656	   11.00	   19.85	 -308.42	   15.28
     75.8990	   21.00	   19.88	 -298.45	   15.27
     75.9324	   12.00	   19.91	 -307.49	   15.27
     75.9658	   21.00	   19.96	 -298.53	   15.27
     75.9993	   25.00	   20.00	 -294.58	   15.27
     76.0327	   21.00	   20.05	 -298.62	   15.26
     76.0661	   17.00	   20.11	 -302.68	   15.26
     76.0995	   13.00	   20.17	 -306.74	   15.26
     76.1329	   22.00	   20.24	 -297.81	   15.26
     76.1664	   28.00	   20.32	 -291.89	   15.25
     76.1998	   31.00	   20.41	 -288.98	   15.25
     76.2332	   23.00	   20.51	 -297.09	   15.25
     76.2666	   17.00	   20.63	 -303.20	   15.25
     76.3001	   21.00	   20.77	 -299.34	   15.24
     76.3335	   22.00	   20.93	 -298.50	   15.24
     76.3669	   21.00	   21.11	 -299.69	   15.24
     76.4003	   28.00	   21.33	 -292.91	   15.23
     76.4338	   23.00	   21.60	 -298.17	   15.23
     76.4672	   18.00	   21.91	 -303.49	   15.23
     76.5006	   23.00	   22.31	 -298.88	   15.23
     76.5340	   31.00	   22.80	 -291.38	   15.22
     76.5674	   22.00	   23.45	 -301.02	   15.22
     76.6009	   32.00	   24.32	 -291.89	   15.22
     76.6343	   40.00	   25.53	 -285.10	   15.22
     76.6677	   17.00	   27.23	 -309.80	   15.21
     76.7011	   26.00	   29.61	 -303.19	   15.21
     76.7346	   25.00	   32.89	 -307.46	   15.21
     76.7680	   46.00	   37.21	 -290.79	   15.21
     76.8014	   38.00	   42.60	 -304.17	   15.20
     76.8348	   32.00	   48.69	 -316.27	   15.20
     76.8682	   51.00	   54.45	 -303.02	   15.20
     76.9017	   56.00	   58.09	 -301.66	   15.20
     76.9351	   43.00	   58.30	 -314.87	   15.19
     76.9685	   48.00	   55.73	 -307.30	   15.19
     77.0019	   41.00	   52.29	 -310.87	   15.19
     77.0354	   32.00	   49.48	 -317.06	   15.19
     77.0688	   23.00	   47.71	 -324.28	   15.18
     77.1022	   48.00	   46.46	 -298.03	   15.18
     77.1356	   42.00	   44.69	 -302.26	   15.18
     77.1691	   28.00	   41.77	 -313.35	   15.18
     77.2025	   35.00	   38.05	 -302.63	   15.17
     77.2359	   30.00	   34.30	 -303.88	   15.17
     77.2693	   23.00	   31.03	 -307.61	   15.17
     77.3027	   28.00	   28.40	 -299.97	   15.17
     77.3362	   22.00	   26.38	 -303.95	   15.16
     77.3696	   22.00	   24.88	 -302.46	   15.16
     77.4030	   11.00	   23.79	 -312.36	   15.16
     77.4364	   18.00	   22.99	 -304.56	   15.16
     77.4699	   25.00	   22.39	 -296.96	   15.15
     77.5033	   12.00	   21.94	 -309.51	   15.15
     77.5367	   20.00	   21.58	 -301.15	   15.15
     77.5701	   25.00	   21.29	 -295.87	   15.15
     77.6035	   23.00	   21.05	 -297.63	   15.14
     77.6370	   23.00	   20.85	 -297.43	   15.14
     77.6704	   23.00	   20.68	 -297.26	   15.14
     77.7038	   31.00	   20.54	 -289.11	   15.14
     77.7372	   20.00	   20.41	 -299.98	   15.13
     77.7707	   16.00	   20.30	 -303.87	   15.13
     77.8041	   15.00	   20.20	 -304.78	   15.13
     77.8375	   22.00	   20.11	 -297.68	   15.13
     77.8709	   26.00	   20.03	 -293.61	   15.12
     77.9043	   22.00	   19.96	 -297.54	   15.12
     77.9378	   17.00	   19.90	 -302.48	   15.12
     77.9712	   16.00	   19.85	 -303.42	   15.11
     78.0046	   20.00	   19.80	 -299.37	   15.11
     78.0380	   16.00	   19.75	 -303.32	   15.11
     78.0715	   16.00	   19.71	 -303.28	   15.11
     78.1049	   21.00	   19.67	 -298.24	   15.10
     78.1383	   20.00	   19.64	 -299.21	   15.10
     78.1717	   21.00	   19.60	 -298.18	   15.10
     78.2051	   20.00	   19.57	 -299.15	   15.10
     78.2386	   13.00	   19.55	 -306.12	   15.09
     78.2720	   18.00	   19.52	 -301.10	   15.09
     78.3054	   25.00	   19.50	 -294.07	   15.09
     78.3388	   16.00	   19.48	 -303.05	   15.09
     78.3723	   27.00	   19.46	 -292.03	   15.08
     78.4057	   15.00	   19.44	 -304.01	   15.08
     78.4391	   13.00	   19.42	 -306.00	   15.08
     78.4725	   17.00	   19.41	 -301.98	   15.08
     78.5060	   18.00	   19.39	 -300.96	   15.07
     78.5394	   20.00	   19.38	 -298.95	   15.07
     78.5728	   17.00	   19.36	 -301.94	   15.07
     78.6062	   16.00	   19.35	 -302.92	   15.07
     78.6396	   22.00	   19.34	 -296.91	   15.06
     78.6731	   12.00	   19.33	 -306.90	   15.06
     78.7065	   22.00	   19.32	 -296.89	   15.06
     78.7399	   21.00	   19.30	 -297.88	   15.06
     78.7733	   16.00	   19.30	 -302.87	   15.05
     78.8068	   18.00	   19.29	 -300.86	   15.05
     78.8402	   13.00	   19.28	 -305.85	   15.05
     78.8736	   11.00	   19.27	 -307.84	   15.05
     78.9070	   20.00	   19.26	 -298.84	   15.04
     78.9404	   20.00	   19.25	 -298.83	   15.04
     78.9739	   21.00	   19.25	 -297.82	   15.04
     79.0073	   12.00	   19.24	 -306.81	   15.04
     79.0407	   20.00	   19.23	 -298.81	   15.03
     79.0741	   22.00	   19.23	 -296.80	   15.03
     79.1076	   17.00	   19.22	 -301.80	   15.03
     79.1410	   23.00	   19.22	 -295.79	   15.03
     79.1744	   10.00	   19.21	 -308.79	   15.02
     79.2078	   22.00	   19.21	 -296.78	   15.02
     79.2412	   16.00	   19.20	 -302.78	   15.02
     79.2747	   26.00	   19.20	 -292.77	   15.02
     79.3081	   22.00	   19.20	 -296.77	   15.01
     79.3415	   15.00	   19.19	 -303.77	   15.01
     79.3749	   22.00	   19.19	 -296.76	   15.01
     79.4084	   25.00	   19.19	 -293.76	   15.01
     79.4418	   23.00	   19.18	 -295.76	   15.00
     79.4752	   21.00	   19.18	 -297.76	   15.00
     79.5086	   18.00	   19.18	 -300.75	   15.00
     79.5421	   11.00	   19.18	 -307.75	   14.99
     79.5755	   25.00	   19.18	 -293.75	   14.99
     79.6089	   23.00	   19.18	 -295.75	   14.99
     79.6423	   15.00	   19.18	 -303.75	   14.99
     79.6757	   26.00	   19.18	 -292.75	   14.98
     79.7092	   26.00	   19.18	 -292.75	   14.98
     79.7426	   27.00	   19.18	 -291.75	   14.98
     79.7760	   20.00	   19.18	 -298.75	   14.98
     79.8094	   17.00	   19.18	 -301.75	   14.97
     79.8428	   33.00	   19.18	 -285.75	   14.97
     79.8763	   13.00	   19.18	 -305.76	   14.97
     79.9097	   18.00	   19.19	 -300.76	   14.97
     79.9431	   26.00	   19.19	 -292.76	   14.96
     79.9765	   21.00	   19.19	 -297.77	   14.96
     80.0100	   20.00	   19.20	 -298.77	   14.96
     80.0434	   23.00	   19.20	 -295.78	   14.96
     80.0768	   22.00	   19.21	 -296.78	   14.95
     80.1102	   20.00	   19.22	 -298.79	   14.95
     80.1437	   20.00	   19.23	 -298.80	   14.95
     80.1771	   13.00	   19.23	 -305.81	   14.95
     80.2105	   15.00	   19.24	 -303.82	   14.94
     80.2439	   22.00	   19.26	 -296.83	   14.94
     80.2773	   22.00	   19.27	 -296.84	   14.94
     80.3108	   21.00	   19.28	 -297.86	   14.94
     80.3442	   26.00	   19.30	 -292.87	   14.93
     80.3776	   13.00	   19.32	 -305.89	   14.93
     80.4110	   16.00	   19.34	 -302.91	   14.93
     80.4445	   23.00	   19.36	 -295.94	   14.93
     80.4779	   22.00	   19.39	 -296.96	   14.92
     80.5113	   18.00	   19.42	 -300.99	   14.92
     80.5447	   18.00	   19.45	 -301.03	   14.92
     80.5781	   21.00	   19.49	 -298.07	   14.92
     80.6116	   20.00	   19.54	 -299.11	   14.91
     80.6450	   17.00	   19.59	 -302.16	   14.91
     80.6784	   11.00	   19.65	 -308.22	   14.91
     80.7118	   26.00	   19.72	 -293.29	   14.91
     80.7453	   26.00	   19.80	 -293.37	   14.90
     80.7787	   12.00	   19.89	 -307.46	   14.90
     80.8121	   21.00	   20.00	 -298.57	   14.90
     80.8455	   22.00	   20.13	 -297.70	   14.90
     80.8790	   23.00	   20.29	 -296.86	   14.89
     80.9124	   21.00	   20.48	 -299.06	   14.89
     80.9458	   15.00	   20.73	 -305.30	   14.89
     80.9792	   36.00	   21.04	 -284.62	   14.89
     81.0126	    8.00	   21.47	 -313.04	   14.88
     81.0461	   20.00	   22.05	 -301.63	   14.88
     81.0795	   22.00	   22.86	 -300.44	   14.88
     81.1129	   21.00	   23.99	 -302.57	   14.87
     81.1463	   18.00	   25.54	 -307.11	   14.87
     81.1798	    7.00	   27.58	 -320.15	   14.87
     81.2132	   22.00	   30.14	 -307.71	   14.87
     81.2466	   22.00	   33.10	 -310.67	   14.86
     81.2800	   28.00	   36.06	 -307.64	   14.86
     81.3134	   47.00	   38.26	 -290.83	   14.86
     81.3469	   31.00	   38.90	 -307.47	   14.86
     81.3803	   40.00	   37.94	 -297.52	   14.85
     81.4137	   21.00	   36.20	 -314.77	   14.85
     81.4471	   21.00	   34.52	 -313.10	   14.85
     81.4806	   21.00	   33.37	 -311.94	   14.85
     81.5140	   26.00	   32.74	 -306.31	   14.84
     81.5474	   17.00	   32.27	 -314.85	   14.84
     81.5808	   26.00	   31.46	 -305.04	   14.84
     81.6143	   27.00	   30.06	 -302.63	   14.84
     81.6477	   22.00	   28.26	 -305.83	   14.83
     81.6811	   18.00	   26.44	 -308.02	   14.83
     81.7145	   23.00	   24.84	 -301.42	   14.83
     81.7479	   22.00	   23.54	 -301.12	   14.83
     81.7814	   21.00	   22.53	 -301.11	   14.82
     81.8148	   25.00	   21.78	 -296.35	   14.82
     81.8482	   31.00	   21.22	 -289.79	   14.82
     81.8816	   11.00	   20.80	 -309.38	   14.82
     81.9151	   21.00	   20.50	 -299.07	   14.81
     81.9485	   17.00	   20.26	 -302.83	   14.81
     81.9819	   18.00	   20.07	 -301.65	   14.81
     82.0153	   22.00	   19.92	 -297.50	   14.81
     82.0487	   27.00	   19.80	 -292.37	   14.80
     82.0822	   25.00	   19.69	 -294.27	   14.80
     82.1156	   25.00	   19.60	 -294.18	   14.80
     82.1490	   15.00	   19.52	 -304.10	   14.80
     82.1824	   25.00	   19.46	 -294.03	   14.79
     82.2159	   18.00	   19.40	 -300.97	   14.79
     82.2493	   17.00	   19.34	 -301.92	   14.79
     82.2827	   17.00	   19.30	 -301.87	   14.79
     82.3161	   18.00	   19.26	 -300.83	   14.78
     82.3495	   15.00	   19.22	 -303.79	   14.78
     82.3830	   30.00	   19.17	 -288.74	   14.78
     82.4164	   13.00	   19.14	 -305.71	   14.78
     82.4498	   27.00	   19.11	 -291.69	   14.77
     82.4832	   32.00	   19.09	 -286.66	   14.77
     82.5167	   20.00	   19.06	 -298.64	   14.77
     82.5501	   28.00	   19.04	 -290.61	   14.77
     82.5835	   22.00	   19.02	 -296.60	   14.76
     82.6169	   21.00	   19.00	 -297.57	   14.76
     82.6503	   17.00	   18.98	 -301.55	   14.76
     82.6838	   23.00	   18.96	 -295.54	   14.75
     82.7172	   16.00	   18.95	 -302.52	   14.75
     82.7506	   21.00	   18.93	 -297.51	   14.75
     82.7840	   18.00	   18.92	 -300.49	   14.75
     82.8175	   20.00	   18.91	 -298.48	   14.74
     82.8509	   15.00	   18.90	 -303.47	   14.74
     82.8843	   22.00	   18.89	 -296.46	   14.74
     82.9177	   16.00	   18.88	 -302.45	   14.74
     82.9511	   30.00	   18.87	 -288.44	   14.73
     82.9846	   16.00	   18.86	 -302.43	   14.73
     83.0180	   23.00	   18.85	 -295.42	   14.73
     83.0514	   17.00	   18.84	 -301.41	   14.73
     83.0848	   18.00	   18.83	 -300.40	   14.72
     83.1183	   26.00	   18.82	 -292.40	   14.72
     83.1517	   26.00	   18.81	 -292.39	   14.72
     83.1851	   23.00	   18.81	 -295.38	   14.72
     83.2185	   16.00	   18.80	 -302.37	   14.71
     83.2520	   23.00	   18.79	 -295.37	   14.71
     83.2854	   13.00	   18.79	 -305.36	   14.71
     83.3188	   16.00	   18.78	 -302.35	   14.71
     83.3522	   23.00	   18.77	 -295.35	   14.70
     83.3856	   15.00	   18.77	 -303.34	   14.70
     83.4191	   20.00	   18.76	 -298.34	   14.70
     83.4525	   23.00	   18.76	 -295.33	   14.70
     83.4859	   35.00	   18.75	 -283.32	   14.69
     83.5193	   20.00	   18.75	 -298.32	   14.69
     83.5528	   21.00	   18.74	 -297.31	   14.69
     83.5862	   27.00	   18.74	 -291.31	   14.69
     83.6196	   20.00	   18.76	 -298.34	   14.68
     83.6530	   11.00	   18.76	 -307.33	   14.68
     83.6864	   22.00	   18.75	 -296.33	   14.68
     83.7199	   18.00	   18.75	 -300.32	   14.68
     83.7533	   21.00	   18.75	 -297.32	   14.67
     83.7867	   26.00	   18.74	 -292.32	   14.67
     83.8201	   17.00	   18.74	 -301.31	   14.67
     83.8536	   28.00	   18.73	 -290.31	   14.67
     83.8870	   15.00	   18.75	 -303.32	   14.66
     83.9204	   20.00	   18.74	 -298.32	   14.66
     83.9538	   21.00	   18.74	 -297.31	   14.66
     83.9873	   15.00	   18.73	 -303.31	   14.66
     84.0207	   28.00	   18.73	 -290.31	   14.65
     84.0541	   16.00	   18.73	 -302.30	   14.65
     84.0875	   15.00	   18.72	 -303.30	   14.65
     84.1209	   16.00	   18.72	 -302.30	   14.65
     84.1544	   16.00	   18.72	 -302.29	   14.64
     84.1878	   28.00	   18.72	 -290.29	   14.64
     84.2212	   17.00	   18.71	 -301.29	   14.64
     84.2546	   17.00	   18.71	 -301.28	   14.63
     84.2880	   17.00	   18.71	 -301.28	   14.63
     84.3215	   21.00	   18.70	 -297.28	   14.63
     84.3549	   20.00	   18.70	 -298.27	   14.63
     84.3883	   23.00	   18.70	 -295.27	   14.62
     84.4217	   22.00	   18.70	 -296.27	   14.62
     84.4552	   15.00	   18.69	 -303.27	   14.62
     84.4886	   27.00	   18.69	 -291.26	   14.62
     84.5220	   17.00	   18.69	 -301.26	   14.61
     84.5554	   20.00	   18.69	 -298.26	   14.61
     84.5889	   18.00	   18.68	 -300.26	   14.61
     84.6223	   15.00	   18.68	 -303.25	   14.61
     84.6557	   21.00	   18.68	 -297.25	   14.60
     84.6891	   32.00	   18.68	 -286.25	   14.60
     84.7225	   15.00	   18.67	 -303.25	   14.60
     84.7560	   15.00	   18.67	 -303.24	   14.60
     84.7894	   26.00	   18.67	 -292.24	   14.59
     84.8228	   15.00	   18.67	 -303.24	   14.59
     84.8562	   15.00	   18.66	 -303.24	   14.59
     84.8897	   26.00	   18.66	 -292.24	   14.59
     84.9231	   20.00	   18.66	 -298.23	   14.58
     84.9565	   25.00	   18.66	 -293.23	   14.58
     84.9899	   12.00	   18.66	 -306.23	   14.58
     85.0233	   30.00	   18.65	 -288.23	   14.58
     85.0568	   16.00	   18.65	 -302.23	   14.57
     85.0902	   16.00	   18.65	 -302.22	   14.57
     85.1236	   18.00	   18.65	 -300.22	   14.57
     85.1570	   16.00	   18.65	 -302.22	   14.57
     85.1905	   17.00	   18.64	 -301.22	   14.56
     85.2239	   18.00	   18.64	 -300.22	   14.56
     85.2573	   21.00	   18.64	 -297.22	   14.56
     85.2907	   21.00	   18.64	 -297.21	   14.56
     85.3242	   25.00	   18.64	 -293.21	   14.55
     85.3576	   17.00	   18.64	 -301.21	   14.55
     85.3910	   21.00	   18.64	 -297.21	   14.55
     85.4244	   18.00	   18.63	 -300.21	   14.55
     85.4578	   15.00	   18.63	 -303.21	   14.54
     85.4913	   23.00	   18.63	 -295.21	   14.54
     85.5247	   22.00	   18.63	 -296.20	   14.54
     85.5581	   18.00	   18.63	 -300.20	   14.54
     85.5915	   20.00	   18.63	 -298.20	   14.53
     85.6250	   23.00	   18.63	 -295.20	   14.53
     85.6584	   13.00	   18.63	 -305.20	   14.53
     85.6918	   21.00	   18.62	 -297.20	   14.53
     85.7252	   13.00	   18.62	 -305.20	   14.52
     85.7586	   16.00	   18.62	 -302.20	   14.52
     85.7921	   11.00	   18.62	 -307.20	   14.52
     85.8255	   20.00	   18.62	 -298.19	   14.51
     85.8589	   11.00	   18.62	 -307.19	   14.51
     85.8923	   18.00	   18.62	 -300.19	   14.51
     85.9258	   16.00	   18.62	 -302.19	   14.51
     85.9592	   21.00	   18.62	 -297.19	   14.50
     85.9926	   17.00	   18.62	 -301.19	   14.50
     86.0260	   17.00	   18.62	 -301.19	   14.50
     86.0594	   20.00	   18.62	 -298.19	   14.50
     86.0929	   16.00	   18.62	 -302.19	   14.49
     86.1263	   11.00	   18.62	 -307.19	   14.49
     86.1597	   16.00	   18.62	 -302.19	   14.49
     86.1931	   16.00	   18.62	 -302.19	   14.49
     86.2266	   16.00	   18.62	 -302.19	   14.48
     86.2600	   22.00	   18.62	 -296.19	   14.48
     86.2934	    7.00	   18.62	 -311.19	   14.48
     86.3268	   11.00	   18.62	 -307.19	   14.48
     86.3602	   22.00	   18.62	 -296.19	   14.47
     86.3937	   12.00	   18.62	 -306.19	   14.47
     86.4271	   16.00	   18.62	 -302.19	   14.47
     86.4605	   12.00	   18.62	 -306.19	   14.47
     86.4939	   23.00	   18.62	 -295.19	   14.46
     86.5274	   27.00	   18.62	 -291.19	   14.46
     86.5608	   23.00	   18.62	 -295.20	   14.46
     86.5942	   16.00	   18.62	 -302.20	   14.46
     86.6276	   27.00	   18.62	 -291.20	   14.45
     86.6610	   20.00	   18.64	 -298.21	   14.45
     86.6945	   21.00	   18.64	 -297.21	   14.45
     86.7279	   15.00	   18.64	 -303.21	   14.45
     86.7613	   15.00	   18.64	 -303.22	   14.44
     86.7947	   21.00	   18.64	 -297.22	   14.44
     86.8282	   20.00	   18.65	 -298.22	   14.44
     86.8616	   22.00	   18.65	 -296.22	   14.44
     86.8950	   20.00	   18.65	 -298.23	   14.43
     86.9284	   22.00	   18.66	 -296.24	   14.43
     86.9619	   30.00	   18.66	 -288.23	   14.43
     86.9953	   13.00	   18.66	 -305.23	   14.43
     87.0287	   16.00	   18.66	 -302.24	   14.42
     87.0621	   20.00	   18.67	 -298.24	   14.42
     87.0955	   28.00	   18.67	 -290.25	   14.42
     87.1290	   38.00	   18.68	 -280.25	   14.42
     87.1624	   13.00	   18.68	 -305.26	   14.41
     87.1958	   20.00	   18.68	 -298.26	   14.41
     87.2292	   31.00	   18.69	 -287.26	   14.41
     87.2627	   20.00	   18.70	 -298.27	   14.41
     87.2961	   12.00	   18.70	 -306.28	   14.40
     87.3295	   12.00	   18.71	 -306.28	   14.40
     87.3629	   17.00	   18.72	 -301.29	   14.40
     87.3963	   25.00	   18.72	 -293.30	   14.39
     87.4298	   27.00	   18.73	 -291.30	   14.39
     87.4632	   17.00	   18.74	 -301.31	   14.39
     87.4966	   18.00	   18.75	 -300.32	   14.39
     87.5300	   23.00	   18.76	 -295.33	   14.38
     87.5635	   18.00	   18.77	 -300.34	   14.38
     87.5969	   15.00	   18.78	 -303.35	   14.38
     87.6303	   18.00	   18.79	 -300.36	   14.38
     87.6637	   17.00	   18.80	 -301.38	   14.37
     87.6972	   13.00	   18.82	 -305.39	   14.37
     87.7306	   15.00	   18.83	 -303.40	   14.37
     87.7640	   12.00	   18.84	 -306.42	   14.37
     87.7974	   16.00	   18.86	 -302.43	   14.36
     87.8308	   13.00	   18.88	 -305.45	   14.36
     87.8643	    8.00	   18.89	 -310.47	   14.36
     87.8977	   27.00	   18.91	 -291.49	   14.36
     87.9311	   16.00	   18.93	 -302.51	   14.35
     87.9645	   11.00	   18.95	 -307.53	   14.35
     87.9979	   20.00	   18.98	 -298.55	   14.35
     88.0314	   22.00	   19.00	 -296.57	   14.35
     88.0648	   15.00	   19.03	 -303.60	   14.34
     88.0982	   18.00	   19.05	 -300.63	   14.34
     88.1316	   30.00	   19.08	 -288.66	   14.34
     88.1651	   17.00	   19.12	 -301.69	   14.34
     88.1985	   20.00	   19.15	 -298.72	   14.33
     88.2319	   25.00	   19.19	 -293.76	   14.33
     88.2653	   27.00	   19.23	 -291.80	   14.33
     88.2988	   23.00	   19.27	 -295.84	   14.33
     88.3322	   20.00	   19.32	 -298.89	   14.32
     88.3656	   18.00	   19.37	 -300.94	   14.32
     88.3990	   17.00	   19.42	 -302.00	   14.32
     88.4324	   25.00	   19.48	 -294.06	   14.32
     88.4659	   23.00	   19.55	 -296.12	   14.31
     88.4993	   22.00	   19.62	 -297.19	   14.31
     88.5327	   17.00	   19.70	 -302.27	   14.31
     88.5661	   20.00	   19.78	 -299.36	   14.31
     88.5996	   18.00	   19.88	 -301.45	   14.30
     88.6330	   20.00	   19.98	 -299.56	   14.30
     88.6664	   26.00	   20.10	 -293.67	   14.30
     88.6998	   27.00	   20.23	 -292.80	   14.30
     88.7332	   18.00	   20.37	 -301.94	   14.29
     88.7667	   16.00	   20.53	 -304.10	   14.29
     88.8001	   15.00	   20.71	 -305.28	   14.29
     88.8335	   22.00	   20.91	 -298.48	   14.28
     88.8669	   20.00	   21.14	 -300.71	   14.28
     88.9004	   21.00	   21.40	 -299.98	   14.28
     88.9338	   27.00	   21.70	 -294.28	   14.28
     88.9672	   23.00	   22.05	 -298.62	   14.27
     89.0006	   22.00	   22.45	 -300.03	   14.27
     89.0340	   30.00	   22.96	 -292.53	   14.27
     89.0675	   27.00	   23.52	 -296.09	   14.27
     89.1009	   33.00	   24.19	 -290.76	   14.26
     89.1343	   32.00	   25.01	 -292.59	   14.26
     89.1677	   21.00	   26.04	 -304.62	   14.26
     89.2012	   30.00	   27.37	 -296.94	   14.26
     89.2346	   32.00	   29.12	 -296.70	   14.25
     89.2680	   32.00	   31.49	 -299.07	   14.25
     89.3014	   27.00	   34.74	 -307.31	   14.25
     89.3349	   30.00	   39.17	 -308.74	   14.25
     89.3683	   38.00	   45.07	 -306.64	   14.24
     89.4017	   28.00	   52.70	 -324.28	   14.24
     89.4351	   40.00	   62.16	 -321.73	   14.24
     89.4685	   48.00	   73.07	 -324.64	   14.24
     89.5020	   59.00	   84.22	 -324.79	   14.23
     89.5354	   90.00	   93.18	 -302.75	   14.23
     89.5688	   75.00	   97.07	 -321.65	   14.23
     89.6022	   61.00	   94.86	 -333.44	   14.23
     89.6357	   57.00	   88.52	 -331.09	   14.22
     89.6691	   46.00	   81.22	 -334.80	   14.22
     89.7025	   41.00	   75.27	 -333.84	   14.22
     89.7359	   37.00	   71.57	 -334.14	   14.22
     89.7693	   59.00	   69.96	 -310.53	   14.21
     89.8028	   50.00	   69.32	 -318.89	   14.21
     89.8362	   56.00	   67.89	 -311.46	   14.21
     89.8696	   50.00	   64.30	 -313.87	   14.21
     89.9030	   61.00	   58.61	 -297.19	   14.20
     89.9365	   32.00	   52.02	 -319.60	   14.20
     89.9699	   31.00	   45.69	 -314.26	   14.20
     90.0033	   18.00	   40.20	 -321.77	   14.20
     90.0367	   40.00	   35.73	 -295.31	   14.19
     90.0701	   31.00	   32.25	 -300.82	   14.19
     90.1036	   35.00	   29.59	 -294.16	   14.19
     90.1370	   22.00	   27.59	 -305.17	   14.19
     90.1704	   20.00	   26.10	 -305.67	   14.18
     90.2038	   16.00	   24.97	 -308.54	   14.18
     90.2373	   27.00	   24.09	 -296.66	   14.18
     90.2707	   22.00	   23.39	 -300.97	   14.18
     90.3041	   35.00	   22.83	 -287.40	   14.17
     90.3375	   23.00	   22.36	 -298.93	   14.17
     90.3709	   18.00	   21.96	 -303.54	   14.17
     90.4044	   27.00	   21.62	 -294.20	   14.16
     90.4378	   30.00	   21.33	 -290.90	   14.16
     90.4712	   23.00	   21.08	 -297.65	   14.16
     90.5046	   25.00	   20.85	 -295.43	   14.16
     90.5381	   17.00	   20.66	 -303.23	   14.15
     90.5715	   20.00	   20.48	 -300.06	   14.15
     90.6049	   22.00	   20.33	 -297.91	   14.15
     90.6383	   23.00	   20.19	 -296.77	   14.15
     90.6718	   23.00	   20.07	 -296.65	   14.14
     90.7052	   23.00	   19.96	 -296.54	   14.14
     90.7386	   15.00	   19.86	 -304.44	   14.14
     90.7720	   27.00	   19.77	 -292.35	   14.14
     90.8054	   18.00	   19.69	 -301.27	   14.13
     90.8389	   18.00	   19.62	 -301.19	   14.13
     90.8723	   22.00	   19.55	 -297.13	   14.13
     90.9057	   26.00	   19.49	 -293.07	   14.13
     90.9391	   18.00	   19.44	 -301.01	   14.12
     90.9726	   22.00	   19.39	 -296.96	   14.12
     91.0060	    8.00	   19.34	 -310.92	   14.12
     91.0394	   22.00	   19.30	 -296.87	   14.12
     91.0728	   21.00	   19.26	 -297.84	   14.11
     91.1062	   22.00	   19.23	 -296.80	   14.11
     91.1397	   30.00	   19.20	 -288.77	   14.11
     91.1731	   35.00	   19.17	 -283.74	   14.11
     91.2065	   22.00	   19.15	 -296.72	   14.10
     91.2399	   10.00	   19.12	 -308.70	   14.10
     91.2734	   25.00	   19.10	 -293.68	   14.10
     91.3068	   27.00	   19.09	 -291.66	   14.10
     91.3402	   20.00	   19.07	 -298.65	   14.09
     91.3736	   23.00	   19.06	 -295.64	   14.09
     91.4071	   18.00	   19.05	 -300.63	   14.09
     91.4405	   17.00	   19.05	 -301.62	   14.09
     91.4739	   25.00	   19.04	 -293.61	   14.08
     91.5073	   21.00	   19.04	 -297.61	   14.08
     91.5407	   20.00	   19.04	 -298.61	   14.08
     91.5742	   17.00	   19.04	 -301.61	   14.08
     91.6076	   13.00	   19.04	 -305.62	   14.07
     91.6410	   22.00	   19.05	 -296.63	   14.07
     91.6744	   25.00	   19.06	 -293.64	   14.07
     91.7079	   20.00	   19.08	 -298.65	   14.07
     91.7413	   25.00	   19.09	 -293.67	   14.06
     91.7747	   30.00	   19.11	 -288.69	   14.06
     91.8081	   13.00	   19.14	 -305.71	   14.06
     91.8415	   18.00	   19.17	 -300.74	   14.06
     91.8750	   20.00	   19.20	 -298.78	   14.05
     91.9084	   18.00	   19.24	 -300.82	   14.05
     91.9418	   17.00	   19.29	 -301.86	   14.05
     91.9752	   26.00	   19.34	 -292.91	   14.04
     92.0087	   23.00	   19.40	 -295.98	   14.04
     92.0421	   30.00	   19.47	 -289.05	   14.04
     92.0755	   25.00	   19.55	 -294.13	   14.04
     92.1089	   12.00	   19.65	 -307.22	   14.03
     92.1423	   13.00	   19.78	 -306.35	   14.03
     92.1758	   16.00	   19.91	 -303.48	   14.03
     92.2092	   33.00	   20.06	 -286.64	   14.03
     92.2426	   18.00	   20.25	 -301.82	   14.02
     92.2760	   25.00	   20.47	 -295.04	   14.02
     92.3095	   18.00	   20.74	 -302.31	   14.02
     92.3429	   28.00	   21.08	 -292.65	   14.02
     92.3763	   32.00	   21.51	 -289.09	   14.01
     92.4097	   16.00	   22.09	 -305.66	   14.01
     92.4431	   13.00	   22.87	 -309.44	   14.01
     92.4766	   25.00	   23.91	 -298.49	   14.01
     92.5100	   23.00	   25.33	 -301.90	   14.00
     92.5434	   28.00	   27.21	 -298.78	   14.00
     92.5768	   21.00	   29.63	 -308.21	   14.00
     92.6103	   27.00	   32.64	 -305.21	   14.00
     92.6437	   28.00	   36.13	 -307.70	   13.99
     92.6771	   27.00	   39.79	 -312.37	   13.99
     92.7105	   36.00	   42.93	 -306.50	   13.99
     92.7439	   42.00	   44.63	 -302.20	   13.99
     92.7774	   33.00	   44.36	 -310.94	   13.98
     92.8108	   21.00	   42.52	 -321.09	   13.98
     92.8442	   23.00	   40.07	 -316.64	   13.98
     92.8776	   32.00	   37.85	 -305.42	   13.98
     92.9111	   21.00	   36.30	 -314.88	   13.97
     92.9445	   35.00	   35.51	 -300.08	   13.97
     92.9779	   30.00	   35.28	 -304.86	   13.97
     93.0113	   21.00	   35.18	 -313.75	   13.97
     93.0448	   32.00	   34.64	 -302.21	   13.96
     93.0782	   28.00	   33.34	 -304.91	   13.96
     93.1116	   31.00	   31.43	 -300.00	   13.96
     93.1450	   30.00	   29.31	 -298.88	   13.96
     93.1784	   22.00	   27.30	 -304.88	   13.95
     93.2119	   23.00	   25.58	 -302.16	   13.95
     93.2453	   22.00	   24.19	 -301.76	   13.95
     93.2787	   23.00	   23.10	 -299.67	   13.95
     93.3121	   16.00	   22.26	 -305.84	   13.94
     93.3456	   13.00	   21.63	 -308.21	   13.94
     93.3790	   16.00	   21.16	 -304.74	   13.94
     93.4124	   28.00	   20.81	 -292.38	   13.94
     93.4458	   22.00	   20.54	 -298.11	   13.93
     93.4792	   21.00	   20.32	 -298.90	   13.93
     93.5127	   16.00	   20.15	 -303.73	   13.93
     93.5461	   16.00	   20.02	 -303.59	   13.92
     93.5795	   35.00	   19.90	 -284.48	   13.92
     93.6129	   23.00	   19.81	 -296.38	   13.92
     93.6464	   22.00	   19.73	 -297.31	   13.92
     93.6798	   26.00	   19.67	 -293.25	   13.91
     93.7132	   22.00	   19.62	 -297.20	   13.91
     93.7466	   20.00	   19.58	 -299.16	   13.91
     93.7801	   22.00	   19.55	 -297.13	   13.91
     93.8135	   15.00	   19.53	 -304.11	   13.90
     93.8469	   15.00	   19.52	 -304.09	   13.90
     93.8803	   20.00	   19.51	 -299.09	   13.90
     93.9137	   17.00	   19.51	 -302.09	   13.90
     93.9472	   32.00	   19.52	 -287.10	   13.89
     93.9806	   23.00	   19.54	 -296.11	   13.89
     94.0140	   13.00	   19.56	 -306.13	   13.89
     94.0474	   23.00	   19.59	 -296.16	   13.89
     94.0808	   17.00	   19.62	 -302.19	   13.88
     94.1143	   16.00	   19.66	 -303.24	   13.88
     94.1477	   25.00	   19.71	 -294.28	   13.88
     94.1811	   21.00	   19.77	 -298.34	   13.88
     94.2145	   26.00	   19.83	 -293.41	   13.87
     94.2480	   21.00	   19.91	 -298.48	   13.87
     94.2814	   21.00	   19.99	 -298.57	   13.87
     94.3148	   20.00	   20.09	 -299.66	   13.87
     94.3482	   21.00	   20.20	 -298.77	   13.86
     94.3817	   23.00	   20.32	 -296.90	   13.86
     94.4151	   26.00	   20.46	 -294.04	   13.86
     94.4485	   17.00	   20.62	 -303.19	   13.86
     94.4819	   21.00	   20.80	 -299.37	   13.85
     94.5153	   27.00	   21.00	 -293.57	   13.85
     94.5488	   35.00	   21.23	 -285.81	   13.85
     94.5822	   32.00	   21.50	 -289.07	   13.85
     94.6156	   25.00	   21.80	 -296.37	   13.84
     94.6490	   28.00	   22.15	 -293.73	   13.84
     94.6825	   23.00	   22.56	 -299.13	   13.84
     94.7159	   28.00	   23.04	 -294.61	   13.84
     94.7493	   26.00	   23.60	 -297.18	   13.83
     94.7827	   31.00	   24.28	 -292.85	   13.83
     94.8161	   41.00	   25.10	 -283.68	   13.83
     94.8496	   31.00	   26.13	 -294.70	   13.83
     94.8830	   28.00	   27.44	 -299.01	   13.82
     94.9164	   25.00	   29.15	 -303.73	   13.82
     94.9498	   20.00	   31.44	 -311.02	   13.82
     94.9833	   37.00	   34.52	 -297.10	   13.82
     95.0167	   27.00	   38.66	 -311.23	   13.81
     95.0501	   42.00	   44.13	 -301.71	   13.81
     95.0835	   41.00	   51.18	 -309.76	   13.81
     95.1170	   36.00	   59.93	 -323.51	   13.80
     95.1504	   36.00	   70.19	 -333.77	   13.80
     95.1838	   45.00	   81.18	 -335.75	   13.80
     95.2172	   77.00	   91.11	 -313.68	   13.80
     95.2506	   91.00	   97.38	 -305.95	   13.79
     95.2841	   94.00	   97.98	 -303.56	   13.79
     95.3175	   75.00	   93.36	 -317.94	   13.79
     95.3509	   61.00	   86.08	 -324.66	   13.79
     95.3843	   50.00	   78.83	 -328.41	   13.78
     95.4178	   45.00	   73.25	 -327.83	   13.78
     95.4512	   42.00	   69.94	 -327.52	   13.78
     95.4846	   45.00	   68.71	 -323.28	   13.78
     95.5180	   54.00	   68.64	 -314.21	   13.77
     95.5514	   54.00	   68.20	 -313.78	   13.77
     95.5849	   54.00	   65.98	 -311.55	   13.77
     95.6183	   43.00	   61.46	 -318.04	   13.77
     95.6517	   36.00	   55.46	 -319.03	   13.76
     95.6851	   28.00	   49.15	 -320.72	   13.76
     95.7186	   20.00	   43.35	 -322.93	   13.76
     95.7520	   27.00	   38.43	 -311.00	   13.76
     95.7854	   27.00	   34.44	 -307.01	   13.75
     95.8188	   36.00	   31.29	 -294.87	   13.75
     95.8522	   27.00	   28.89	 -301.47	   13.75
     95.8857	   31.00	   27.07	 -295.64	   13.75
     95.9191	   23.00	   25.68	 -302.25	   13.74
     95.9525	   16.00	   24.61	 -308.19	   13.74
     95.9859	   16.00	   23.78	 -307.35	   13.74
     96.0194	   27.00	   23.10	 -295.68	   13.74
     96.0528	   13.00	   22.55	 -309.13	   13.73
     96.0862	   25.00	   22.09	 -296.66	   13.73
     96.1196	   17.00	   21.70	 -304.27	   13.73
     96.1531	   23.00	   21.36	 -297.94	   13.73
     96.1865	   35.00	   21.08	 -285.66	   13.72
     96.2199	   22.00	   20.83	 -298.40	   13.72
     96.2533	   23.00	   20.60	 -297.18	   13.72
     96.2867	   26.00	   20.40	 -293.98	   13.72
     96.3202	   18.00	   20.23	 -301.80	   13.71
     96.3536	   21.00	   20.07	 -298.65	   13.71
     96.3870	   22.00	   19.93	 -297.51	   13.71
     96.4204	   25.00	   19.81	 -294.38	   13.71
     96.4538	   23.00	   19.69	 -296.27	   13.70
     96.4873	   23.00	   19.59	 -296.17	   13.70
     96.5207	   21.00	   19.51	 -298.08	   13.70
     96.5541	   30.00	   19.42	 -289.00	   13.70
     96.5875	   20.00	   19.35	 -298.92	   13.69
     96.6210	   32.00	   19.28	 -286.86	   13.69
     96.6544	   28.00	   19.22	 -290.79	   13.69
     96.6878	   25.00	   19.16	 -293.74	   13.68
     96.7212	   25.00	   19.11	 -293.69	   13.68
     96.7547	   11.00	   19.07	 -307.64	   13.68
     96.7881	   26.00	   19.03	 -292.60	   13.68
     96.8215	   20.00	   18.99	 -298.56	   13.67
     96.8549	   13.00	   18.95	 -305.53	   13.67
     96.8883	   22.00	   18.92	 -296.50	   13.67
     96.9218	   22.00	   18.90	 -296.47	   13.67
     96.9552	   22.00	   18.87	 -296.45	   13.66
     96.9886	   17.00	   18.85	 -301.43	   13.66
     97.0220	   25.00	   18.84	 -293.41	   13.66
     97.0555	   27.00	   18.82	 -291.40	   13.66
     97.0889	   18.00	   18.81	 -300.39	   13.65
     97.1223	   23.00	   18.80	 -295.38	   13.65
     97.1557	   27.00	   18.80	 -291.37	   13.65
     97.1891	   25.00	   18.80	 -293.37	   13.65
     97.2226	   16.00	   18.80	 -302.37	   13.64
     97.2560	   16.00	   18.80	 -302.37	   13.64
     97.2894	   27.00	   18.83	 -291.40	   13.64
     97.3228	   13.00	   18.84	 -305.41	   13.64
     97.3563	   20.00	   18.85	 -298.42	   13.63
     97.3897	   17.00	   18.87	 -301.44	   13.63
     97.4231	   23.00	   18.89	 -295.46	   13.63
     97.4565	   20.00	   18.91	 -298.49	   13.63
     97.4900	   28.00	   18.94	 -290.51	   13.62
     97.5234	   21.00	   18.97	 -297.55	   13.62
     97.5568	   16.00	   19.01	 -302.59	   13.62
     97.5902	   21.00	   19.06	 -297.63	   13.62
     97.6236	   25.00	   19.12	 -293.69	   13.61
     97.6571	   20.00	   19.18	 -298.75	   13.61
     97.6905	   23.00	   19.25	 -295.82	   13.61
     97.7239	   31.00	   19.32	 -287.89	   13.61
     97.7573	   22.00	   19.41	 -296.98	   13.60
     97.7908	   28.00	   19.51	 -291.08	   13.60
     97.8242	    5.00	   19.62	 -314.19	   13.60
     97.8576	   13.00	   19.75	 -306.32	   13.60
     97.8910	   11.00	   19.90	 -308.47	   13.59
     97.9244	   26.00	   20.07	 -293.64	   13.59
     97.9579	   22.00	   20.26	 -297.84	   13.59
     97.9913	   26.00	   20.49	 -294.07	   13.59
     98.0247	   23.00	   20.77	 -297.34	   13.58
     98.0581	   13.00	   21.09	 -307.66	   13.58
     98.0916	   23.00	   21.48	 -298.05	   13.58
     98.1250	   30.00	   21.95	 -291.52	   13.58
     98.1584	   26.00	   22.55	 -296.12	   13.57
     98.1918	   25.00	   23.31	 -297.88	   13.57
     98.2253	   22.00	   24.31	 -301.88	   13.57
     98.2587	   30.00	   25.64	 -295.21	   13.56
     98.2921	   30.00	   27.41	 -296.99	   13.56
     98.3255	   23.00	   29.77	 -306.34	   13.56
     98.3589	   17.00	   32.84	 -315.42	   13.56
     98.3924	   17.00	   36.75	 -319.32	   13.55
     98.4258	   27.00	   41.52	 -314.09	   13.55
     98.4592	   33.00	   47.01	 -313.59	   13.55
     98.4926	   33.00	   52.79	 -319.36	   13.55
     98.5260	   42.00	   57.87	 -315.45	   13.54
     98.5595	   69.00	   60.96	 -291.54	   13.54
     98.5929	   59.00	   61.11	 -301.68	   13.54
     98.6263	   38.00	   58.57	 -320.15	   13.54
     98.6597	   37.00	   54.65	 -317.22	   13.53
     98.6932	   36.00	   50.68	 -314.26	   13.53
     98.7266	   21.00	   47.53	 -326.11	   13.53
     98.7600	   32.00	   45.55	 -313.12	   13.53
     98.7934	   20.00	   44.71	 -324.29	   13.52
     98.8269	   36.00	   44.69	 -308.26	   13.52
     98.8603	   33.00	   44.83	 -311.41	   13.52
     98.8937	   46.00	   44.33	 -297.90	   13.52
     98.9271	   37.00	   42.65	 -305.22	   13.51
     98.9605	   35.00	   39.90	 -304.48	   13.51
     98.9940	   30.00	   36.64	 -306.21	   13.51
     99.0274	   18.00	   33.41	 -314.98	   13.51
     99.0608	   20.00	   30.52	 -310.09	   13.50
     99.0942	   30.00	   28.10	 -297.67	   13.50
     99.1277	   16.00	   26.14	 -309.71	   13.50
     99.1611	   30.00	   24.60	 -294.18	   13.50
     99.1945	   30.00	   23.41	 -292.99	   13.49
     99.2279	   27.00	   22.51	 -295.08	   13.49
     99.2613	   13.00	   21.81	 -308.38	   13.49
     99.2948	   26.00	   21.26	 -294.84	   13.49
     99.3282	   25.00	   20.83	 -295.41	   13.48
     99.3616	   22.00	   20.49	 -298.06	   13.48
     99.3950	   21.00	   20.20	 -298.77	   13.48
     99.4285	   27.00	   19.95	 -292.53	   13.48
     99.4619	   16.00	   19.75	 -303.32	   13.47
     99.4953	   21.00	   19.57	 -298.14	   13.47
     99.5287	   22.00	   19.41	 -296.98	   13.47
     99.5621	   25.00	   19.27	 -293.84	   13.47
     99.5956	   16.00	   19.15	 -302.72	   13.46
     99.6290	   21.00	   19.04	 -297.61	   13.46
     99.6624	   16.00	   18.94	 -302.52	   13.46
     99.6958	   26.00	   18.86	 -292.43	   13.46
     99.7293	   22.00	   18.78	 -296.35	   13.45
     99.7627	   26.00	   18.71	 -292.28	   13.45
     99.7961	   15.00	   18.64	 -303.22	   13.45
     99.8295	   20.00	   18.58	 -298.16	   13.44
     99.8630	   18.00	   18.53	 -300.11	   13.44
     99.8964	   21.00	   18.48	 -297.06	   13.44
     99.9298	   20.00	   18.44	 -298.01	   13.44
     99.9632	   13.00	   18.40	 -304.97	   13.43
     99.9966	   23.00	   18.36	 -294.94	   13.43
    100.0301	   25.00	   18.33	 -292.90	   13.43
    100.0635	   28.00	   18.29	 -289.87	   13.43
    100.0969	   23.00	   18.27	 -294.84	   13.42
    100.1303	   15.00	   18.24	 -302.81	   13.42
    100.1638	   25.00	   18.21	 -292.79	   13.42
    100.1972	   21.00	   18.19	 -296.76	   13.42
    100.2306	   27.00	   18.17	 -290.74	   13.41
    100.2640	   23.00	   18.15	 -294.72	   13.41
    100.2974	   25.00	   18.13	 -292.70	   13.41
    100.3309	   17.00	   18.11	 -300.69	   13.41
    100.3643	   27.00	   18.10	 -290.68	   13.40
    100.3977	   20.00	   18.09	 -297.66	   13.40
    100.4311	   25.00	   18.07	 -292.65	   13.40
    100.4646	   15.00	   18.06	 -302.64	   13.40
    100.4980	   28.00	   18.05	 -289.62	   13.39
    100.5314	   20.00	   18.04	 -297.61	   13.39
    100.5648	   15.00	   18.03	 -302.61	   13.39
    100.5982	   18.00	   18.02	 -299.60	   13.39
    100.6317	   26.00	   18.02	 -291.59	   13.38
    100.6651	   22.00	   18.01	 -295.58	   13.38
    100.6985	   23.00	   18.00	 -294.58	   13.38
    100.7319	   16.00	   18.00	 -301.57	   13.38
    100.7654	   17.00	   18.00	 -300.57	   13.37
    100.7988	   12.00	   17.99	 -305.57	   13.37
    100.8322	   18.00	   17.99	 -299.56	   13.37
    100.8656	   18.00	   17.99	 -299.56	   13.37
    100.8990	   23.00	   17.99	 -294.56	   13.36
    100.9325	   22.00	   17.98	 -295.56	   13.36
    100.9659	   11.00	   17.98	 -306.56	   13.36
    100.9993	   21.00	   17.99	 -296.56	   13.36
    101.0327	   16.00	   17.99	 -301.56	   13.35
    101.0662	   22.00	   17.99	 -295.56	   13.35
    101.0996	   20.00	   17.99	 -297.57	   13.35
    101.1330	   18.00	   18.00	 -299.57	   13.35
    101.1664	   20.00	   18.00	 -297.58	   13.34
    101.1999	   15.00	   18.01	 -302.58	   13.34
    101.2333	   18.00	   18.01	 -299.59	   13.34
    101.2667	   22.00	   18.02	 -295.60	   13.33
    101.3001	   13.00	   18.03	 -304.60	   13.33
    101.3335	   13.00	   18.04	 -304.61	   13.33
    101.3670	   18.00	   18.05	 -299.63	   13.33
    101.4004	   23.00	   18.06	 -294.64	   13.32
    101.4338	   20.00	   18.08	 -297.65	   13.32
    101.4672	   21.00	   18.09	 -296.67	   13.32
    101.5007	   12.00	   18.11	 -305.68	   13.32
    101.5341	   16.00	   18.09	 -301.67	   13.31
    101.5675	   12.00	   18.11	 -305.68	   13.31
    101.6009	   17.00	   18.13	 -300.71	   13.31
    101.6343	   31.00	   18.16	 -286.73	   13.31
    101.6678	   20.00	   18.18	 -297.76	   13.30
    101.7012	   20.00	   18.21	 -297.78	   13.30
    101.7346	   10.00	   18.24	 -307.81	   13.30
    101.7680	   15.00	   18.27	 -302.85	   13.30
    101.8015	   20.00	   18.31	 -297.88	   13.29
    101.8349	   16.00	   18.35	 -301.92	   13.29
    101.8683	   28.00	   18.38	 -289.95	   13.29
    101.9017	   31.00	   18.42	 -287.00	   13.29
    101.9352	   23.00	   18.48	 -295.05	   13.28
    101.9686	   15.00	   18.53	 -303.11	   13.28
    102.0020	   25.00	   18.60	 -293.17	   13.28
    102.0354	   21.00	   18.67	 -297.24	   13.28
    102.0688	   21.00	   18.75	 -297.32	   13.27
    102.1023	   21.00	   18.84	 -297.41	   13.27
    102.1357	   21.00	   18.93	 -297.51	   13.27
    102.1691	   23.00	   19.04	 -295.62	   13.27
    102.2025	   30.00	   19.17	 -288.74	   13.26
    102.2360	   23.00	   19.31	 -295.88	   13.26
    102.2694	   30.00	   19.47	 -289.05	   13.26
    102.3028	   16.00	   19.66	 -303.23	   13.26
    102.3362	   28.00	   19.87	 -291.45	   13.25
    102.3696	   20.00	   20.12	 -299.70	   13.25
    102.4031	   15.00	   20.42	 -305.00	   13.25
    102.4365	   20.00	   20.79	 -300.36	   13.25
    102.4699	   13.00	   21.24	 -307.81	   13.24
    102.5033	   28.00	   21.80	 -293.38	   13.24
    102.5368	   18.00	   22.54	 -304.11	   13.24
    102.5702	   18.00	   23.49	 -305.07	   13.24
    102.6036	   23.00	   24.75	 -301.32	   13.23
    102.6370	   26.00	   26.39	 -299.96	   13.23
    102.6704	   23.00	   28.49	 -305.07	   13.23
    102.7039	   28.00	   31.13	 -302.71	   13.23
    102.7373	   28.00	   34.33	 -305.90	   13.22
    102.7707	   27.00	   38.01	 -310.58	   13.22
    102.8041	   28.00	   41.91	 -313.49	   13.22
    102.8376	   32.00	   45.50	 -313.07	   13.21
    102.8710	   36.00	   47.97	 -311.54	   13.21
    102.9044	   57.00	   48.62	 -291.19	   13.21
    102.9378	   42.00	   47.39	 -304.97	   13.21
    102.9712	   30.00	   44.96	 -314.54	   13.20
    103.0047	   26.00	   42.21	 -315.78	   13.20
    103.0381	   28.00	   39.79	 -311.36	   13.20
    103.0715	   25.00	   38.07	 -312.65	   13.20
    103.1049	   33.00	   37.13	 -303.71	   13.19
    103.1384	   25.00	   36.92	 -311.49	   13.19
    103.1718	   35.00	   37.19	 -301.76	   13.19
    103.2052	   27.00	   37.52	 -310.10	   13.19
    103.2386	   47.00	   37.43	 -290.01	   13.18
    103.2720	   36.00	   36.58	 -300.15	   13.18
    103.3055	   38.00	   35.00	 -296.57	   13.18
    103.3389	   37.00	   33.05	 -295.62	   13.18
    103.3723	   21.00	   31.07	 -309.65	   13.17
    103.4057	   25.00	   29.31	 -303.89	   13.17
    103.4392	   17.00	   27.87	 -310.44	   13.17
    103.4726	   35.00	   26.76	 -291.34	   13.17
    103.5060	   40.00	   25.98	 -285.55	   13.16
    103.5394	   28.00	   25.49	 -297.07	   13.16
    103.5729	   26.00	   25.28	 -298.85	   13.16
    103.6063	   26.00	   25.31	 -298.88	   13.16
    103.6397	   23.00	   25.58	 -302.16	   13.15
    103.6731	   30.00	   26.12	 -295.69	   13.15
    103.7065	   17.00	   26.96	 -309.53	   13.15
    103.7400	   32.00	   28.17	 -295.75	   13.15
    103.7734	   28.00	   29.87	 -301.45	   13.14
    103.8068	   18.00	   32.18	 -313.76	   13.14
    103.8402	   30.00	   35.25	 -304.82	   13.14
    103.8737	   27.00	   39.21	 -311.78	   13.14
    103.9071	   31.00	   44.16	 -312.73	   13.13
    103.9405	   17.00	   50.08	 -332.66	   13.13
    103.9739	   25.00	   56.77	 -331.35	   13.13
    104.0073	   38.00	   63.62	 -325.20	   13.13
    104.0408	   48.00	   69.51	 -321.08	   13.12
    104.0742	   51.00	   72.97	 -321.55	   13.12
    104.1076	   54.00	   73.02	 -318.59	   13.12
    104.1410	   56.00	   69.93	 -313.51	   13.12
    104.1745	   40.00	   65.08	 -324.66	   13.11
    104.2079	   28.00	   59.97	 -331.55	   13.11
    104.2413	   27.00	   55.65	 -328.22	   13.11
    104.2747	   23.00	   52.60	 -329.18	   13.11
    104.3082	   37.00	   50.97	 -313.54	   13.10
    104.3416	   27.00	   50.57	 -323.15	   13.10
    104.3750	   30.00	   50.96	 -320.54	   13.10
    104.4084	   41.00	   51.38	 -309.96	   13.09
    104.4418	   51.00	   50.96	 -299.53	   13.09
    104.4753	   38.00	   49.12	 -310.70	   13.09
    104.5087	   36.00	   45.99	 -309.56	   13.09
    104.5421	   38.00	   42.15	 -303.72	   13.08
    104.5755	   37.00	   38.23	 -300.81	   13.08
    104.6089	   33.00	   34.64	 -301.22	   13.08
    104.6424	   31.00	   31.56	 -300.13	   13.08
    104.6758	   23.00	   29.00	 -305.58	   13.07
    104.7092	   17.00	   26.95	 -309.53	   13.07
    104.7426	   20.00	   25.34	 -304.91	   13.07
    104.7761	   32.00	   24.08	 -291.65	   13.07
    104.8095	   25.00	   23.10	 -297.67	   13.06
    104.8429	   22.00	   22.33	 -299.90	   13.06
    104.8763	   22.00	   21.72	 -299.29	   13.06
    104.9098	   20.00	   21.23	 -300.80	   13.06
    104.9432	   18.00	   20.82	 -302.39	   13.05
    104.9766	   17.00	   20.48	 -303.05	   13.05
    105.0100	   30.00	   20.16	 -289.74	   13.05
    105.0434	   18.00	   19.91	 -301.49	   13.05
    105.0769	   16.00	   19.69	 -303.26	   13.04
    105.1103	   20.00	   19.50	 -299.07	   13.04
    105.1437	   23.00	   19.32	 -295.90	   13.04
    105.1771	   17.00	   19.17	 -301.74	   13.04
    105.2106	   16.00	   19.03	 -302.61	   13.03
    105.2440	   25.00	   18.91	 -293.48	   13.03
    105.2774	   25.00	   18.80	 -293.37	   13.03
    105.3108	   31.00	   18.70	 -287.27	   13.03
    105.3442	   18.00	   18.60	 -300.18	   13.02
    105.3777	   17.00	   18.51	 -301.08	   13.02
    105.4111	   20.00	   18.43	 -298.01	   13.02
    105.4445	   20.00	   18.36	 -297.94	   13.02
    105.4779	   16.00	   18.30	 -301.87	   13.01
    105.5114	   20.00	   18.24	 -297.81	   13.01
    105.5448	   17.00	   18.19	 -300.76	   13.01
    105.5782	   20.00	   18.14	 -297.71	   13.01
    105.6116	   22.00	   18.09	 -295.66	   13.00
    105.6451	   21.00	   18.05	 -296.62	   13.00
    105.6785	   20.00	   18.01	 -297.58	   13.00
    105.7119	   16.00	   17.97	 -301.54	   13.00
    105.7453	   20.00	   17.93	 -297.51	   12.99
    105.7787	   21.00	   17.90	 -296.48	   12.99
    105.8122	   30.00	   17.87	 -287.45	   12.99
    105.8456	   15.00	   17.85	 -302.42	   12.99
    105.8790	   23.00	   17.82	 -294.39	   12.98
    105.9124	   17.00	   17.80	 -300.37	   12.98
    105.9459	   22.00	   17.78	 -295.35	   12.98
    105.9793	   17.00	   17.76	 -300.33	   12.97
    106.0127	   22.00	   17.74	 -295.31	   12.97
    106.0461	   20.00	   17.72	 -297.29	   12.97
    106.0795	   22.00	   17.70	 -295.28	   12.97
    106.1130	   21.00	   17.69	 -296.27	   12.96
    106.1464	   15.00	   17.68	 -302.25	   12.96
    106.1798	   13.00	   17.67	 -304.24	   12.96
    106.2132	   17.00	   17.66	 -300.23	   12.96
    106.2467	   13.00	   17.65	 -304.23	   12.95
    106.2801	   23.00	   17.65	 -294.22	   12.95
    106.3135	   16.00	   17.64	 -301.22	   12.95
    106.3469	   20.00	   17.64	 -297.21	   12.95
    106.3803	   18.00	   17.64	 -299.21	   12.94
    106.4138	   12.00	   17.64	 -305.21	   12.94
    106.4472	   22.00	   17.64	 -295.21	   12.94
    106.4806	   17.00	   17.65	 -300.22	   12.94
    106.5140	   13.00	   17.65	 -304.23	   12.93
    106.5475	   11.00	   17.66	 -306.24	   12.93
    106.5809	   23.00	   17.67	 -294.25	   12.93
    106.6143	   21.00	   17.69	 -296.26	   12.93
    106.6477	   27.00	   17.71	 -290.28	   12.92
    106.6812	   20.00	   17.73	 -297.31	   12.92
    106.7146	   30.00	   17.76	 -287.34	   12.92
    106.7480	   18.00	   17.80	 -299.37	   12.92
    106.7814	   23.00	   17.84	 -294.41	   12.91
    106.8148	   18.00	   17.89	 -299.46	   12.91
    106.8483	   16.00	   17.95	 -301.52	   12.91
    106.8817	   21.00	   18.02	 -296.59	   12.91
    106.9151	   15.00	   18.11	 -302.68	   12.90
    106.9485	   18.00	   18.22	 -299.80	   12.90
    106.9819	   35.00	   18.36	 -282.94	   12.90
    107.0154	   20.00	   18.55	 -298.12	   12.90
    107.0488	   21.00	   18.79	 -297.37	   12.89
    107.0822	   22.00	   19.11	 -296.68	   12.89
    107.1156	   21.00	   19.52	 -298.09	   12.89
    107.1491	   22.00	   20.05	 -297.62	   12.89
    107.1825	   22.00	   20.72	 -298.29	   12.88
    107.2159	   23.00	   21.53	 -298.10	   12.88
    107.2493	   26.00	   22.48	 -296.06	   12.88
    107.2828	   16.00	   23.54	 -307.11	   12.88
    107.3162	   28.00	   24.59	 -296.17	   12.87
    107.3496	   25.00	   25.48	 -300.05	   12.87
    107.3830	   22.00	   25.98	 -303.56	   12.87
    107.4164	   18.00	   25.97	 -307.55	   12.87
    107.4499	   12.00	   25.49	 -313.06	   12.86
    107.4833	   20.00	   24.73	 -304.31	   12.86
    107.5167	   23.00	   23.93	 -300.50	   12.86
    107.5501	   21.00	   23.22	 -301.80	   12.85
    107.5836	   26.00	   22.70	 -296.28	   12.85
    107.6170	   27.00	   22.40	 -294.97	   12.85
    107.6504	   25.00	   22.29	 -296.86	   12.85
    107.6838	   10.00	   22.33	 -311.91	   12.84
    107.7172	   20.00	   22.44	 -302.01	   12.84
    107.7507	   22.00	   22.49	 -300.06	   12.84
    107.7841	   26.00	   22.37	 -295.94	   12.84
    107.8175	   17.00	   22.02	 -304.59	   12.83
    107.8509	   33.00	   21.50	 -288.07	   12.83
    107.8844	   17.00	   20.90	 -303.48	   12.83
    107.9178	   22.00	   20.31	 -297.88	   12.83
    107.9512	   17.00	   19.77	 -302.35	   12.82
    107.9846	   18.00	   19.31	 -300.89	   12.82
    108.0181	   26.00	   18.93	 -292.51	   12.82
    108.0515	   10.00	   18.63	 -308.20	   12.82
    108.0849	   17.00	   18.38	 -300.96	   12.81
    108.1183	   23.00	   18.19	 -294.77	   12.81
    108.1517	   16.00	   18.04	 -301.62	   12.81
    108.1852	   18.00	   17.93	 -299.50	   12.81
    108.2186	   12.00	   17.84	 -305.41	   12.80
    108.2520	   26.00	   17.76	 -291.34	   12.80
    108.2854	   15.00	   17.70	 -302.28	   12.80
    108.3189	   22.00	   17.65	 -295.23	   12.80
    108.3523	   13.00	   17.61	 -304.18	   12.79
    108.3857	   22.00	   17.61	 -295.18	   12.79
    108.4191	   26.00	   17.58	 -291.15	   12.79
    108.4525	   25.00	   17.56	 -292.13	   12.79
    108.4860	   20.00	   17.53	 -297.11	   12.78
    108.5194	   18.00	   17.52	 -299.09	   12.78
    108.5528	   21.00	   17.50	 -296.08	   12.78
    108.5862	   20.00	   17.49	 -297.07	   12.78
    108.6197	   17.00	   17.48	 -300.06	   12.77
    108.6531	   22.00	   17.48	 -295.05	   12.77
    108.6865	   22.00	   17.47	 -295.05	   12.77
    108.7199	   31.00	   17.47	 -286.04	   12.77
    108.7533	   20.00	   17.47	 -297.04	   12.76
    108.7868	   20.00	   17.47	 -297.04	   12.76
    108.8202	   12.00	   17.49	 -305.07	   12.76
    108.8536	   26.00	   17.50	 -291.07	   12.76
    108.8870	   10.00	   17.50	 -307.08	   12.75
    108.9205	   13.00	   17.51	 -304.09	   12.75
    108.9539	   21.00	   17.52	 -296.10	   12.75
    108.9873	   10.00	   17.54	 -307.11	   12.75
    109.0207	   11.00	   17.55	 -306.13	   12.74
    109.0541	   20.00	   17.57	 -297.15	   12.74
    109.0876	   13.00	   17.59	 -304.17	   12.74
    109.1210	   28.00	   17.62	 -289.19	   12.73
    109.1544	   13.00	   17.64	 -304.22	   12.73
    109.1878	   17.00	   17.67	 -300.24	   12.73
    109.2213	   11.00	   17.70	 -306.28	   12.73
    109.2547	   20.00	   17.74	 -297.31	   12.72
    109.2881	   17.00	   17.78	 -300.35	   12.72
    109.3215	   21.00	   17.82	 -296.40	   12.72
    109.3549	   23.00	   17.87	 -294.45	   12.72
    109.3884	   15.00	   17.93	 -302.50	   12.71
    109.4218	   18.00	   17.99	 -299.56	   12.71
    109.4552	   13.00	   18.06	 -304.63	   12.71
    109.4886	   27.00	   18.13	 -290.71	   12.71
    109.5221	   25.00	   18.22	 -292.79	   12.70
    109.5555	   21.00	   18.32	 -296.89	   12.70
    109.5889	   20.00	   18.43	 -298.00	   12.70
    109.6223	   21.00	   18.54	 -297.11	   12.70
    109.6558	   20.00	   18.68	 -298.25	   12.69
    109.6892	   15.00	   18.84	 -303.41	   12.69
    109.7226	   22.00	   19.02	 -296.60	   12.69
    109.7560	   21.00	   19.24	 -297.81	   12.69
    109.7894	   23.00	   19.49	 -296.06	   12.68
    109.8229	   20.00	   19.78	 -299.36	   12.68
    109.8563	   15.00	   20.14	 -304.72	   12.68
    109.8897	   20.00	   20.58	 -300.16	   12.68
    109.9231	   16.00	   21.13	 -304.71	   12.67
    109.9566	   15.00	   21.83	 -306.41	   12.67
    109.9900	   20.00	   22.72	 -302.30	   12.67
    110.0234	   26.00	   23.88	 -297.45	   12.67
    110.0568	   27.00	   25.37	 -297.94	   12.66
    110.0902	   28.00	   27.26	 -298.83	   12.66
    110.1237	   25.00	   29.62	 -304.19	   12.66
    110.1571	   20.00	   32.50	 -312.07	   12.66
    110.1905	   21.00	   35.89	 -314.46	   12.65
    110.2239	   32.00	   39.69	 -307.26	   12.65
    110.2574	   27.00	   43.62	 -316.20	   12.65
    110.2908	   38.00	   47.18	 -308.76	   12.65
    110.3242	   43.00	   49.66	 -306.23	   12.64
    110.3576	   52.00	   50.42	 -297.99	   12.64
    110.3911	   18.00	   49.34	 -330.91	   12.64
    110.4245	   37.00	   46.92	 -309.50	   12.64
    110.4579	   40.00	   43.94	 -303.51	   12.63
    110.4913	   23.00	   41.05	 -317.62	   12.63
    110.5247	   26.00	   38.67	 -312.25	   12.63
    110.5582	   35.00	   37.01	 -301.58	   12.63
    110.5916	   25.00	   36.09	 -310.67	   12.62
    110.6250	   36.00	   35.87	 -299.44	   12.62
    110.6584	   27.00	   36.15	 -308.73	   12.62
    110.6919	   27.00	   36.64	 -309.21	   12.61
    110.7253	   37.00	   36.90	 -299.48	   12.61
    110.7587	   37.00	   36.54	 -299.12	   12.61
    110.7921	   31.00	   35.38	 -303.96	   12.61
    110.8255	   31.00	   33.57	 -302.14	   12.60
    110.8590	   20.00	   31.41	 -310.99	   12.60
    110.8924	   18.00	   29.21	 -310.78	   12.60
    110.9258	   32.00	   27.20	 -294.77	   12.60
    110.9592	   32.00	   25.44	 -293.01	   12.59
    110.9927	   17.00	   23.96	 -306.54	   12.59
    111.0261	   18.00	   22.75	 -304.33	   12.59
    111.0595	   21.00	   21.78	 -300.35	   12.59
    111.0929	   26.00	   21.01	 -294.58	   12.58
    111.1263	   16.00	   20.40	 -303.97	   12.58
    111.1598	   26.00	   19.91	 -293.49	   12.58
    111.1932	   22.00	   19.53	 -297.10	   12.58
    111.2266	   18.00	   19.21	 -300.79	   12.57
    111.2600	   17.00	   18.96	 -301.53	   12.57
    111.2935	   13.00	   18.73	 -305.30	   12.57
    111.3269	   16.00	   18.54	 -302.12	   12.57
    111.3603	   20.00	   18.39	 -297.96	   12.56
    111.3937	   22.00	   18.25	 -295.82	   12.56
    111.4271	   10.00	   18.13	 -307.70	   12.56
    111.4606	    6.00	   18.02	 -311.59	   12.56
    111.4940	   17.00	   17.92	 -300.50	   12.55
    111.5274	   28.00	   17.84	 -289.41	   12.55
    111.5608	   18.00	   17.76	 -299.33	   12.55
    111.5943	   20.00	   17.69	 -297.26	   12.55
    111.6277	   18.00	   17.63	 -299.20	   12.54
    111.6611	   17.00	   17.57	 -300.14	   12.54
    111.6945	   11.00	   17.52	 -306.09	   12.54
    111.7280	   15.00	   17.47	 -302.04	   12.54
    111.7614	   28.00	   17.42	 -289.00	   12.53
    111.7948	   21.00	   17.38	 -295.96	   12.53
    111.8282	   12.00	   17.35	 -304.92	   12.53
    111.8616	   16.00	   17.31	 -300.89	   12.53
    111.8951	   15.00	   17.28	 -301.85	   12.52
    111.9285	   22.00	   17.25	 -294.82	   12.52
    111.9619	   15.00	   17.22	 -301.80	   12.52
    111.9953	   15.00	   17.20	 -301.77	   12.52
    112.0288	   22.00	   17.17	 -294.75	   12.51
    112.0622	   12.00	   17.15	 -304.73	   12.51
    112.0956	   18.00	   17.13	 -298.71	   12.51
    112.1290	   16.00	   17.11	 -300.69	   12.51
    112.1624	   16.00	   17.09	 -300.67	   12.50
    112.1959	   17.00	   17.08	 -299.65	   12.50
    112.2293	   20.00	   17.06	 -296.64	   12.50
    112.2627	   17.00	   17.05	 -299.62	   12.49
    112.2961	   12.00	   17.03	 -304.61	   12.49
    112.3296	   16.00	   17.02	 -300.60	   12.49
    112.3630	   18.00	   17.01	 -298.58	   12.49
    112.3964	   11.00	   17.00	 -305.57	   12.48
    112.4298	   18.00	   16.99	 -298.56	   12.48
    112.4632	   18.00	   16.98	 -298.55	   12.48
    112.4967	   15.00	   16.97	 -301.54	   12.48
    112.5301	   30.00	   16.96	 -286.53	   12.47
    112.5635	   21.00	   16.95	 -295.53	   12.47
    112.5969	    8.00	   16.95	 -308.52	   12.47
    112.6304	   13.00	   16.94	 -303.51	   12.47
    112.6638	   17.00	   16.93	 -299.51	   12.46
    112.6972	   27.00	   16.93	 -289.50	   12.46
    112.7306	   15.00	   16.92	 -301.49	   12.46
    112.7641	   17.00	   16.92	 -299.49	   12.46
    112.7975	   17.00	   16.91	 -299.49	   12.45
    112.8309	   13.00	   16.91	 -303.48	   12.45
    112.8643	   16.00	   16.90	 -300.48	   12.45
    112.8977	   27.00	   16.90	 -289.47	   12.45
    112.9312	   11.00	   16.90	 -305.47	   12.44
    112.9646	   13.00	   16.89	 -303.47	   12.44
    112.9980	   23.00	   16.89	 -293.47	   12.44
    113.0314	   16.00	   16.89	 -300.47	   12.44
    113.0648	   17.00	   16.91	 -299.48	   12.43
    113.0983	   18.00	   16.91	 -298.48	   12.43
    113.1317	   21.00	   16.91	 -295.48	   12.43
    113.1651	   20.00	   16.91	 -296.48	   12.43
    113.1985	   18.00	   16.91	 -298.48	   12.42
    113.2320	   10.00	   16.91	 -306.48	   12.42
    113.2654	   22.00	   16.91	 -294.48	   12.42
    113.2988	   25.00	   16.91	 -291.49	   12.42
    113.3322	   13.00	   16.91	 -303.49	   12.41
    113.3657	   18.00	   16.92	 -298.49	   12.41
    113.3991	   17.00	   16.92	 -299.49	   12.41
    113.4325	   15.00	   16.92	 -301.49	   12.41
    113.4659	   15.00	   16.92	 -301.50	   12.40
    113.4993	   26.00	   16.93	 -290.50	   12.40
    113.5328	   11.00	   16.94	 -305.52	   12.40
    113.5662	   26.00	   16.95	 -290.52	   12.40
    113.5996	   22.00	   16.95	 -294.53	   12.39
    113.6330	   13.00	   16.96	 -303.53	   12.39
    113.6665	    8.00	   16.96	 -308.54	   12.39
    113.6999	   17.00	   16.97	 -299.54	   12.38
    113.7333	   12.00	   16.98	 -304.55	   12.38
    113.7667	   21.00	   16.99	 -295.56	   12.38
    113.8001	   20.00	   16.99	 -296.57	   12.38
    113.8336	   16.00	   17.00	 -300.58	   12.37
    113.8670	   13.00	   17.01	 -303.59	   12.37
    113.9004	   11.00	   17.02	 -305.60	   12.37
    113.9338	   16.00	   17.03	 -300.61	   12.37
    113.9673	   10.00	   17.04	 -306.62	   12.36
    114.0007	   22.00	   17.06	 -294.63	   12.36
    114.0341	   21.00	   17.07	 -295.64	   12.36
    114.0675	   21.00	   17.08	 -295.66	   12.36
    114.1010	   20.00	   17.10	 -296.67	   12.35
    114.1344	   20.00	   17.11	 -296.69	   12.35
    114.1678	   21.00	   17.13	 -295.70	   12.35
    114.2012	   13.00	   17.15	 -303.72	   12.35
    114.2346	   11.00	   17.17	 -305.74	   12.34
    114.2681	   20.00	   17.19	 -296.76	   12.34
    114.3015	   16.00	   17.21	 -300.78	   12.34
    114.3349	   22.00	   17.23	 -294.80	   12.34
    114.3683	   20.00	   17.25	 -296.83	   12.33
    114.4018	   22.00	   17.28	 -294.85	   12.33
    114.4352	   23.00	   17.31	 -293.88	   12.33
    114.4686	   13.00	   17.33	 -303.90	   12.33
    114.5020	   22.00	   17.36	 -294.93	   12.32
    114.5354	   21.00	   17.39	 -295.97	   12.32
    114.5689	   25.00	   17.43	 -292.00	   12.32
    114.6023	   23.00	   17.46	 -294.04	   12.32
    114.6357	   27.00	   17.50	 -290.08	   12.31
    114.6691	   12.00	   17.54	 -305.12	   12.31
    114.7026	   13.00	   17.59	 -304.16	   12.31
    114.7360	   12.00	   17.63	 -305.21	   12.31
    114.7694	   25.00	   17.68	 -292.26	   12.30
    114.8028	   17.00	   17.74	 -300.31	   12.30
    114.8363	   16.00	   17.80	 -301.37	   12.30
    114.8697	    8.00	   17.86	 -309.43	   12.30
    114.9031	   28.00	   17.92	 -289.50	   12.29
    114.9365	   28.00	   18.00	 -289.57	   12.29
    114.9699	   36.00	   18.07	 -281.65	   12.29
    115.0034	   27.00	   18.16	 -290.73	   12.29
    115.0368	   22.00	   18.25	 -295.82	   12.28
    115.0702	   17.00	   18.34	 -300.92	   12.28
    115.1036	   22.00	   18.45	 -296.02	   12.28
    115.1371	   12.00	   18.57	 -306.14	   12.28
    115.1705	   21.00	   18.69	 -297.27	   12.27
    115.2039	   23.00	   18.83	 -295.40	   12.27
    115.2373	   18.00	   18.98	 -300.55	   12.27
    115.2707	   20.00	   19.15	 -298.72	   12.26
    115.3042	   12.00	   19.33	 -306.90	   12.26
    115.3376	   12.00	   19.53	 -307.10	   12.26
    115.3710	   23.00	   19.75	 -296.32	   12.26
    115.4044	   25.00	   20.00	 -294.57	   12.25
    115.4379	   20.00	   20.27	 -299.85	   12.25
    115.4713	   35.00	   20.58	 -285.15	   12.25
    115.5047	   27.00	   20.93	 -293.50	   12.25
    115.5381	   28.00	   21.32	 -292.89	   12.24
    115.5715	   26.00	   21.77	 -295.34	   12.24
    115.6050	   27.00	   22.28	 -294.85	   12.24
    115.6384	   13.00	   22.87	 -309.44	   12.24
    115.6718	   22.00	   23.56	 -301.14	   12.23
    115.7052	   20.00	   24.39	 -303.96	   12.23
    115.7387	   23.00	   25.38	 -301.96	   12.23
    115.7721	   25.00	   26.60	 -301.18	   12.23
    115.8055	   28.00	   28.12	 -299.69	   12.22
    115.8389	   26.00	   30.02	 -303.60	   12.22
    115.8723	   25.00	   32.43	 -307.01	   12.22
    115.9058	   22.00	   35.48	 -313.05	   12.22
    115.9392	   28.00	   39.31	 -310.88	   12.21
    115.9726	   42.00	   44.05	 -301.63	   12.21
    116.0060	   27.00	   49.84	 -322.41	   12.21
    116.0395	   40.00	   56.72	 -316.29	   12.21
    116.0729	   32.00	   64.65	 -332.22	   12.20
    116.1063	   45.00	   73.37	 -327.95	   12.20
    116.1397	   67.00	   82.29	 -314.87	   12.20
    116.1731	   70.00	   90.37	 -319.95	   12.20
    116.2066	   84.00	   96.19	 -311.76	   12.19
    116.2400	   89.00	   98.47	 -309.04	   12.19
    116.2734	   65.00	   96.77	 -331.35	   12.19
    116.3068	   56.00	   91.85	 -335.42	   12.19
    116.3403	   54.00	   85.16	 -330.73	   12.18
    116.3737	   38.00	   78.14	 -339.72	   12.18
    116.4071	   46.00	   71.84	 -325.42	   12.18
    116.4405	   35.00	   66.84	 -331.42	   12.18
    116.4740	   41.00	   63.40	 -321.97	   12.17
    116.5074	   31.00	   61.55	 -330.12	   12.17
    116.5408	   38.00	   61.15	 -322.73	   12.17
    116.5742	   35.00	   61.91	 -326.48	   12.17
    116.6076	   37.00	   63.28	 -325.86	   12.16
    116.6411	   52.00	   64.53	 -312.11	   12.16
    116.6745	   62.00	   64.81	 -302.39	   12.16
    116.7079	   59.00	   63.48	 -304.06	   12.16
    116.7413	   37.00	   60.45	 -323.02	   12.15
    116.7748	   57.00	   56.16	 -298.73	   12.15
    116.8082	   28.00	   51.28	 -322.85	   12.15
    116.8416	   40.00	   46.39	 -305.97	   12.14
    116.8750	   20.00	   41.86	 -321.44	   12.14
    116.9084	   28.00	   37.86	 -309.44	   12.14
    116.9419	   23.00	   34.45	 -311.02	   12.14
    116.9753	   18.00	   31.60	 -313.17	   12.13
    117.0087	   25.00	   29.27	 -303.84	   12.13
    117.0421	   22.00	   27.37	 -304.95	   12.13
    117.0756	   20.00	   25.85	 -305.43	   12.13
    117.1090	   26.00	   24.63	 -298.21	   12.12
    117.1424	   21.00	   23.64	 -302.22	   12.12
    117.1758	   25.00	   22.84	 -297.41	   12.12
    117.2093	   31.00	   22.17	 -290.75	   12.12
    117.2427	   16.00	   21.62	 -305.19	   12.11
    117.2761	   16.00	   21.14	 -304.72	   12.11
    117.3095	   22.00	   20.73	 -298.31	   12.11
    117.3429	   15.00	   20.38	 -304.95	   12.11
    117.3764	   23.00	   20.06	 -296.64	   12.10
    117.4098	   20.00	   19.78	 -299.36	   12.10
    117.4432	   23.00	   19.54	 -296.11	   12.10
    117.4766	   23.00	   19.31	 -295.89	   12.10
    117.5100	   10.00	   19.11	 -308.69	   12.09
    117.5435	   31.00	   18.93	 -287.51	   12.09
    117.5769	   17.00	   18.77	 -301.34	   12.09
    117.6103	   25.00	   18.62	 -293.19	   12.09
    117.6437	   20.00	   18.47	 -298.04	   12.08
    117.6772	   20.00	   18.34	 -297.91	   12.08
    117.7106	   15.00	   18.23	 -302.80	   12.08
    117.7440	   32.00	   18.12	 -285.69	   12.08
    117.7774	   27.00	   18.02	 -290.60	   12.07
    117.8109	   25.00	   17.93	 -292.51	   12.07
    117.8443	   27.00	   17.85	 -290.42	   12.07
    117.8777	   18.00	   17.77	 -299.34	   12.07
    117.9111	   18.00	   17.70	 -299.27	   12.06
    117.9445	   25.00	   17.63	 -292.21	   12.06
    117.9780	   15.00	   17.57	 -302.14	   12.06
    118.0114	   21.00	   17.51	 -296.08	   12.06
    118.0448	   18.00	   17.46	 -299.03	   12.05
    118.0782	   16.00	   17.40	 -300.98	   12.05
    118.1117	   22.00	   17.35	 -294.92	   12.05
    118.1451	   31.00	   17.30	 -285.88	   12.05
    118.1785	   15.00	   17.26	 -301.84	   12.04
    118.2119	   21.00	   17.22	 -295.80	   12.04
    118.2453	   25.00	   17.19	 -291.76	   12.04
    118.2788	   22.00	   17.15	 -294.72	   12.04
    118.3122	   20.00	   17.12	 -296.69	   12.03
    118.3456	   23.00	   17.09	 -293.66	   12.03
    118.3790	   18.00	   17.06	 -298.63	   12.03
    118.4125	   23.00	   17.03	 -293.60	   12.02
    118.4459	   10.00	   17.00	 -306.58	   12.02
    118.4793	   15.00	   16.98	 -301.55	   12.02
    118.5127	   26.00	   16.96	 -290.53	   12.02
    118.5462	   30.00	   16.93	 -286.51	   12.01
    118.5796	   21.00	   16.91	 -295.49	   12.01
    118.6130	   22.00	   16.90	 -294.47	   12.01
    118.6464	   17.00	   16.88	 -299.45	   12.01
    118.6798	   27.00	   16.86	 -289.43	   12.00
    118.7133	   27.00	   16.84	 -289.42	   12.00
    118.7467	   18.00	   16.83	 -298.40	   12.00
    118.7801	   13.00	   16.82	 -303.39	   12.00
    118.8135	   21.00	   16.80	 -295.38	   11.99
    118.8470	   17.00	   16.79	 -299.36	   11.99
    118.8804	   18.00	   16.78	 -298.35	   11.99
    118.9138	   18.00	   16.77	 -298.34	   11.99
    118.9472	   23.00	   16.76	 -293.33	   11.98
    118.9806	   16.00	   16.75	 -300.32	   11.98
    119.0141	   22.00	   16.74	 -294.32	   11.98
    119.0475	   16.00	   16.73	 -300.31	   11.98
    119.0809	   21.00	   16.73	 -295.30	   11.97
    119.1143	   18.00	   16.72	 -298.30	   11.97
    119.1478	   21.00	   16.72	 -295.29	   11.97
    119.1812	   12.00	   16.71	 -304.29	   11.97
    119.2146	   21.00	   16.71	 -295.28	   11.96
    119.2480	   20.00	   16.71	 -296.28	   11.96
    119.2814	   18.00	   16.70	 -298.28	   11.96
    119.3149	   25.00	   16.70	 -291.28	   11.96
    119.3483	   21.00	   16.70	 -295.28	   11.95
    119.3817	   21.00	   16.70	 -295.28	   11.95
    119.4151	   21.00	   16.71	 -295.28	   11.95
    119.4486	   25.00	   16.71	 -291.28	   11.95
    119.4820	   13.00	   16.71	 -303.28	   11.94
    119.5154	   23.00	   16.71	 -293.29	   11.94
    119.5488	   28.00	   16.72	 -288.29	   11.94
    119.5822	   10.00	   16.72	 -306.30	   11.94
    119.6157	   15.00	   16.73	 -301.30	   11.93
    119.6491	   20.00	   16.74	 -296.31	   11.93
    119.6825	   20.00	   16.75	 -296.32	   11.93
    119.7159	   17.00	   16.76	 -299.33	   11.93
    119.7494	   17.00	   16.77	 -299.34	   11.92
    119.7828	   10.00	   16.78	 -306.35	   11.92
    119.8162	   27.00	   16.79	 -289.37	   11.92
    119.8496	   17.00	   16.81	 -299.38	   11.92
    119.8830	   20.00	   16.83	 -296.40	   11.91
    119.9165	   27.00	   16.84	 -289.42	   11.91
    119.9499	   31.00	   16.86	 -285.44	   11.91
    119.9833	   17.00	   16.89	 -299.46	   11.90
     31.7104	        	        	        	        	       0	(  1  0  0)	  0  1
     31.7906	        	        	        	        	       0	(  1  0  0)	  0  2
     34.3616	        	        	        	        	       0	(  0  0  2)	  0  1
     34.4490	        	        	        	        	       0	(  0  0  2)	  0  2
     36.1955	        	        	        	        	       0	(  1  0  1)	  0  1
     36.2878	        	        	        	        	       0	(  1  0  1)	  0  2
     47.4819	        	        	        	        	       0	(  1  0  2)	  0  1
     47.6061	        	        	        	        	       0	(  1  0  2)	  0  2
     56.5414	        	        	        	        	       0	(  1  1  0)	  0  1
     56.6932	        	        	        	        	       0	(  1  1  0)	  0  2
     62.8015	        	        	        	        	       0	(  1  0  3)	  0  1
     62.9739	        	        	        	        	       0	(  1  0  3)	  0  2
     66.3243	        	        	        	        	       0	(  2  0  0)	  0  1
     66.5089	        	        	        	        	       0	(  2  0  0)	  0  2
     67.8952	        	        	        	        	       0	(  1  1  2)	  0  1
     68.0853	        	        	        	        	       0	(  1  1  2)	  0  2
     69.0352	        	        	        	        	       0	(  2  0  1)	  0  1
     69.2294	        	        	        	        	       0	(  2  0  1)	  0  2
     72.5109	        	        	        	        	       0	(  0  0  4)	  0  1
     72.7181	        	        	        	        	       0	(  0  0  4)	  0  2
     76.9097	        	        	        	        	       0	(  2  0  2)	  0  1
     77.1340	        	        	        	        	       0	(  2  0  2)	  0  2
     81.3328	        	        	        	        	       0	(  1  0  4)	  0  1
     81.5755	        	        	        	        	       0	(  1  0  4)	  0  2
     89.5648	        	        	        	        	       0	(  2  0  3)	  0  1
     89.8453	        	        	        	        	       0	(  2  0  3)	  0  2
     92.7484	        	        	        	        	       0	(  2  1  0)	  0  1
     93.0449	        	        	        	        	       0	(  2  1  0)	  0  2
     95.2635	        	        	        	        	       0	(  2  1  1)	  0  1
     95.5733	        	        	        	        	       0	(  2  1  1)	  0  2
     98.5709	        	        	        	        	       0	(  1  1  4)	  0  1
     98.8994	        	        	        	        	       0	(  1  1  4)	  0  2
    102.8914	        	        	        	        	       0	(  2  1  2)	  0  1
    103.2462	        	        	        	        	       0	(  2  1  2)	  0  2
    104.0855	        	        	        	        	       0	(  1  0  5)	  0  1
    104.4480	        	        	        	        	       0	(  1  0  5)	  0  2
    107.3931	        	        	        	        	       0	(  2  0  4)	  0  1
    107.7781	        	        	        	        	       0	(  2  0  4)	  0  2
    110.3484	        	        	        	        	       0	(  3  0  0)	  0  1
    110.7551	        	        	        	        	       0	(  3  0  0)	  0  2
    113.0494	        	        	        	        	       0	(  3  0  1)	  0  1
    113.4774	        	        	        	        	       0	(  3  0  1)	  0  2
    116.2365	        	        	        	        	       0	(  2  1  3)	  0  1
    116.6917	        	        	        	        	       0	(  2  1  3)	  0  2
    121.5284	        	        	        	        	       0	(  3  0  2)	  0  1
    122.0346	        	        	        	        	       0	(  3  0  2)	  0  2
    125.1155	        	        	        	        	       0	(  0  0  6)	  0  1
    125.6615	        	        	        	        	       0	(  0  0  6)	  0  2
    133.8779	        	        	        	        	       0	(  2  0  5)	  0  1
    134.5453	        	        	        	        	       0	(  2  0  5)	  0  2
