 ZnO   Chi2:  1.5926  CELL:    3.24998   3.24998   5.20703   90.0000   90.0000  120.0000   SPGR: P 63 m c               TEMP:      0.00
  1   2992     1.54060     1.54439     0.00000    -0.01330     0.00000    0
    48     0     1
       0.00000      15.00000
 2Theta	Yobs	Ycal	Yobs-Ycal	Backg	Posr	(hkl)	K
     20.0165	   16.00	   24.51	 -505.01	   18.48
     20.0499	   25.00	   24.51	 -496.01	   18.48
     20.0834	   27.00	   24.51	 -494.01	   18.48
     20.1168	   20.00	   24.51	 -501.01	   18.48
     20.1502	   16.00	   24.51	 -505.01	   18.48
     20.1836	   17.00	   24.51	 -504.01	   18.48
     20.2170	   20.00	   24.51	 -501.01	   18.48
     20.2505	   20.00	   24.51	 -501.01	   18.48
     20.2839	   20.00	   24.51	 -501.01	   18.48
     20.3173	   16.00	   24.51	 -505.01	   18.48
     20.3507	   27.00	   24.51	 -494.01	   18.47
     20.3842	   18.00	   24.51	 -503.01	   18.47
     20.4176	   22.00	   24.51	 -499.01	   18.47
     20.4510	   12.00	   24.51	 -509.01	   18.47
     20.4844	   23.00	   24.51	 -498.01	   18.47
     20.5179	   16.00	   24.51	 -505.01	   18.47
     20.5513	   27.00	   24.51	 -494.01	   18.47
     20.5847	   17.00	   24.51	 -504.01	   18.47
     20.6181	   21.00	   24.51	 -500.01	   18.47
     20.6515	   17.00	   24.51	 -504.01	   18.47
     20.6850	   17.00	   24.51	 -504.01	   18.47
     20.7184	   16.00	   24.51	 -505.01	   18.47
     20.7518	   20.00	   24.51	 -501.01	   18.47
     20.7852	   25.00	   24.51	 -496.01	   18.47
     20.8187	   20.00	   24.51	 -501.01	   18.47
     20.8521	   13.00	   24.51	 -508.01	   18.47
     20.8855	   16.00	   24.51	 -505.01	   18.47
     20.9189	   15.00	   24.51	 -506.01	   18.47
     20.9523	   26.00	   24.51	 -495.01	   18.47
     20.9858	   27.00	   24.51	 -494.01	   18.47
     21.0192	   30.00	   24.51	 -491.01	   18.47
     21.0526	   22.00	   24.51	 -499.01	   18.47
     21.0860	   17.00	   24.51	 -504.01	   18.47
     21.1195	   22.00	   24.51	 -499.01	   18.47
     21.1529	   20.00	   24.51	 -501.01	   18.47
     21.1863	   18.00	   24.51	 -503.01	   18.47
     21.2197	   12.00	   24.51	 -509.01	   18.47
     21.2531	   27.00	   24.51	 -494.01	   18.47
     21.2866	   15.00	   24.51	 -506.01	   18.47
     21.3200	   22.00	   24.51	 -499.01	   18.47
     21.3534	   13.00	   24.51	 -508.01	   18.47
     21.3868	   12.00	   24.51	 -509.01	   18.47
     21.4203	   12.00	   24.51	 -509.01	   18.47
     21.4537	   20.00	   24.51	 -501.01	   18.47
     21.4871	   15.00	   24.51	 -506.01	   18.47
     21.5205	   16.00	   24.51	 -505.01	   18.47
     21.5539	   18.00	   24.51	 -503.01	   18.47
     21.5874	   12.00	   24.51	 -509.01	   18.47
     21.6208	   23.00	   24.50	 -498.00	   18.47
     21.6542	   23.00	   24.50	 -498.00	   18.47
     21.6876	   25.00	   24.50	 -496.00	   18.47
     21.7211	   17.00	   24.50	 -504.00	   18.47
     21.7545	   23.00	   24.50	 -498.00	   18.47
     21.7879	   17.00	   24.50	 -504.00	   18.47
     21.8213	   25.00	   24.50	 -496.00	   18.47
     21.8548	   22.00	   24.50	 -499.00	   18.47
     21.8882	   22.00	   24.50	 -499.00	   18.47
     21.9216	   20.00	   24.50	 -501.00	   18.47
     21.9550	   23.00	   24.50	 -498.00	   18.47
     21.9884	   15.00	   24.50	 -506.00	   18.47
     22.0219	   20.00	   24.50	 -501.00	   18.47
     22.0553	   23.00	   24.50	 -498.00	   18.47
     22.0887	   18.00	   24.50	 -503.00	   18.47
     22.1221	   23.00	   24.50	 -498.00	   18.47
     22.1556	   23.00	   24.50	 -498.00	   18.47
     22.1890	   17.00	   24.50	 -504.00	   18.47
     22.2224	   18.00	   24.50	 -503.00	   18.47
     22.2558	   17.00	   24.50	 -504.00	   18.47
     22.2892	   23.00	   24.50	 -498.00	   18.47
     22.3227	   16.00	   24.50	 -505.00	   18.47
     22.3561	   13.00	   24.50	 -508.00	   18.47
     22.3895	   23.00	   24.50	 -498.00	   18.47
     22.4229	   30.00	   24.50	 -491.00	   18.47
     22.4564	   21.00	   24.50	 -500.00	   18.47
     22.4898	   13.00	   24.50	 -508.00	   18.47
     22.5232	   23.00	   24.50	 -498.00	   18.47
     22.5566	   15.00	   24.50	 -506.00	   18.47
     22.5900	   20.00	   24.50	 -501.00	   18.47
     22.6235	   18.00	   24.50	 -503.00	   18.47
     22.6569	   21.00	   24.50	 -500.00	   18.47
     22.6903	   25.00	   24.50	 -496.00	   18.47
     22.7237	   32.00	   24.50	 -489.00	   18.47
     22.7572	   28.00	   24.50	 -493.00	   18.47
     22.7906	   23.00	   24.50	 -498.00	   18.47
     22.8240	   25.00	   24.50	 -496.00	   18.47
     22.8574	   13.00	   24.50	 -508.00	   18.47
     22.8909	   18.00	   24.50	 -503.00	   18.47
     22.9243	   15.00	   24.50	 -506.00	   18.47
     22.9577	   21.00	   24.50	 -500.00	   18.47
     22.9911	   16.00	   24.50	 -505.00	   18.47
     23.0245	   26.00	   24.50	 -495.00	   18.47
     23.0580	   21.00	   24.50	 -500.00	   18.46
     23.0914	   20.00	   24.50	 -501.00	   18.46
     23.1248	   35.00	   24.50	 -486.00	   18.46
     23.1582	   13.00	   24.50	 -508.00	   18.46
     23.1917	   23.00	   24.50	 -498.00	   18.46
     23.2251	   16.00	   24.50	 -505.00	   18.46
     23.2585	   28.00	   24.50	 -493.00	   18.46
     23.2919	   17.00	   24.50	 -504.00	   18.46
     23.3253	   22.00	   24.50	 -499.00	   18.46
     23.3588	   21.00	   24.50	 -500.00	   18.46
     23.3922	    8.00	   24.50	 -513.00	   18.46
     23.4256	   20.00	   24.50	 -501.00	   18.46
     23.4590	   20.00	   24.50	 -501.00	   18.46
     23.4925	   21.00	   24.50	 -500.00	   18.46
     23.5259	   13.00	   24.50	 -508.00	   18.46
     23.5593	   12.00	   24.50	 -509.00	   18.46
     23.5927	   21.00	   24.50	 -500.00	   18.46
     23.6261	   17.00	   24.50	 -504.00	   18.46
     23.6596	   21.00	   24.50	 -500.00	   18.46
     23.6930	   32.00	   24.50	 -489.00	   18.46
     23.7264	   22.00	   24.50	 -499.00	   18.46
     23.7598	   21.00	   24.50	 -500.00	   18.46
     23.7933	   21.00	   24.50	 -500.00	   18.46
     23.8267	   27.00	   24.50	 -494.00	   18.46
     23.8601	   28.00	   24.50	 -493.00	   18.46
     23.8935	   13.00	   24.50	 -508.00	   18.46
     23.9269	   26.00	   24.50	 -495.00	   18.46
     23.9604	   23.00	   24.50	 -498.00	   18.46
     23.9938	   23.00	   24.50	 -498.00	   18.46
     24.0272	   26.00	   24.50	 -495.00	   18.46
     24.0606	   28.00	   24.50	 -493.00	   18.46
     24.0941	   18.00	   24.50	 -503.00	   18.46
     24.1275	   22.00	   24.50	 -499.00	   18.46
     24.1609	   22.00	   24.50	 -499.00	   18.46
     24.1943	   16.00	   24.50	 -505.00	   18.46
     24.2278	   28.00	   24.50	 -493.00	   18.46
     24.2612	   30.00	   24.50	 -491.00	   18.46
     24.2946	   26.00	   24.49	 -494.99	   18.46
     24.3280	   23.00	   24.49	 -497.99	   18.46
     24.3614	   22.00	   24.49	 -498.99	   18.46
     24.3949	   13.00	   24.49	 -507.99	   18.46
     24.4283	   13.00	   24.49	 -507.99	   18.46
     24.4617	   15.00	   24.49	 -505.99	   18.46
     24.4951	   25.00	   24.49	 -495.99	   18.46
     24.5286	   30.00	   24.49	 -490.99	   18.46
     24.5620	   20.00	   24.49	 -500.99	   18.46
     24.5954	   23.00	   24.49	 -497.99	   18.46
     24.6288	   17.00	   24.49	 -503.99	   18.46
     24.6622	   21.00	   24.49	 -499.99	   18.46
     24.6957	   18.00	   24.49	 -502.99	   18.46
     24.7291	   17.00	   24.49	 -503.99	   18.46
     24.7625	   26.00	   24.49	 -494.99	   18.46
     24.7959	   25.00	   24.49	 -495.99	   18.46
     24.8294	   18.00	   24.49	 -502.99	   18.46
     24.8628	   20.00	   24.49	 -500.99	   18.46
     24.8962	   21.00	   24.49	 -499.99	   18.46
     24.9296	   18.00	   24.49	 -502.99	   18.46
     24.9630	   15.00	   24.49	 -505.99	   18.46
     24.9965	   18.00	   24.49	 -502.99	   18.46
     25.0299	   17.00	   24.49	 -503.99	   18.46
     25.0633	   22.00	   24.49	 -498.99	   18.46
     25.0967	   31.00	   24.49	 -489.99	   18.46
     25.1302	   28.00	   24.49	 -492.99	   18.46
     25.1636	   16.00	   24.49	 -504.99	   18.46
     25.1970	   18.00	   24.49	 -502.99	   18.46
     25.2304	   22.00	   24.49	 -498.99	   18.46
     25.2639	   16.00	   24.49	 -504.99	   18.46
     25.2973	   26.00	   24.49	 -494.99	   18.46
     25.3307	   22.00	   24.49	 -498.99	   18.46
     25.3641	   21.00	   24.49	 -499.99	   18.46
     25.3975	   23.00	   24.49	 -497.99	   18.46
     25.4310	   22.00	   24.49	 -498.99	   18.46
     25.4644	   20.00	   24.49	 -500.99	   18.46
     25.4978	   28.00	   24.49	 -492.99	   18.46
     25.5312	   18.00	   24.49	 -502.99	   18.46
     25.5647	   16.00	   24.49	 -504.99	   18.46
     25.5981	   16.00	   24.49	 -504.99	   18.46
     25.6315	   18.00	   24.49	 -502.99	   18.46
     25.6649	   30.00	   24.49	 -490.99	   18.46
     25.6983	   20.00	   24.49	 -500.99	   18.46
     25.7318	   20.00	   24.49	 -500.99	   18.45
     25.7652	   27.00	   24.49	 -493.99	   18.45
     25.7986	   18.00	   24.49	 -502.99	   18.45
     25.8320	   23.00	   24.49	 -497.99	   18.45
     25.8655	   16.00	   24.49	 -504.99	   18.45
     25.8989	   15.00	   24.49	 -505.99	   18.45
     25.9323	   12.00	   24.49	 -508.99	   18.45
     25.9657	   20.00	   24.49	 -500.99	   18.45
     25.9991	   32.00	   24.49	 -488.99	   18.45
     26.0326	   25.00	   24.49	 -495.99	   18.45
     26.0660	   28.00	   24.49	 -492.99	   18.45
     26.0994	   17.00	   24.49	 -503.99	   18.45
     26.1328	   23.00	   24.49	 -497.99	   18.45
     26.1663	   21.00	   24.49	 -499.99	   18.45
     26.1997	   23.00	   24.49	 -497.99	   18.45
     26.2331	   16.00	   24.49	 -504.99	   18.45
     26.2665	   21.00	   24.49	 -499.99	   18.45
     26.2999	   17.00	   24.49	 -503.99	   18.45
     26.3334	   22.00	   24.49	 -498.99	   18.45
     26.3668	   22.00	   24.49	 -498.99	   18.45
     26.4002	   17.00	   24.49	 -503.99	   18.45
     26.4336	   25.00	   24.49	 -495.99	   18.45
     26.4671	   23.00	   24.49	 -497.99	   18.45
     26.5005	   22.00	   24.49	 -498.99	   18.45
     26.5339	   16.00	   24.49	 -504.99	   18.45
     26.5673	   20.00	   24.49	 -500.99	   18.45
     26.6008	   18.00	   24.49	 -502.99	   18.45
     26.6342	   28.00	   24.49	 -492.99	   18.45
     26.6676	   20.00	   24.49	 -500.99	   18.45
     26.7010	   15.00	   24.49	 -505.99	   18.45
     26.7344	   27.00	   24.49	 -493.99	   18.45
     26.7679	   23.00	   24.49	 -497.99	   18.45
     26.8013	   13.00	   24.49	 -507.99	   18.45
     26.8347	   26.00	   24.49	 -494.99	   18.45
     26.8681	   21.00	   24.49	 -499.99	   18.45
     26.9016	   25.00	   24.49	 -495.99	   18.45
     26.9350	   21.00	   24.49	 -499.99	   18.45
     26.9684	   17.00	   24.49	 -503.99	   18.45
     27.0018	   17.00	   24.48	 -503.98	   18.45
     27.0352	   18.00	   24.48	 -502.98	   18.45
     27.0687	   20.00	   24.48	 -500.98	   18.45
     27.1021	   21.00	   24.48	 -499.98	   18.45
     27.1355	   26.00	   24.48	 -494.98	   18.45
     27.1689	   12.00	   24.48	 -508.98	   18.45
     27.2024	   27.00	   24.48	 -493.98	   18.45
     27.2358	   22.00	   24.48	 -498.98	   18.45
     27.2692	   21.00	   24.48	 -499.98	   18.45
     27.3026	   26.00	   24.48	 -494.98	   18.45
     27.3360	   17.00	   24.48	 -503.98	   18.45
     27.3695	   28.00	   24.48	 -492.98	   18.45
     27.4029	   27.00	   24.48	 -493.98	   18.45
     27.4363	   11.00	   24.48	 -509.98	   18.45
     27.4697	   23.00	   24.48	 -497.98	   18.45
     27.5032	   21.00	   24.48	 -499.98	   18.45
     27.5366	   22.00	   24.48	 -498.98	   18.45
     27.5700	   18.00	   24.48	 -502.98	   18.45
     27.6034	   18.00	   24.48	 -502.98	   18.45
     27.6369	   25.00	   24.48	 -495.98	   18.45
     27.6703	   27.00	   24.48	 -493.98	   18.45
     27.7037	   20.00	   24.48	 -500.98	   18.45
     27.7371	   15.00	   24.48	 -505.98	   18.45
     27.7705	   16.00	   24.48	 -504.98	   18.45
     27.8040	   26.00	   24.48	 -494.98	   18.45
     27.8374	   25.00	   24.48	 -495.98	   18.45
     27.8708	   30.00	   24.48	 -490.98	   18.45
     27.9042	   20.00	   24.48	 -500.98	   18.45
     27.9377	   21.00	   24.48	 -499.98	   18.45
     27.9711	   22.00	   24.48	 -498.98	   18.45
     28.0045	   26.00	   24.48	 -494.98	   18.45
     28.0379	   21.00	   24.48	 -499.98	   18.45
     28.0713	   17.00	   24.48	 -503.98	   18.45
     28.1048	   16.00	   24.48	 -504.98	   18.45
     28.1382	   30.00	   24.48	 -490.98	   18.45
     28.1716	   22.00	   24.63	 -499.13	   18.45
     28.2050	   15.00	   24.64	 -506.14	   18.45
     28.2385	   18.00	   24.71	 -503.21	   18.45
     28.2719	    8.00	   24.72	 -513.22	   18.45
     28.3053	   18.00	   24.72	 -503.22	   18.45
     28.3387	   25.00	   24.73	 -496.23	   18.45
     28.3721	   17.00	   24.73	 -504.23	   18.45
     28.4056	   25.00	   24.74	 -496.24	   18.44
     28.4390	   16.00	   24.74	 -505.24	   18.44
     28.4724	   15.00	   24.75	 -506.25	   18.44
     28.5058	   16.00	   24.75	 -505.25	   18.44
     28.5393	   32.00	   24.76	 -489.26	   18.44
     28.5727	   16.00	   24.76	 -505.26	   18.44
     28.6061	   22.00	   24.77	 -499.27	   18.44
     28.6395	   25.00	   24.78	 -496.28	   18.44
     28.6729	   18.00	   24.78	 -503.28	   18.44
     28.7064	   20.00	   24.79	 -501.29	   18.44
     28.7398	   17.00	   24.80	 -504.30	   18.44
     28.7732	   27.00	   24.80	 -494.30	   18.44
     28.8066	   26.00	   24.81	 -495.31	   18.44
     28.8401	   20.00	   24.82	 -501.32	   18.44
     28.8735	   21.00	   24.83	 -500.33	   18.44
     28.9069	   27.00	   24.83	 -494.33	   18.44
     28.9403	   26.00	   24.84	 -495.34	   18.44
     28.9738	   21.00	   24.85	 -500.35	   18.44
     29.0072	   17.00	   24.86	 -504.36	   18.44
     29.0406	   18.00	   24.87	 -503.37	   18.44
     29.0740	   25.00	   24.88	 -496.38	   18.44
     29.1074	   21.00	   24.89	 -500.39	   18.44
     29.1409	   25.00	   24.90	 -496.40	   18.44
     29.1743	   18.00	   24.91	 -503.41	   18.44
     29.2077	   25.00	   24.92	 -496.42	   18.44
     29.2411	   25.00	   24.93	 -496.43	   18.44
     29.2746	   30.00	   24.94	 -491.44	   18.44
     29.3080	   32.00	   24.96	 -489.46	   18.44
     29.3414	   18.00	   24.97	 -503.47	   18.44
     29.3748	   28.00	   24.98	 -493.48	   18.44
     29.4082	   12.00	   25.00	 -509.50	   18.44
     29.4417	   22.00	   25.01	 -499.51	   18.44
     29.4751	   22.00	   25.03	 -499.53	   18.44
     29.5085	   32.00	   25.04	 -489.54	   18.44
     29.5419	   37.00	   25.06	 -484.56	   18.44
     29.5754	   17.00	   25.08	 -504.58	   18.44
     29.6088	   21.00	   25.10	 -500.60	   18.44
     29.6422	   17.00	   25.12	 -504.62	   18.44
     29.6756	   17.00	   25.14	 -504.64	   18.44
     29.7090	   28.00	   25.16	 -493.66	   18.44
     29.7425	   22.00	   25.18	 -499.68	   18.44
     29.7759	   27.00	   25.21	 -494.71	   18.44
     29.8093	   26.00	   25.23	 -495.73	   18.44
     29.8427	   22.00	   25.26	 -499.76	   18.44
     29.8762	   21.00	   25.28	 -500.78	   18.44
     29.9096	   21.00	   25.31	 -500.81	   18.44
     29.9430	   23.00	   25.34	 -498.84	   18.44
     29.9764	   17.00	   25.38	 -504.88	   18.44
     30.0098	   21.00	   25.41	 -500.91	   18.44
     30.0433	   23.00	   25.45	 -498.95	   18.44
     30.0767	   22.00	   25.49	 -499.99	   18.44
     30.1101	   25.00	   25.53	 -497.03	   18.44
     30.1435	   22.00	   25.57	 -500.07	   18.44
     30.1770	   17.00	   25.62	 -505.12	   18.44
     30.2104	   27.00	   25.66	 -495.16	   18.44
     30.2438	   23.00	   25.72	 -499.22	   18.44
     30.2772	   28.00	   25.77	 -494.27	   18.44
     30.3107	   23.00	   25.83	 -499.33	   18.44
     30.3441	   28.00	   25.90	 -494.40	   18.44
     30.3775	   26.00	   25.96	 -496.46	   18.44
     30.4109	   25.00	   26.04	 -497.54	   18.44
     30.4443	   22.00	   26.12	 -500.62	   18.44
     30.4778	   25.00	   26.20	 -497.70	   18.44
     30.5112	   31.00	   26.29	 -491.79	   18.44
     30.5446	   23.00	   26.39	 -499.89	   18.44
     30.5780	   23.00	   26.50	 -500.00	   18.44
     30.6115	   35.00	   26.62	 -488.12	   18.44
     30.6449	   32.00	   26.75	 -491.25	   18.44
     30.6783	   36.00	   26.89	 -487.39	   18.44
     30.7117	   27.00	   27.04	 -496.54	   18.44
     30.7451	   36.00	   27.21	 -487.71	   18.44
     30.7786	   28.00	   27.39	 -495.89	   18.44
     30.8120	   23.00	   27.71	 -501.21	   18.44
     30.8454	   26.00	   27.94	 -498.44	   18.44
     30.8788	   33.00	   28.25	 -491.75	   18.44
     30.9123	   32.00	   28.54	 -493.04	   18.44
     30.9457	   47.00	   28.86	 -478.36	   18.44
     30.9791	   18.00	   29.22	 -507.72	   18.44
     31.0125	   41.00	   29.62	 -485.12	   18.44
     31.0459	   38.00	   30.09	 -488.59	   18.44
     31.0794	   41.00	   30.62	 -486.12	   18.44
     31.1128	   32.00	   31.23	 -495.73	   18.43
     31.1462	   27.00	   31.94	 -501.44	   18.43
     31.1796	   31.00	   32.77	 -498.27	   18.43
     31.2131	   26.00	   33.75	 -504.25	   18.43
     31.2465	   26.00	   34.92	 -505.42	   18.43
     31.2799	   32.00	   36.32	 -500.82	   18.43
     31.3133	   28.00	   38.03	 -506.53	   18.43
     31.3468	   41.00	   40.15	 -495.65	   18.43
     31.3802	   45.00	   42.80	 -494.30	   18.43
     31.4136	   33.00	   46.19	 -509.69	   18.43
     31.4470	   46.00	   50.62	 -501.12	   18.43
     31.4804	   61.00	   56.58	 -492.08	   18.43
     31.5139	   80.00	   65.07	 -481.57	   18.43
     31.5473	   89.00	   78.77	 -486.27	   18.43
     31.5807	  130.00	  105.47	 -471.97	   18.43
     31.6141	  174.00	  164.22	 -486.72	   18.43
     31.6476	  268.00	  287.32	 -515.82	   18.43
     31.6810	  457.00	  502.59	 -542.09	   18.43
     31.7144	  767.00	  790.65	 -520.15	   18.43
     31.7478	 1101.00	 1032.40	 -427.90	   18.43
     31.7812	 1105.00	 1072.47	 -463.97	   18.43
     31.8147	  986.00	  946.46	 -456.96	   18.43
     31.8481	  711.00	  735.06	 -520.56	   18.43
     31.8815	  458.00	  492.99	 -531.49	   18.43
     31.9149	  281.00	  298.73	 -514.23	   18.43
     31.9484	  145.00	  176.96	 -528.46	   18.43
     31.9818	  101.00	  112.53	 -508.03	   18.43
     32.0152	   80.00	   81.52	 -498.02	   18.43
     32.0486	   40.00	   66.02	 -522.52	   18.43
     32.0820	   57.00	   57.00	 -496.50	   18.43
     32.1155	   38.00	   50.90	 -509.40	   18.43
     32.1489	   41.00	   46.43	 -501.93	   18.43
     32.1823	   37.00	   43.03	 -502.53	   18.43
     32.2157	   41.00	   40.38	 -495.88	   18.43
     32.2492	   46.00	   38.28	 -488.78	   18.43
     32.2826	   36.00	   36.58	 -497.08	   18.43
     32.3160	   37.00	   35.19	 -494.69	   18.43
     32.3494	   40.00	   34.04	 -490.54	   18.43
     32.3829	   38.00	   33.08	 -491.58	   18.43
     32.4163	   38.00	   32.27	 -490.77	   18.43
     32.4497	   32.00	   31.58	 -496.08	   18.43
     32.4831	   22.00	   30.99	 -505.49	   18.43
     32.5165	   42.00	   30.49	 -484.99	   18.43
     32.5500	   17.00	   30.05	 -509.55	   18.43
     32.5834	   28.00	   29.67	 -498.17	   18.43
     32.6168	   33.00	   29.61	 -493.11	   18.43
     32.6502	   27.00	   29.33	 -498.83	   18.43
     32.6837	   22.00	   29.08	 -503.58	   18.43
     32.7171	   40.00	   29.00	 -485.50	   18.43
     32.7505	   23.00	   28.81	 -502.31	   18.43
     32.7839	   25.00	   28.64	 -500.14	   18.43
     32.8173	   40.00	   28.50	 -485.00	   18.43
     32.8508	   25.00	   28.38	 -499.88	   18.43
     32.8842	   35.00	   28.27	 -489.77	   18.43
     32.9176	   26.00	   28.18	 -498.68	   18.43
     32.9510	   16.00	   28.11	 -508.61	   18.43
     32.9845	   27.00	   28.05	 -497.55	   18.43
     33.0179	   22.00	   28.00	 -502.50	   18.43
     33.0513	   17.00	   27.96	 -507.46	   18.43
     33.0847	   31.00	   27.94	 -493.44	   18.43
     33.1181	   30.00	   27.93	 -494.43	   18.43
     33.1516	   31.00	   27.93	 -493.43	   18.43
     33.1850	   31.00	   27.94	 -493.44	   18.43
     33.2184	   31.00	   27.96	 -493.46	   18.43
     33.2518	   27.00	   27.99	 -497.49	   18.43
     33.2853	   33.00	   28.04	 -491.54	   18.43
     33.3187	   25.00	   28.10	 -499.60	   18.43
     33.3521	   31.00	   28.17	 -493.67	   18.43
     33.3855	   26.00	   28.26	 -498.76	   18.43
     33.4189	   25.00	   28.36	 -499.86	   18.43
     33.4524	   20.00	   28.48	 -504.98	   18.43
     33.4858	   32.00	   28.62	 -493.12	   18.43
     33.5192	   22.00	   28.78	 -503.28	   18.43
     33.5526	   25.00	   28.96	 -500.46	   18.43
     33.5861	   35.00	   29.17	 -490.67	   18.43
     33.6195	   37.00	   29.41	 -488.91	   18.43
     33.6529	   32.00	   29.69	 -494.19	   18.43
     33.6863	   25.00	   30.01	 -501.51	   18.43
     33.7198	   32.00	   30.37	 -494.87	   18.43
     33.7532	   27.00	   30.80	 -500.30	   18.43
     33.7866	   43.00	   31.30	 -484.80	   18.42
     33.8200	   40.00	   31.88	 -488.38	   18.42
     33.8534	   41.00	   32.56	 -488.06	   18.42
     33.8869	   28.00	   33.37	 -501.87	   18.42
     33.9203	   22.00	   34.35	 -508.85	   18.42
     33.9537	   37.00	   35.54	 -495.04	   18.42
     33.9871	   37.00	   37.00	 -496.50	   18.42
     34.0206	   42.00	   38.82	 -493.32	   18.42
     34.0540	   42.00	   41.13	 -495.63	   18.42
     34.0874	   30.00	   44.11	 -510.61	   18.42
     34.1208	   30.00	   48.08	 -514.58	   18.42
     34.1542	   52.00	   53.60	 -498.10	   18.42
     34.1877	   70.00	   62.04	 -488.54	   18.42
     34.2211	   75.00	   77.45	 -498.95	   18.42
     34.2545	   80.00	  110.47	 -526.97	   18.42
     34.2879	  138.00	  181.66	 -540.16	   18.42
     34.3214	  286.00	  314.49	 -524.99	   18.42
     34.3548	  448.00	  509.98	 -558.48	   18.42
     34.3882	  758.00	  709.35	 -447.85	   18.42
     34.4216	  876.00	  792.03	 -412.53	   18.42
     34.4550	  721.00	  734.68	 -510.18	   18.42
     34.4885	  619.00	  613.82	 -491.32	   18.42
     34.5219	  477.00	  453.18	 -472.68	   18.42
     34.5553	  267.00	  295.28	 -524.78	   18.42
     34.5887	  135.00	  180.89	 -542.39	   18.42
     34.6222	   95.00	  113.49	 -514.99	   18.42
     34.6556	   79.00	   79.21	 -496.71	   18.42
     34.6890	   60.00	   62.68	 -499.18	   18.42
     34.7224	   41.00	   53.98	 -509.48	   18.42
     34.7559	   45.00	   48.59	 -500.09	   18.42
     34.7893	   32.00	   44.83	 -509.33	   18.42
     34.8227	   40.00	   42.05	 -498.55	   18.42
     34.8561	   35.00	   39.94	 -501.44	   18.42
     34.8895	   33.00	   38.31	 -501.81	   18.42
     34.9230	   41.00	   37.03	 -492.53	   18.42
     34.9564	   38.00	   36.03	 -494.53	   18.42
     34.9898	   46.00	   35.25	 -485.75	   18.42
     35.0232	   40.00	   34.63	 -491.13	   18.42
     35.0567	   37.00	   34.16	 -493.66	   18.42
     35.0901	   38.00	   33.80	 -492.30	   18.42
     35.1235	   33.00	   33.54	 -497.04	   18.42
     35.1569	   38.00	   33.37	 -491.87	   18.42
     35.1903	   41.00	   33.28	 -488.78	   18.42
     35.2238	   32.00	   33.26	 -497.76	   18.42
     35.2572	   45.00	   33.31	 -484.81	   18.42
     35.2906	   36.00	   33.42	 -493.92	   18.42
     35.3240	   35.00	   33.61	 -495.11	   18.42
     35.3575	   38.00	   33.86	 -492.36	   18.42
     35.3909	   31.00	   34.19	 -499.69	   18.42
     35.4243	   31.00	   34.60	 -500.10	   18.42
     35.4577	   38.00	   35.09	 -493.59	   18.42
     35.4911	   41.00	   35.69	 -491.19	   18.42
     35.5246	   38.00	   36.25	 -494.75	   18.42
     35.5580	   43.00	   37.02	 -490.52	   18.42
     35.5914	   31.00	   38.01	 -503.51	   18.42
     35.6248	   51.00	   39.18	 -484.68	   18.42
     35.6583	   42.00	   40.57	 -495.07	   18.42
     35.6917	   48.00	   42.24	 -490.74	   18.42
     35.7251	   31.00	   44.23	 -509.73	   18.42
     35.7585	   57.00	   46.65	 -486.15	   18.42
     35.7920	   45.00	   49.60	 -501.10	   18.42
     35.8254	   48.00	   53.26	 -501.76	   18.42
     35.8588	   45.00	   57.86	 -509.36	   18.42
     35.8922	   62.00	   63.72	 -498.22	   18.42
     35.9256	   76.00	   71.37	 -491.87	   18.42
     35.9591	   84.00	   81.61	 -494.11	   18.42
     35.9925	  104.00	   96.05	 -488.55	   18.42
     36.0259	  125.00	  118.83	 -490.33	   18.42
     36.0593	  180.00	  161.95	 -478.45	   18.42
     36.0928	  268.00	  255.60	 -484.10	   18.42
     36.1262	  395.00	  453.59	 -555.09	   18.42
     36.1596	  754.00	  807.87	 -550.37	   18.42
     36.1930	 1224.00	 1300.65	 -573.15	   18.42
     36.2264	 1733.00	 1754.19	 -517.69	   18.42
     36.2599	 1986.00	 1881.62	 -392.12	   18.42
     36.2933	 1577.00	 1706.03	 -625.53	   18.42
     36.3267	 1376.00	 1415.90	 -536.40	   18.42
     36.3601	 1072.00	 1040.14	 -464.64	   18.42
     36.3936	  626.00	  668.81	 -539.31	   18.42
     36.4270	  340.00	  397.15	 -553.65	   18.42
     36.4604	  198.00	  235.35	 -533.85	   18.41
     36.4938	  140.00	  152.32	 -508.82	   18.41
     36.5272	  104.00	  112.00	 -504.50	   18.41
     36.5607	   82.00	   90.63	 -505.13	   18.41
     36.5941	   57.00	   77.30	 -516.80	   18.41
     36.6275	   51.00	   67.88	 -513.38	   18.41
     36.6609	   46.00	   60.83	 -511.33	   18.41
     36.6944	   55.00	   55.37	 -496.87	   18.41
     36.7278	   54.00	   51.07	 -493.57	   18.41
     36.7612	   48.00	   47.61	 -496.11	   18.41
     36.7946	   36.00	   44.79	 -505.29	   18.41
     36.8280	   43.00	   42.46	 -495.96	   18.41
     36.8615	   33.00	   40.51	 -504.01	   18.41
     36.8949	   35.00	   38.87	 -500.37	   18.41
     36.9283	   40.00	   37.47	 -493.97	   18.41
     36.9617	   28.00	   36.26	 -504.76	   18.41
     36.9952	   37.00	   35.22	 -494.72	   18.41
     37.0286	   27.00	   34.31	 -503.81	   18.41
     37.0620	   32.00	   33.52	 -498.02	   18.41
     37.0954	   26.00	   32.81	 -503.31	   18.41
     37.1289	   30.00	   32.19	 -498.69	   18.41
     37.1623	   45.00	   31.64	 -483.14	   18.41
     37.1957	   28.00	   31.14	 -499.64	   18.41
     37.2291	   23.00	   30.69	 -504.19	   18.41
     37.2625	   35.00	   30.29	 -491.79	   18.41
     37.2960	   28.00	   29.93	 -498.43	   18.41
     37.3294	   31.00	   29.60	 -495.10	   18.41
     37.3628	   25.00	   29.30	 -500.80	   18.41
     37.3962	   36.00	   29.02	 -489.52	   18.41
     37.4297	   40.00	   28.77	 -485.27	   18.41
     37.4631	   22.00	   28.54	 -503.04	   18.41
     37.4965	   30.00	   28.33	 -494.83	   18.41
     37.5299	   32.00	   28.13	 -492.63	   18.41
     37.5633	   20.00	   27.95	 -504.45	   18.41
     37.5968	   23.00	   27.78	 -501.28	   18.41
     37.6302	   28.00	   27.63	 -496.13	   18.41
     37.6636	   25.00	   27.48	 -498.98	   18.41
     37.6970	   28.00	   27.35	 -495.85	   18.41
     37.7305	   27.00	   27.22	 -496.72	   18.41
     37.7639	   36.00	   27.10	 -487.60	   18.41
     37.7973	   23.00	   26.99	 -500.49	   18.41
     37.8307	   37.00	   26.89	 -486.39	   18.41
     37.8641	   31.00	   26.79	 -492.29	   18.41
     37.8976	   27.00	   26.70	 -496.20	   18.41
     37.9310	   18.00	   26.61	 -505.11	   18.41
     37.9644	   22.00	   26.53	 -501.03	   18.41
     37.9978	   33.00	   26.46	 -489.96	   18.41
     38.0313	   37.00	   26.38	 -485.88	   18.41
     38.0647	   23.00	   26.31	 -499.81	   18.41
     38.0981	   22.00	   26.25	 -500.75	   18.41
     38.1315	   23.00	   26.19	 -499.69	   18.41
     38.1649	   33.00	   26.03	 -489.53	   18.41
     38.1984	   30.00	   25.97	 -492.47	   18.41
     38.2318	   30.00	   25.92	 -492.42	   18.41
     38.2652	   28.00	   25.82	 -494.32	   18.41
     38.2986	   27.00	   25.78	 -495.28	   18.41
     38.3321	   25.00	   25.73	 -497.23	   18.41
     38.3655	   31.00	   25.69	 -491.19	   18.41
     38.3989	   38.00	   25.65	 -484.15	   18.41
     38.4323	   26.00	   25.62	 -496.12	   18.41
     38.4658	   15.00	   25.58	 -507.08	   18.41
     38.4992	   23.00	   25.55	 -499.05	   18.41
     38.5326	   17.00	   25.51	 -505.01	   18.41
     38.5660	   35.00	   25.48	 -486.98	   18.41
     38.5994	   26.00	   25.45	 -495.95	   18.41
     38.6329	   20.00	   25.42	 -501.92	   18.41
     38.6663	   21.00	   25.40	 -500.90	   18.41
     38.6997	   22.00	   25.37	 -499.87	   18.41
     38.7331	   21.00	   25.35	 -500.85	   18.41
     38.7666	   26.00	   25.32	 -495.82	   18.41
     38.8000	   22.00	   25.30	 -499.80	   18.41
     38.8334	   30.00	   25.28	 -491.78	   18.41
     38.8668	   32.00	   25.25	 -489.75	   18.41
     38.9002	   18.00	   25.23	 -503.73	   18.41
     38.9337	   23.00	   25.21	 -498.71	   18.41
     38.9671	   27.00	   25.19	 -494.69	   18.41
     39.0005	   17.00	   25.18	 -504.68	   18.41
     39.0339	   22.00	   25.16	 -499.66	   18.41
     39.0674	   31.00	   25.14	 -490.64	   18.41
     39.1008	   22.00	   25.12	 -499.62	   18.41
     39.1342	   32.00	   25.11	 -489.61	   18.41
     39.1676	   25.00	   25.09	 -496.59	   18.40
     39.2010	   18.00	   25.08	 -503.58	   18.40
     39.2345	   26.00	   25.06	 -495.56	   18.40
     39.2679	   25.00	   25.05	 -496.55	   18.40
     39.3013	   35.00	   25.04	 -486.54	   18.40
     39.3347	   25.00	   25.02	 -496.52	   18.40
     39.3682	   30.00	   25.01	 -491.51	   18.40
     39.4016	   27.00	   25.00	 -494.50	   18.40
     39.4350	   22.00	   24.99	 -499.49	   18.40
     39.4684	   25.00	   24.97	 -496.47	   18.40
     39.5019	   20.00	   24.96	 -501.46	   18.40
     39.5353	   23.00	   24.95	 -498.45	   18.40
     39.5687	   18.00	   24.94	 -503.44	   18.40
     39.6021	   25.00	   24.93	 -496.43	   18.40
     39.6355	   17.00	   24.92	 -504.42	   18.40
     39.6690	   23.00	   24.91	 -498.41	   18.40
     39.7024	   25.00	   24.90	 -496.40	   18.40
     39.7358	   20.00	   24.89	 -501.39	   18.40
     39.7692	   25.00	   24.89	 -496.39	   18.40
     39.8027	   22.00	   24.88	 -499.38	   18.40
     39.8361	   25.00	   24.87	 -496.37	   18.40
     39.8695	   25.00	   24.86	 -496.36	   18.40
     39.9029	   21.00	   24.85	 -500.35	   18.40
     39.9363	   18.00	   24.84	 -503.35	   18.40
     39.9698	   26.00	   24.84	 -495.34	   18.40
     40.0032	   26.00	   24.57	 -495.07	   18.40
     40.0366	   26.00	   24.57	 -495.07	   18.40
     40.0700	   12.00	   24.57	 -509.07	   18.40
     40.1035	   25.00	   24.44	 -495.94	   18.40
     40.1369	   25.00	   24.44	 -495.94	   18.40
     40.1703	   23.00	   24.44	 -497.94	   18.40
     40.2037	   31.00	   24.44	 -489.94	   18.40
     40.2371	   18.00	   24.44	 -502.94	   18.40
     40.2706	   15.00	   24.44	 -505.94	   18.40
     40.3040	   21.00	   24.44	 -499.94	   18.40
     40.3374	   20.00	   24.44	 -500.94	   18.40
     40.3708	   25.00	   24.44	 -495.94	   18.40
     40.4043	   25.00	   24.43	 -495.93	   18.40
     40.4377	   21.00	   24.43	 -499.93	   18.40
     40.4711	   23.00	   24.43	 -497.93	   18.40
     40.5045	   28.00	   24.43	 -492.93	   18.40
     40.5379	   27.00	   24.43	 -493.93	   18.40
     40.5714	   23.00	   24.43	 -497.93	   18.40
     40.6048	   21.00	   24.43	 -499.93	   18.40
     40.6382	   23.00	   24.43	 -497.93	   18.40
     40.6716	   26.00	   24.43	 -494.93	   18.40
     40.7051	   28.00	   24.43	 -492.93	   18.40
     40.7385	   21.00	   24.43	 -499.93	   18.40
     40.7719	   23.00	   24.43	 -497.93	   18.40
     40.8053	   17.00	   24.43	 -503.93	   18.40
     40.8388	   26.00	   24.43	 -494.93	   18.40
     40.8722	   23.00	   24.43	 -497.93	   18.40
     40.9056	   33.00	   24.43	 -487.93	   18.40
     40.9390	   17.00	   24.43	 -503.93	   18.40
     40.9724	   25.00	   24.43	 -495.93	   18.40
     41.0059	   22.00	   24.43	 -498.93	   18.40
     41.0393	   25.00	   24.43	 -495.93	   18.40
     41.0727	   25.00	   24.43	 -495.93	   18.40
     41.1061	   21.00	   24.43	 -499.93	   18.40
     41.1396	   23.00	   24.43	 -497.93	   18.40
     41.1730	   45.00	   24.43	 -475.93	   18.40
     41.2064	   28.00	   24.43	 -492.93	   18.40
     41.2398	   27.00	   24.43	 -493.93	   18.40
     41.2732	   25.00	   24.43	 -495.93	   18.40
     41.3067	   25.00	   24.43	 -495.93	   18.40
     41.3401	   37.00	   24.43	 -483.93	   18.40
     41.3735	   21.00	   24.43	 -499.93	   18.40
     41.4069	   37.00	   24.43	 -483.93	   18.40
     41.4404	   15.00	   24.43	 -505.93	   18.40
     41.4738	   23.00	   24.43	 -497.93	   18.40
     41.5072	   12.00	   24.43	 -508.93	   18.40
     41.5406	   30.00	   24.43	 -490.93	   18.40
     41.5741	   20.00	   24.43	 -500.93	   18.40
     41.6075	   23.00	   24.43	 -497.93	   18.40
     41.6409	   22.00	   24.43	 -498.93	   18.40
     41.6743	   15.00	   24.43	 -505.93	   18.40
     41.7077	   30.00	   24.43	 -490.93	   18.40
     41.7412	   27.00	   24.43	 -493.93	   18.40
     41.7746	   25.00	   24.43	 -495.93	   18.40
     41.8080	   28.00	   24.43	 -492.93	   18.40
     41.8414	   22.00	   24.43	 -498.93	   18.39
     41.8749	   18.00	   24.43	 -502.93	   18.39
     41.9083	   25.00	   24.43	 -495.93	   18.39
     41.9417	   20.00	   24.43	 -500.93	   18.39
     41.9751	   31.00	   24.43	 -489.93	   18.39
     42.0085	   20.00	   24.43	 -500.93	   18.39
     42.0420	   15.00	   24.43	 -505.93	   18.39
     42.0754	   27.00	   24.43	 -493.93	   18.39
     42.1088	   17.00	   24.43	 -503.93	   18.39
     42.1422	   26.00	   24.43	 -494.93	   18.39
     42.1757	   26.00	   24.43	 -494.93	   18.39
     42.2091	   27.00	   24.43	 -493.93	   18.39
     42.2425	   23.00	   24.43	 -497.93	   18.39
     42.2759	   25.00	   24.43	 -495.93	   18.39
     42.3093	   23.00	   24.43	 -497.93	   18.39
     42.3428	   20.00	   24.43	 -500.93	   18.39
     42.3762	   25.00	   24.43	 -495.93	   18.39
     42.4096	   37.00	   24.43	 -483.93	   18.39
     42.4430	   23.00	   24.43	 -497.93	   18.39
     42.4765	   22.00	   24.43	 -498.93	   18.39
     42.5099	   26.00	   24.43	 -494.93	   18.39
     42.5433	   16.00	   24.43	 -504.93	   18.39
     42.5767	   26.00	   24.43	 -494.93	   18.39
     42.6101	   30.00	   24.43	 -490.93	   18.39
     42.6436	   28.00	   24.43	 -492.93	   18.39
     42.6770	   26.00	   24.43	 -494.93	   18.39
     42.7104	   23.00	   24.43	 -497.93	   18.39
     42.7438	   21.00	   24.43	 -499.93	   18.39
     42.7773	   27.00	   24.43	 -493.93	   18.39
     42.8107	   28.00	   24.43	 -492.93	   18.39
     42.8441	   41.00	   24.43	 -479.93	   18.39
     42.8775	   18.00	   24.43	 -502.93	   18.39
     42.9109	   23.00	   24.43	 -497.93	   18.39
     42.9444	   26.00	   24.43	 -494.93	   18.39
     42.9778	   26.00	   24.43	 -494.93	   18.39
     43.0112	   31.00	   24.43	 -489.93	   18.39
     43.0446	   18.00	   24.43	 -502.93	   18.39
     43.0781	   28.00	   24.43	 -492.93	   18.39
     43.1115	   30.00	   24.42	 -490.92	   18.39
     43.1449	   38.00	   24.42	 -482.92	   18.39
     43.1783	   21.00	   24.42	 -499.92	   18.39
     43.2118	   27.00	   24.42	 -493.92	   18.39
     43.2452	   22.00	   24.42	 -498.92	   18.39
     43.2786	   17.00	   24.42	 -503.92	   18.39
     43.3120	   26.00	   24.42	 -494.92	   18.39
     43.3454	   21.00	   24.42	 -499.92	   18.39
     43.3789	   20.00	   24.42	 -500.92	   18.39
     43.4123	   28.00	   24.42	 -492.92	   18.39
     43.4457	   25.00	   24.42	 -495.92	   18.39
     43.4791	   30.00	   24.42	 -490.92	   18.39
     43.5126	   26.00	   24.42	 -494.92	   18.39
     43.5460	   28.00	   24.42	 -492.92	   18.39
     43.5794	   37.00	   24.42	 -483.92	   18.39
     43.6128	   26.00	   24.42	 -494.92	   18.39
     43.6462	   23.00	   24.42	 -497.92	   18.39
     43.6797	   21.00	   24.42	 -499.92	   18.39
     43.7131	   25.00	   24.42	 -495.92	   18.39
     43.7465	   20.00	   24.42	 -500.92	   18.39
     43.7799	   18.00	   24.42	 -502.92	   18.39
     43.8134	   23.00	   24.49	 -497.99	   18.39
     43.8468	   22.00	   24.49	 -498.99	   18.39
     43.8802	   23.00	   24.49	 -497.99	   18.39
     43.9136	   25.00	   24.52	 -496.02	   18.39
     43.9470	   20.00	   24.52	 -501.02	   18.39
     43.9805	   21.00	   24.52	 -500.02	   18.39
     44.0139	   22.00	   24.53	 -499.03	   18.39
     44.0473	   30.00	   24.53	 -491.03	   18.39
     44.0807	   20.00	   24.53	 -501.03	   18.39
     44.1142	   23.00	   24.53	 -498.03	   18.39
     44.1476	   31.00	   24.53	 -490.03	   18.39
     44.1810	   25.00	   24.54	 -496.04	   18.39
     44.2144	   23.00	   24.54	 -498.04	   18.39
     44.2478	   23.00	   24.54	 -498.04	   18.39
     44.2813	   17.00	   24.54	 -504.04	   18.39
     44.3147	   21.00	   24.54	 -500.04	   18.39
     44.3481	   16.00	   24.55	 -505.05	   18.39
     44.3815	   16.00	   24.55	 -505.05	   18.39
     44.4150	   37.00	   24.55	 -484.05	   18.39
     44.4484	   26.00	   24.55	 -495.05	   18.39
     44.4818	   21.00	   24.56	 -500.06	   18.39
     44.5152	   23.00	   24.56	 -498.06	   18.39
     44.5487	   33.00	   24.56	 -488.06	   18.38
     44.5821	   25.00	   24.57	 -496.07	   18.38
     44.6155	   23.00	   24.57	 -498.07	   18.38
     44.6489	   23.00	   24.57	 -498.07	   18.38
     44.6823	   28.00	   24.58	 -493.08	   18.38
     44.7158	   23.00	   24.58	 -498.08	   18.38
     44.7492	   18.00	   24.58	 -503.08	   18.38
     44.7826	   27.00	   24.59	 -494.09	   18.38
     44.8160	   22.00	   24.59	 -499.09	   18.38
     44.8495	   22.00	   24.60	 -499.10	   18.38
     44.8829	   13.00	   24.60	 -508.10	   18.38
     44.9163	   27.00	   24.60	 -494.10	   18.38
     44.9497	   28.00	   24.61	 -493.11	   18.38
     44.9831	   21.00	   24.61	 -500.11	   18.38
     45.0166	   18.00	   24.62	 -503.12	   18.38
     45.0500	   26.00	   24.62	 -495.12	   18.38
     45.0834	   23.00	   24.63	 -498.13	   18.38
     45.1168	   35.00	   24.64	 -486.14	   18.38
     45.1503	   12.00	   24.64	 -509.14	   18.38
     45.1837	   32.00	   24.65	 -489.15	   18.38
     45.2171	   16.00	   24.65	 -505.15	   18.38
     45.2505	   22.00	   24.66	 -499.16	   18.38
     45.2840	   37.00	   24.67	 -484.17	   18.38
     45.3174	   20.00	   24.68	 -501.18	   18.38
     45.3508	   27.00	   24.68	 -494.18	   18.38
     45.3842	   17.00	   24.69	 -504.19	   18.38
     45.4176	   36.00	   24.70	 -485.20	   18.38
     45.4511	   23.00	   24.71	 -498.21	   18.38
     45.4845	   31.00	   24.72	 -490.22	   18.38
     45.5179	   23.00	   24.73	 -498.23	   18.38
     45.5513	   21.00	   24.74	 -500.24	   18.38
     45.5848	   28.00	   24.75	 -493.25	   18.38
     45.6182	   25.00	   24.76	 -496.26	   18.38
     45.6516	   33.00	   24.77	 -488.27	   18.38
     45.6850	   21.00	   24.79	 -500.29	   18.38
     45.7184	   11.00	   24.80	 -510.30	   18.38
     45.7519	   21.00	   24.81	 -500.31	   18.38
     45.7853	   30.00	   24.83	 -491.33	   18.38
     45.8187	   28.00	   24.84	 -493.34	   18.38
     45.8521	   40.00	   24.86	 -481.36	   18.38
     45.8856	   20.00	   24.88	 -501.38	   18.38
     45.9190	   35.00	   24.90	 -486.40	   18.38
     45.9524	   23.00	   24.92	 -498.42	   18.38
     45.9858	   37.00	   24.94	 -484.44	   18.38
     46.0192	   33.00	   24.96	 -488.46	   18.38
     46.0527	   22.00	   24.99	 -499.49	   18.38
     46.0861	   30.00	   25.01	 -491.51	   18.38
     46.1195	   17.00	   25.04	 -504.54	   18.38
     46.1529	   22.00	   25.07	 -499.57	   18.38
     46.1864	   26.00	   25.10	 -495.60	   18.38
     46.2198	   23.00	   25.14	 -498.64	   18.38
     46.2532	   33.00	   25.17	 -488.67	   18.38
     46.2866	   25.00	   25.21	 -496.71	   18.38
     46.3200	   37.00	   25.26	 -484.76	   18.38
     46.3535	   17.00	   25.31	 -504.81	   18.38
     46.3869	   25.00	   25.36	 -496.86	   18.38
     46.4203	   36.00	   25.41	 -485.91	   18.38
     46.4537	   18.00	   25.47	 -503.97	   18.38
     46.4872	   28.00	   25.54	 -494.04	   18.38
     46.5206	   25.00	   25.61	 -497.11	   18.38
     46.5540	   25.00	   25.70	 -497.20	   18.38
     46.5874	   23.00	   25.78	 -499.28	   18.38
     46.6208	   21.00	   25.88	 -501.38	   18.38
     46.6543	   33.00	   25.99	 -489.49	   18.38
     46.6877	   41.00	   26.12	 -481.62	   18.38
     46.7211	   30.00	   26.25	 -492.75	   18.38
     46.7545	   17.00	   26.41	 -505.91	   18.38
     46.7880	   31.00	   26.59	 -492.09	   18.38
     46.8214	   26.00	   26.79	 -497.29	   18.38
     46.8548	   20.00	   27.02	 -503.52	   18.38
     46.8882	   32.00	   27.28	 -491.78	   18.38
     46.9217	   27.00	   27.59	 -497.09	   18.38
     46.9551	   37.00	   27.95	 -487.45	   18.38
     46.9885	   38.00	   28.37	 -486.87	   18.38
     47.0219	   30.00	   28.88	 -495.38	   18.38
     47.0553	   30.00	   29.49	 -495.99	   18.38
     47.0888	   40.00	   30.23	 -486.73	   18.38
     47.1222	   31.00	   31.15	 -496.65	   18.38
     47.1556	   28.00	   32.30	 -500.80	   18.38
     47.1890	   30.00	   33.78	 -500.28	   18.38
     47.2225	   43.00	   35.71	 -489.21	   18.37
     47.2559	   47.00	   38.35	 -487.85	   18.37
     47.2893	   40.00	   42.21	 -498.71	   18.37
     47.3227	   50.00	   48.81	 -495.31	   18.37
     47.3561	   65.00	   62.20	 -493.70	   18.37
     47.3896	   71.00	   90.90	 -516.40	   18.37
     47.4230	  118.00	  146.50	 -525.00	   18.37
     47.4564	  226.00	  234.33	 -504.83	   18.37
     47.4898	  335.00	  337.50	 -499.00	   18.37
     47.5233	  461.00	  404.08	 -439.58	   18.37
     47.5567	  398.00	  391.85	 -490.35	   18.37
     47.5901	  312.00	  342.68	 -527.18	   18.37
     47.6235	  256.00	  300.98	 -541.48	   18.37
     47.6570	  265.00	  257.18	 -488.68	   18.37
     47.6904	  187.00	  195.75	 -505.25	   18.37
     47.7238	  128.00	  134.54	 -503.04	   18.37
     47.7572	   75.00	   89.29	 -510.79	   18.37
     47.7906	   51.00	   62.22	 -507.72	   18.37
     47.8241	   42.00	   48.26	 -502.76	   18.37
     47.8575	   46.00	   41.31	 -491.81	   18.37
     47.8909	   40.00	   37.48	 -493.98	   18.37
     47.9243	   42.00	   35.00	 -489.50	   18.37
     47.9578	   33.00	   33.20	 -496.70	   18.37
     47.9912	   26.00	   31.84	 -502.34	   18.37
     48.0246	   38.00	   30.77	 -489.27	   18.37
     48.0580	   38.00	   29.92	 -488.42	   18.37
     48.0914	   33.00	   29.23	 -492.73	   18.37
     48.1249	   35.00	   28.66	 -490.16	   18.37
     48.1583	   32.00	   28.19	 -492.69	   18.37
     48.1917	   26.00	   27.79	 -498.29	   18.37
     48.2251	   45.00	   27.45	 -478.95	   18.37
     48.2586	   21.00	   27.16	 -502.66	   18.37
     48.2920	   27.00	   26.91	 -496.41	   18.37
     48.3254	   30.00	   26.69	 -493.19	   18.37
     48.3588	   28.00	   26.50	 -495.00	   18.37
     48.3922	   25.00	   26.33	 -497.83	   18.37
     48.4257	   30.00	   26.19	 -492.69	   18.37
     48.4591	   21.00	   26.05	 -501.55	   18.37
     48.4925	   20.00	   25.94	 -502.44	   18.37
     48.5259	   32.00	   25.83	 -490.33	   18.37
     48.5594	   31.00	   25.74	 -491.24	   18.37
     48.5928	   22.00	   25.65	 -500.15	   18.37
     48.6262	   25.00	   25.57	 -497.07	   18.37
     48.6596	   25.00	   25.50	 -497.00	   18.37
     48.6930	   31.00	   25.44	 -490.94	   18.37
     48.7265	   21.00	   25.38	 -500.88	   18.37
     48.7599	   21.00	   25.32	 -500.82	   18.37
     48.7933	   31.00	   25.28	 -490.78	   18.37
     48.8267	   20.00	   25.23	 -501.73	   18.37
     48.8602	   31.00	   25.19	 -490.69	   18.37
     48.8936	   31.00	   25.15	 -490.65	   18.37
     48.9270	   31.00	   25.11	 -490.61	   18.37
     48.9604	   21.00	   25.08	 -500.58	   18.37
     48.9939	   17.00	   25.05	 -504.55	   18.37
     49.0273	   22.00	   25.02	 -499.52	   18.37
     49.0607	   27.00	   24.99	 -494.49	   18.37
     49.0941	   23.00	   24.96	 -498.46	   18.37
     49.1275	   30.00	   24.94	 -491.44	   18.37
     49.1610	   28.00	   24.92	 -493.42	   18.37
     49.1944	   30.00	   24.90	 -491.40	   18.37
     49.2278	   30.00	   24.88	 -491.38	   18.37
     49.2612	   28.00	   24.86	 -493.36	   18.37
     49.2947	   16.00	   24.84	 -505.34	   18.37
     49.3281	   23.00	   24.82	 -498.32	   18.37
     49.3615	   31.00	   24.81	 -490.31	   18.37
     49.3949	   37.00	   24.79	 -484.29	   18.37
     49.4283	   27.00	   24.78	 -494.28	   18.37
     49.4618	   35.00	   24.77	 -486.27	   18.37
     49.4952	   23.00	   24.75	 -498.25	   18.37
     49.5286	   28.00	   24.74	 -493.24	   18.37
     49.5620	   37.00	   24.73	 -484.23	   18.37
     49.5955	   25.00	   24.72	 -496.22	   18.37
     49.6289	   25.00	   24.71	 -496.21	   18.37
     49.6623	   18.00	   24.70	 -503.20	   18.37
     49.6957	   32.00	   24.69	 -489.19	   18.37
     49.7291	   21.00	   24.68	 -500.18	   18.37
     49.7626	   28.00	   24.67	 -493.17	   18.37
     49.7960	   30.00	   24.66	 -491.16	   18.37
     49.8294	   27.00	   24.66	 -494.16	   18.37
     49.8628	   21.00	   24.65	 -500.15	   18.37
     49.8963	   20.00	   24.64	 -501.14	   18.36
     49.9297	   27.00	   24.63	 -494.13	   18.36
     49.9631	   32.00	   24.63	 -489.13	   18.36
     49.9965	   23.00	   24.62	 -498.12	   18.36
     50.0300	   20.00	   24.61	 -501.11	   18.36
     50.0634	   25.00	   24.61	 -496.11	   18.36
     50.0968	   20.00	   24.60	 -501.10	   18.36
     50.1302	   21.00	   24.60	 -500.10	   18.36
     50.1636	   22.00	   24.59	 -499.09	   18.36
     50.1971	   28.00	   24.59	 -493.09	   18.36
     50.2305	   32.00	   24.58	 -489.08	   18.36
     50.2639	   21.00	   24.58	 -500.08	   18.36
     50.2973	   22.00	   24.57	 -499.07	   18.36
     50.3308	   20.00	   24.57	 -501.07	   18.36
     50.3642	   18.00	   24.57	 -503.07	   18.36
     50.3976	   23.00	   24.56	 -498.06	   18.36
     50.4310	   21.00	   24.56	 -500.06	   18.36
     50.4644	   35.00	   24.55	 -486.05	   18.36
     50.4979	   23.00	   24.55	 -498.05	   18.36
     50.5313	   37.00	   24.55	 -484.05	   18.36
     50.5647	   31.00	   24.54	 -490.04	   18.36
     50.5981	   28.00	   24.54	 -493.04	   18.36
     50.6316	   23.00	   24.54	 -498.04	   18.36
     50.6650	   26.00	   24.53	 -495.03	   18.36
     50.6984	   28.00	   24.53	 -493.03	   18.36
     50.7318	   31.00	   24.53	 -490.03	   18.36
     50.7652	   25.00	   24.52	 -496.02	   18.36
     50.7987	   38.00	   24.52	 -483.02	   18.36
     50.8321	   26.00	   24.52	 -495.02	   18.36
     50.8655	   22.00	   24.52	 -499.02	   18.36
     50.8989	   20.00	   24.51	 -501.01	   18.36
     50.9324	   27.00	   24.51	 -494.01	   18.36
     50.9658	   20.00	   24.51	 -501.01	   18.36
     50.9992	   22.00	   24.51	 -499.01	   18.36
     51.0326	   26.00	   24.50	 -495.00	   18.36
     51.0660	   22.00	   24.50	 -499.00	   18.36
     51.0995	   28.00	   24.50	 -493.00	   18.36
     51.1329	   25.00	   24.50	 -496.00	   18.36
     51.1663	   20.00	   24.50	 -501.00	   18.36
     51.1997	   26.00	   24.49	 -494.99	   18.36
     51.2332	   17.00	   24.49	 -503.99	   18.36
     51.2666	   41.00	   24.49	 -479.99	   18.36
     51.3000	   27.00	   24.49	 -493.99	   18.36
     51.3334	   30.00	   24.49	 -490.99	   18.36
     51.3669	   26.00	   24.48	 -494.98	   18.36
     51.4003	   22.00	   24.42	 -498.92	   18.36
     51.4337	   18.00	   24.42	 -502.92	   18.36
     51.4671	   20.00	   24.42	 -500.92	   18.36
     51.5005	   31.00	   24.42	 -489.92	   18.36
     51.5340	   18.00	   24.39	 -502.89	   18.36
     51.5674	   21.00	   24.39	 -499.89	   18.36
     51.6008	   22.00	   24.39	 -498.89	   18.36
     51.6342	   25.00	   24.39	 -495.89	   18.36
     51.6677	   35.00	   24.39	 -485.89	   18.36
     51.7011	   21.00	   24.39	 -499.89	   18.36
     51.7345	   22.00	   24.39	 -498.89	   18.36
     51.7679	   28.00	   24.39	 -492.89	   18.36
     51.8013	   21.00	   24.39	 -499.89	   18.36
     51.8348	   26.00	   24.39	 -494.89	   18.36
     51.8682	   36.00	   24.39	 -484.89	   18.36
     51.9016	   30.00	   24.39	 -490.89	   18.36
     51.9350	   18.00	   24.39	 -502.89	   18.36
     51.9685	   23.00	   24.39	 -497.89	   18.36
     52.0019	   23.00	   24.39	 -497.89	   18.36
     52.0353	   18.00	   24.39	 -502.89	   18.36
     52.0687	   18.00	   24.39	 -502.89	   18.36
     52.1021	   26.00	   24.39	 -494.89	   18.36
     52.1356	   25.00	   24.39	 -495.89	   18.36
     52.1690	   16.00	   24.39	 -504.89	   18.36
     52.2024	   25.00	   24.39	 -495.89	   18.36
     52.2358	   15.00	   24.39	 -505.89	   18.36
     52.2693	   26.00	   24.39	 -494.89	   18.36
     52.3027	   21.00	   24.39	 -499.89	   18.36
     52.3361	   31.00	   24.39	 -489.89	   18.36
     52.3695	   15.00	   24.39	 -505.89	   18.36
     52.4030	   23.00	   24.39	 -497.89	   18.36
     52.4364	   22.00	   24.39	 -498.89	   18.36
     52.4698	   15.00	   24.39	 -505.89	   18.36
     52.5032	   31.00	   24.39	 -489.89	   18.36
     52.5366	   30.00	   24.39	 -490.89	   18.36
     52.5701	   30.00	   24.39	 -490.89	   18.36
     52.6035	   22.00	   24.39	 -498.89	   18.35
     52.6369	   21.00	   24.39	 -499.89	   18.35
     52.6703	   15.00	   24.39	 -505.89	   18.35
     52.7038	   40.00	   24.39	 -480.89	   18.35
     52.7372	   27.00	   24.48	 -493.98	   18.35
     52.7706	   25.00	   24.49	 -495.99	   18.35
     52.8040	   31.00	   24.49	 -489.99	   18.35
     52.8374	   26.00	   24.49	 -494.99	   18.35
     52.8709	   26.00	   24.54	 -495.04	   18.35
     52.9043	   23.00	   24.54	 -498.04	   18.35
     52.9377	   38.00	   24.54	 -483.04	   18.35
     52.9711	   27.00	   24.54	 -494.04	   18.35
     53.0046	   26.00	   24.55	 -495.05	   18.35
     53.0380	   23.00	   24.55	 -498.05	   18.35
     53.0714	   23.00	   24.55	 -498.05	   18.35
     53.1048	   26.00	   24.56	 -495.06	   18.35
     53.1382	   13.00	   24.56	 -508.06	   18.35
     53.1717	   18.00	   24.56	 -503.06	   18.35
     53.2051	   30.00	   24.57	 -491.07	   18.35
     53.2385	   27.00	   24.57	 -494.07	   18.35
     53.2719	   25.00	   24.57	 -496.07	   18.35
     53.3054	   30.00	   24.58	 -491.08	   18.35
     53.3388	   22.00	   24.58	 -499.08	   18.35
     53.3722	   26.00	   24.58	 -495.08	   18.35
     53.4056	   30.00	   24.59	 -491.09	   18.35
     53.4390	   23.00	   24.59	 -498.09	   18.35
     53.4725	   22.00	   24.60	 -499.10	   18.35
     53.5059	   21.00	   24.60	 -500.10	   18.35
     53.5393	   28.00	   24.61	 -493.11	   18.35
     53.5727	   32.00	   24.61	 -489.11	   18.35
     53.6062	   26.00	   24.62	 -495.12	   18.35
     53.6396	   32.00	   24.62	 -489.12	   18.35
     53.6730	   25.00	   24.63	 -496.13	   18.35
     53.7064	   32.00	   24.63	 -489.13	   18.35
     53.7399	   23.00	   24.64	 -498.14	   18.35
     53.7733	   36.00	   24.64	 -485.14	   18.35
     53.8067	   31.00	   24.65	 -490.15	   18.35
     53.8401	   25.00	   24.65	 -496.15	   18.35
     53.8735	   27.00	   24.66	 -494.16	   18.35
     53.9070	   21.00	   24.67	 -500.17	   18.35
     53.9404	   18.00	   24.67	 -503.17	   18.35
     53.9738	   26.00	   24.68	 -495.18	   18.35
     54.0072	   18.00	   24.69	 -503.19	   18.35
     54.0407	   22.00	   24.70	 -499.20	   18.35
     54.0741	   23.00	   24.70	 -498.20	   18.35
     54.1075	   28.00	   24.71	 -493.21	   18.35
     54.1409	   28.00	   24.72	 -493.22	   18.35
     54.1743	   21.00	   24.73	 -500.23	   18.35
     54.2078	   32.00	   24.74	 -489.24	   18.35
     54.2412	   23.00	   24.75	 -498.25	   18.35
     54.2746	   27.00	   24.76	 -494.26	   18.35
     54.3080	   20.00	   24.77	 -501.27	   18.35
     54.3415	   22.00	   24.78	 -499.28	   18.35
     54.3749	   33.00	   24.80	 -488.30	   18.35
     54.4083	   35.00	   24.81	 -486.31	   18.35
     54.4417	   18.00	   24.82	 -503.32	   18.35
     54.4752	   28.00	   24.83	 -493.33	   18.35
     54.5086	   28.00	   24.85	 -493.35	   18.35
     54.5420	   31.00	   24.86	 -490.36	   18.35
     54.5754	   28.00	   24.88	 -493.38	   18.35
     54.6088	   22.00	   24.90	 -499.40	   18.35
     54.6423	   32.00	   24.91	 -489.41	   18.35
     54.6757	   15.00	   24.93	 -506.43	   18.35
     54.7091	   31.00	   24.95	 -490.45	   18.35
     54.7425	   25.00	   24.97	 -496.47	   18.35
     54.7759	   32.00	   24.99	 -489.49	   18.35
     54.8094	   15.00	   25.01	 -506.51	   18.35
     54.8428	   22.00	   25.04	 -499.54	   18.35
     54.8762	   22.00	   25.06	 -499.56	   18.35
     54.9096	   36.00	   25.09	 -485.59	   18.35
     54.9431	   32.00	   25.12	 -489.62	   18.35
     54.9765	   25.00	   25.15	 -496.65	   18.35
     55.0099	   28.00	   25.18	 -493.68	   18.35
     55.0433	   22.00	   25.21	 -499.71	   18.35
     55.0768	   28.00	   25.25	 -493.75	   18.35
     55.1102	   27.00	   25.29	 -494.79	   18.35
     55.1436	   25.00	   25.33	 -496.83	   18.35
     55.1770	   27.00	   25.37	 -494.87	   18.35
     55.2104	   15.00	   25.42	 -506.92	   18.35
     55.2439	   33.00	   25.47	 -488.97	   18.35
     55.2773	   18.00	   25.53	 -504.03	   18.34
     55.3107	   28.00	   25.59	 -494.09	   18.34
     55.3441	   26.00	   25.65	 -496.15	   18.34
     55.3776	   11.00	   25.72	 -511.22	   18.34
     55.4110	   32.00	   25.79	 -490.29	   18.34
     55.4444	   25.00	   25.87	 -497.37	   18.34
     55.4778	   33.00	   25.96	 -489.46	   18.34
     55.5112	   41.00	   26.06	 -481.56	   18.34
     55.5447	   30.00	   26.16	 -492.66	   18.34
     55.5781	   25.00	   26.28	 -497.78	   18.34
     55.6115	   22.00	   26.41	 -500.91	   18.34
     55.6449	   30.00	   26.55	 -493.05	   18.34
     55.6784	   27.00	   26.70	 -496.20	   18.34
     55.7118	   25.00	   26.88	 -498.38	   18.34
     55.7452	   21.00	   27.07	 -502.57	   18.34
     55.7786	   26.00	   27.29	 -497.79	   18.34
     55.8120	   40.00	   27.53	 -484.03	   18.34
     55.8455	   35.00	   27.81	 -489.31	   18.34
     55.8789	   25.00	   28.12	 -499.62	   18.34
     55.9123	   33.00	   28.49	 -491.99	   18.34
     55.9457	   31.00	   28.90	 -494.40	   18.34
     55.9792	   35.00	   29.38	 -490.88	   18.34
     56.0126	   41.00	   29.95	 -485.45	   18.34
     56.0460	   31.00	   30.61	 -496.11	   18.34
     56.0794	   37.00	   31.40	 -490.90	   18.34
     56.1129	   32.00	   32.36	 -496.86	   18.34
     56.1463	   33.00	   33.52	 -497.02	   18.34
     56.1797	   35.00	   34.95	 -496.45	   18.34
     56.2131	   48.00	   36.76	 -485.26	   18.34
     56.2465	   35.00	   39.06	 -500.56	   18.34
     56.2800	   47.00	   42.09	 -491.59	   18.34
     56.3134	   46.00	   46.23	 -496.73	   18.34
     56.3468	   62.00	   52.43	 -486.93	   18.34
     56.3802	   75.00	   63.33	 -484.83	   18.34
     56.4137	   81.00	   85.51	 -501.01	   18.34
     56.4471	  111.00	  131.70	 -517.20	   18.34
     56.4805	  188.00	  217.40	 -525.90	   18.34
     56.5139	  281.00	  346.63	 -562.13	   18.34
     56.5473	  561.00	  490.77	 -426.27	   18.34
     56.5808	  628.00	  573.34	 -441.84	   18.34
     56.6142	  611.00	  539.22	 -424.72	   18.34
     56.6476	  417.00	  454.25	 -533.75	   18.34
     56.6810	  334.00	  395.99	 -558.49	   18.34
     56.7145	  396.00	  369.70	 -470.20	   18.34
     56.7479	  336.00	  328.01	 -488.51	   18.34
     56.7813	  236.00	  252.01	 -512.51	   18.34
     56.8147	  189.00	  172.65	 -480.15	   18.34
     56.8481	   92.00	  112.97	 -517.47	   18.34
     56.8816	   82.00	   76.85	 -491.35	   18.34
     56.9150	   59.00	   57.97	 -495.47	   18.34
     56.9484	   69.00	   48.45	 -475.95	   18.34
     56.9818	   32.00	   43.14	 -507.64	   18.34
     57.0153	   45.00	   39.68	 -491.18	   18.34
     57.0487	   35.00	   37.17	 -498.67	   18.34
     57.0821	   40.00	   35.24	 -491.74	   18.34
     57.1155	   41.00	   33.73	 -489.23	   18.34
     57.1489	   38.00	   32.51	 -491.01	   18.34
     57.1824	   27.00	   31.52	 -501.02	   18.34
     57.2158	   31.00	   30.70	 -496.20	   18.34
     57.2492	   40.00	   30.02	 -486.52	   18.34
     57.2826	   22.00	   29.44	 -503.94	   18.34
     57.3161	   36.00	   28.94	 -489.44	   18.34
     57.3495	   28.00	   28.52	 -497.02	   18.34
     57.3829	   42.00	   28.15	 -482.65	   18.34
     57.4163	   27.00	   27.83	 -497.33	   18.34
     57.4498	   31.00	   27.55	 -493.05	   18.34
     57.4832	   25.00	   27.30	 -498.80	   18.34
     57.5166	   23.00	   27.08	 -500.58	   18.34
     57.5500	   33.00	   26.89	 -490.39	   18.34
     57.5834	   30.00	   26.71	 -493.21	   18.34
     57.6169	   27.00	   26.55	 -496.05	   18.34
     57.6503	   33.00	   26.41	 -489.91	   18.34
     57.6837	   35.00	   26.28	 -487.78	   18.34
     57.7171	   32.00	   26.16	 -490.66	   18.34
     57.7506	   25.00	   26.06	 -497.56	   18.34
     57.7840	   25.00	   25.96	 -497.46	   18.34
     57.8174	   27.00	   25.87	 -495.37	   18.34
     57.8508	   30.00	   25.79	 -492.29	   18.34
     57.8842	   35.00	   25.71	 -487.21	   18.34
     57.9177	   28.00	   25.64	 -494.14	   18.34
     57.9511	   22.00	   25.58	 -500.08	   18.33
     57.9845	   26.00	   25.52	 -496.02	   18.33
     58.0179	   26.00	   25.47	 -495.97	   18.33
     58.0514	   25.00	   25.41	 -496.91	   18.33
     58.0848	   20.00	   25.37	 -501.87	   18.33
     58.1182	   35.00	   25.32	 -486.82	   18.33
     58.1516	   32.00	   25.28	 -489.78	   18.33
     58.1851	   27.00	   25.24	 -494.74	   18.33
     58.2185	   25.00	   25.20	 -496.70	   18.33
     58.2519	   36.00	   25.17	 -485.67	   18.33
     58.2853	   18.00	   25.14	 -503.64	   18.33
     58.3187	   18.00	   25.11	 -503.61	   18.33
     58.3522	   28.00	   25.08	 -493.58	   18.33
     58.3856	   26.00	   25.05	 -495.55	   18.33
     58.4190	   27.00	   25.03	 -494.53	   18.33
     58.4524	   26.00	   25.00	 -495.50	   18.33
     58.4859	   21.00	   24.98	 -500.48	   18.33
     58.5193	   22.00	   24.96	 -499.46	   18.33
     58.5527	   18.00	   24.94	 -503.44	   18.33
     58.5861	   28.00	   24.92	 -493.42	   18.33
     58.6195	   36.00	   24.90	 -485.40	   18.33
     58.6530	   32.00	   24.88	 -489.38	   18.33
     58.6864	   25.00	   24.86	 -496.36	   18.33
     58.7198	   25.00	   24.85	 -496.35	   18.33
     58.7532	   28.00	   24.83	 -493.33	   18.33
     58.7867	   31.00	   24.82	 -490.32	   18.33
     58.8201	   32.00	   24.80	 -489.30	   18.33
     58.8535	   30.00	   24.79	 -491.29	   18.33
     58.8869	   20.00	   24.87	 -501.37	   18.33
     58.9203	   25.00	   24.85	 -496.35	   18.33
     58.9538	   23.00	   24.84	 -498.34	   18.33
     58.9872	   22.00	   24.83	 -499.33	   18.33
     59.0206	   28.00	   24.83	 -493.33	   18.33
     59.0540	   26.00	   24.82	 -495.32	   18.33
     59.0875	   26.00	   24.85	 -495.35	   18.33
     59.1209	   21.00	   24.85	 -500.35	   18.33
     59.1543	   31.00	   24.84	 -490.34	   18.33
     59.1877	   33.00	   24.83	 -488.33	   18.33
     59.2211	   23.00	   24.83	 -498.33	   18.33
     59.2546	   30.00	   24.82	 -491.32	   18.33
     59.2880	   25.00	   24.82	 -496.32	   18.33
     59.3214	   35.00	   24.81	 -486.31	   18.33
     59.3548	   31.00	   24.81	 -490.31	   18.33
     59.3883	   26.00	   24.80	 -495.30	   18.33
     59.4217	   27.00	   24.80	 -494.30	   18.33
     59.4551	   31.00	   24.80	 -490.30	   18.33
     59.4885	   27.00	   24.79	 -494.29	   18.33
     59.5219	   23.00	   24.79	 -498.29	   18.33
     59.5554	   23.00	   24.79	 -498.29	   18.33
     59.5888	   21.00	   24.79	 -500.29	   18.33
     59.6222	   30.00	   24.79	 -491.29	   18.33
     59.6556	   23.00	   24.78	 -498.28	   18.33
     59.6891	   21.00	   24.78	 -500.28	   18.33
     59.7225	   23.00	   24.78	 -498.28	   18.33
     59.7559	   26.00	   24.78	 -495.28	   18.33
     59.7893	   23.00	   24.78	 -498.28	   18.33
     59.8228	   28.00	   24.78	 -493.28	   18.33
     59.8562	   25.00	   24.78	 -496.28	   18.33
     59.8896	   36.00	   24.78	 -485.28	   18.33
     59.9230	   36.00	   24.78	 -485.28	   18.33
     59.9564	   20.00	   24.79	 -501.29	   18.33
     59.9899	   27.00	   24.79	 -494.29	   18.33
     60.0233	   30.00	   24.79	 -491.29	   18.33
     60.0567	   22.00	   24.79	 -499.29	   18.33
     60.0901	   30.00	   24.79	 -491.29	   18.33
     60.1236	   31.00	   24.80	 -490.30	   18.33
     60.1570	   26.00	   24.80	 -495.30	   18.33
     60.1904	   25.00	   24.80	 -496.30	   18.33
     60.2238	   31.00	   24.81	 -490.31	   18.33
     60.2572	   18.00	   24.81	 -503.31	   18.33
     60.2907	   33.00	   24.81	 -488.31	   18.33
     60.3241	   25.00	   24.82	 -496.32	   18.33
     60.3575	   33.00	   24.82	 -488.32	   18.33
     60.3909	   25.00	   24.83	 -496.33	   18.33
     60.4244	   31.00	   24.84	 -490.34	   18.33
     60.4578	   27.00	   24.84	 -494.34	   18.33
     60.4912	   26.00	   24.85	 -495.35	   18.33
     60.5246	   30.00	   24.86	 -491.36	   18.33
     60.5581	   25.00	   24.78	 -496.28	   18.33
     60.5915	   33.00	   24.79	 -488.29	   18.33
     60.6249	   30.00	   24.80	 -491.30	   18.33
     60.6583	   37.00	   24.81	 -484.31	   18.32
     60.6917	   28.00	   24.82	 -493.32	   18.32
     60.7252	   18.00	   24.79	 -503.29	   18.32
     60.7586	   27.00	   24.80	 -494.30	   18.32
     60.7920	   22.00	   24.81	 -499.31	   18.32
     60.8254	   30.00	   24.83	 -491.33	   18.32
     60.8588	   42.00	   24.84	 -479.34	   18.32
     60.8923	   32.00	   24.86	 -489.36	   18.32
     60.9257	   25.00	   24.88	 -496.38	   18.32
     60.9591	   25.00	   24.90	 -496.40	   18.32
     60.9925	   31.00	   24.91	 -490.41	   18.32
     61.0260	   30.00	   24.93	 -491.43	   18.32
     61.0594	   22.00	   24.96	 -499.46	   18.32
     61.0928	   33.00	   24.98	 -488.48	   18.32
     61.1262	   30.00	   25.00	 -491.50	   18.32
     61.1597	   26.00	   25.03	 -495.53	   18.32
     61.1931	   30.00	   25.05	 -491.55	   18.32
     61.2265	   27.00	   25.08	 -494.58	   18.32
     61.2599	   28.00	   25.11	 -493.61	   18.32
     61.2933	   30.00	   25.14	 -491.64	   18.32
     61.3268	   25.00	   25.18	 -496.68	   18.32
     61.3602	   25.00	   25.21	 -496.71	   18.32
     61.3936	   27.00	   25.25	 -494.75	   18.32
     61.4270	   32.00	   25.29	 -489.79	   18.32
     61.4605	   26.00	   25.34	 -495.84	   18.32
     61.4939	   38.00	   25.38	 -483.88	   18.32
     61.5273	   18.00	   25.43	 -503.93	   18.32
     61.5607	   32.00	   25.49	 -489.99	   18.32
     61.5941	   36.00	   25.55	 -486.05	   18.32
     61.6276	   30.00	   25.61	 -492.11	   18.32
     61.6610	   35.00	   25.68	 -487.18	   18.32
     61.6944	   40.00	   25.76	 -482.26	   18.32
     61.7278	   23.00	   25.84	 -499.34	   18.32
     61.7613	   30.00	   25.93	 -492.43	   18.32
     61.7947	   26.00	   26.02	 -496.52	   18.32
     61.8281	   21.00	   26.13	 -501.63	   18.32
     61.8615	   23.00	   26.25	 -499.75	   18.32
     61.8950	   20.00	   26.38	 -502.88	   18.32
     61.9284	   25.00	   26.52	 -498.02	   18.32
     61.9618	   17.00	   26.68	 -506.18	   18.32
     61.9952	   40.00	   26.86	 -483.36	   18.32
     62.0286	   33.00	   27.05	 -490.55	   18.32
     62.0621	   38.00	   27.28	 -485.78	   18.32
     62.0955	   33.00	   27.53	 -491.03	   18.32
     62.1289	   37.00	   27.81	 -487.31	   18.32
     62.1623	   23.00	   28.14	 -501.64	   18.32
     62.1958	   27.00	   28.52	 -498.02	   18.32
     62.2292	   30.00	   28.95	 -495.45	   18.32
     62.2626	   26.00	   29.46	 -499.96	   18.32
     62.2960	   35.00	   30.05	 -491.55	   18.32
     62.3294	   32.00	   30.76	 -495.26	   18.32
     62.3629	   40.00	   31.62	 -488.12	   18.32
     62.3963	   32.00	   32.65	 -497.15	   18.32
     62.4297	   42.00	   33.91	 -488.41	   18.32
     62.4631	   33.00	   35.49	 -498.99	   18.32
     62.4966	   41.00	   37.49	 -492.99	   18.32
     62.5300	   51.00	   40.10	 -485.60	   18.32
     62.5634	   62.00	   43.62	 -478.12	   18.32
     62.5968	   45.00	   48.78	 -500.28	   18.32
     62.6302	   71.00	   57.50	 -483.00	   18.32
     62.6637	   86.00	   74.65	 -485.15	   18.32
     62.6971	  101.00	  110.03	 -505.53	   18.32
     62.7305	  159.00	  176.83	 -514.33	   18.32
     62.7639	  208.00	  281.99	 -570.49	   18.32
     62.7974	  389.00	  409.69	 -517.19	   18.32
     62.8308	  516.00	  504.69	 -485.19	   18.32
     62.8642	  567.00	  499.87	 -429.37	   18.32
     62.8976	  420.00	  420.57	 -497.07	   18.32
     62.9311	  322.00	  347.84	 -522.34	   18.32
     62.9645	  272.00	  318.39	 -542.89	   18.32
     62.9979	  291.00	  313.86	 -519.36	   18.32
     63.0313	  316.00	  286.33	 -466.83	   18.32
     63.0647	  229.00	  223.84	 -491.34	   18.32
     63.0982	  124.00	  156.12	 -528.62	   18.32
     63.1316	   90.00	  104.12	 -510.62	   18.32
     63.1650	   56.00	   72.04	 -512.54	   18.32
     63.1984	   47.00	   54.96	 -504.46	   18.32
     63.2318	   42.00	   46.26	 -500.76	   18.32
     63.2653	   46.00	   41.42	 -491.92	   18.32
     63.2987	   41.00	   38.30	 -493.80	   18.32
     63.3321	   30.00	   36.05	 -502.55	   18.31
     63.3655	   28.00	   34.32	 -502.82	   18.31
     63.3990	   32.00	   32.96	 -497.46	   18.31
     63.4324	   32.00	   31.86	 -496.36	   18.31
     63.4658	   25.00	   30.96	 -502.46	   18.31
     63.4992	   35.00	   30.22	 -491.72	   18.31
     63.5327	   28.00	   29.60	 -498.10	   18.31
     63.5661	   28.00	   29.07	 -497.57	   18.31
     63.5995	   22.00	   28.62	 -503.12	   18.31
     63.6329	   31.00	   28.24	 -493.74	   18.31
     63.6663	   26.00	   27.90	 -498.40	   18.31
     63.6998	   30.00	   27.61	 -494.11	   18.31
     63.7332	   30.00	   27.35	 -493.85	   18.31
     63.7666	   21.00	   27.12	 -502.62	   18.31
     63.8000	   40.00	   26.92	 -483.42	   18.31
     63.8335	   32.00	   26.74	 -491.24	   18.31
     63.8669	   38.00	   26.58	 -485.08	   18.31
     63.9003	   38.00	   26.51	 -485.01	   18.31
     63.9337	   27.00	   26.38	 -495.88	   18.31
     63.9671	   13.00	   26.26	 -509.76	   18.31
     64.0006	   21.00	   26.16	 -501.66	   18.31
     64.0340	   35.00	   26.06	 -487.56	   18.31
     64.0674	   33.00	   26.01	 -489.51	   18.31
     64.1008	   25.00	   25.93	 -497.43	   18.31
     64.1343	   21.00	   25.86	 -501.36	   18.31
     64.1677	   28.00	   25.79	 -494.29	   18.31
     64.2011	   23.00	   25.73	 -499.23	   18.31
     64.2345	   33.00	   25.68	 -489.18	   18.31
     64.2680	   21.00	   25.62	 -501.12	   18.31
     64.3014	   32.00	   25.58	 -490.08	   18.31
     64.3348	   33.00	   25.53	 -489.03	   18.31
     64.3682	   26.00	   25.49	 -495.99	   18.31
     64.4016	   25.00	   25.46	 -496.96	   18.31
     64.4351	   36.00	   25.42	 -485.92	   18.31
     64.4685	   26.00	   25.39	 -495.89	   18.31
     64.5019	   28.00	   25.36	 -493.86	   18.31
     64.5353	   20.00	   25.34	 -501.84	   18.31
     64.5688	   22.00	   25.31	 -499.81	   18.31
     64.6022	   23.00	   25.29	 -498.79	   18.31
     64.6356	   33.00	   25.27	 -488.77	   18.31
     64.6690	   32.00	   25.25	 -489.75	   18.31
     64.7024	   26.00	   25.24	 -495.74	   18.31
     64.7359	   30.00	   25.22	 -491.72	   18.31
     64.7693	   33.00	   25.21	 -488.71	   18.31
     64.8027	   28.00	   25.19	 -493.69	   18.31
     64.8361	   28.00	   25.18	 -493.68	   18.31
     64.8696	   28.00	   25.18	 -493.68	   18.31
     64.9030	   25.00	   25.17	 -496.67	   18.31
     64.9364	   30.00	   25.16	 -491.66	   18.31
     64.9698	   31.00	   25.16	 -490.66	   18.31
     65.0033	   27.00	   25.19	 -494.69	   18.31
     65.0367	   30.00	   25.19	 -491.69	   18.31
     65.0701	   22.00	   25.19	 -499.69	   18.31
     65.1035	   28.00	   25.19	 -493.69	   18.31
     65.1369	   38.00	   25.19	 -483.69	   18.31
     65.1704	   31.00	   25.20	 -490.70	   18.31
     65.2038	   36.00	   25.22	 -485.72	   18.31
     65.2372	   30.00	   25.23	 -491.73	   18.31
     65.2706	   18.00	   25.24	 -503.74	   18.31
     65.3040	   25.00	   25.25	 -496.75	   18.31
     65.3375	   22.00	   25.26	 -499.76	   18.31
     65.3709	   26.00	   25.28	 -495.78	   18.31
     65.4043	   30.00	   25.30	 -491.80	   18.31
     65.4377	   20.00	   25.32	 -501.82	   18.31
     65.4712	   31.00	   25.34	 -490.84	   18.31
     65.5046	   26.00	   25.37	 -495.87	   18.31
     65.5380	   17.00	   25.40	 -504.90	   18.31
     65.5714	   32.00	   25.43	 -489.93	   18.31
     65.6049	   33.00	   25.47	 -488.97	   18.31
     65.6383	   21.00	   25.52	 -501.02	   18.31
     65.6717	   25.00	   25.57	 -497.07	   18.31
     65.7051	   25.00	   25.63	 -497.13	   18.31
     65.7385	   23.00	   25.70	 -499.20	   18.31
     65.7720	   26.00	   25.78	 -496.28	   18.31
     65.8054	   28.00	   25.88	 -494.38	   18.31
     65.8388	   20.00	   25.99	 -502.49	   18.31
     65.8722	   37.00	   26.12	 -485.62	   18.31
     65.9057	   30.00	   26.28	 -492.78	   18.31
     65.9391	   40.00	   26.47	 -482.97	   18.31
     65.9725	   32.00	   26.71	 -491.21	   18.31
     66.0059	   35.00	   27.01	 -488.51	   18.30
     66.0393	   30.00	   27.39	 -493.89	   18.30
     66.0728	   30.00	   27.89	 -494.39	   18.30
     66.1062	   26.00	   28.61	 -499.11	   18.30
     66.1396	   40.00	   29.77	 -486.27	   18.30
     66.1730	   41.00	   31.95	 -487.45	   18.30
     66.2065	   30.00	   36.39	 -502.89	   18.30
     66.2399	   36.00	   44.94	 -505.44	   18.30
     66.2733	   69.00	   59.04	 -486.54	   18.30
     66.3067	   89.00	   77.56	 -485.06	   18.30
     66.3401	   85.00	   94.28	 -505.78	   18.30
     66.3736	  101.00	   98.49	 -493.99	   18.30
     66.4070	   77.00	   88.45	 -507.95	   18.30
     66.4404	   69.00	   75.45	 -502.95	   18.30
     66.4738	   60.00	   68.10	 -504.60	   18.30
     66.5073	   62.00	   67.26	 -501.76	   18.30
     66.5407	   86.00	   67.39	 -477.89	   18.30
     66.5741	   92.00	   62.06	 -466.56	   18.30
     66.6075	   51.00	   52.35	 -497.85	   18.30
     66.6410	   33.00	   42.90	 -506.40	   18.30
     66.6744	   38.00	   36.07	 -494.57	   18.30
     66.7078	   42.00	   32.03	 -486.53	   18.30
     66.7412	   21.00	   29.94	 -505.44	   18.30
     66.7746	   37.00	   28.89	 -488.39	   18.30
     66.8081	   32.00	   28.32	 -492.82	   18.30
     66.8415	   37.00	   27.97	 -487.47	   18.30
     66.8749	   30.00	   27.74	 -494.24	   18.30
     66.9083	   28.00	   27.50	 -496.00	   18.30
     66.9418	   32.00	   27.41	 -491.91	   18.30
     66.9752	   25.00	   27.37	 -498.87	   18.30
     67.0086	   32.00	   27.36	 -491.86	   18.30
     67.0420	   31.00	   27.39	 -492.89	   18.30
     67.0754	   32.00	   27.45	 -491.95	   18.30
     67.1089	   31.00	   27.51	 -493.01	   18.30
     67.1423	   23.00	   27.63	 -501.13	   18.30
     67.1757	   25.00	   27.79	 -499.29	   18.30
     67.2091	   46.00	   27.98	 -478.48	   18.30
     67.2426	   31.00	   28.22	 -493.72	   18.30
     67.2760	   28.00	   28.49	 -496.99	   18.30
     67.3094	   32.00	   28.82	 -493.32	   18.30
     67.3428	   33.00	   29.21	 -492.71	   18.30
     67.3762	   30.00	   29.68	 -496.18	   18.30
     67.4097	   32.00	   30.24	 -494.74	   18.30
     67.4431	   25.00	   30.91	 -502.41	   18.30
     67.4765	   30.00	   31.72	 -498.22	   18.30
     67.5099	   38.00	   32.72	 -491.22	   18.30
     67.5434	   31.00	   33.96	 -499.46	   18.30
     67.5768	   45.00	   35.53	 -487.03	   18.30
     67.6102	   40.00	   37.57	 -494.07	   18.30
     67.6436	   47.00	   40.28	 -489.78	   18.30
     67.6770	   51.00	   44.16	 -489.66	   18.30
     67.7105	   52.00	   50.47	 -494.97	   18.30
     67.7439	   71.00	   62.43	 -487.93	   18.30
     67.7773	   90.00	   86.75	 -493.25	   18.30
     67.8107	  128.00	  133.34	 -501.84	   18.30
     67.8442	  185.00	  209.77	 -521.27	   18.30
     67.8776	  306.00	  309.81	 -500.31	   18.30
     67.9110	  410.00	  400.07	 -486.57	   18.30
     67.9444	  467.00	  423.18	 -452.68	   18.30
     67.9779	  389.00	  368.43	 -475.93	   18.30
     68.0113	  234.00	  295.72	 -558.22	   18.30
     68.0447	  208.00	  252.86	 -541.36	   18.30
     68.0781	  231.00	  247.31	 -512.81	   18.30
     68.1115	  247.00	  252.67	 -502.17	   18.30
     68.1450	  209.00	  231.39	 -518.89	   18.30
     68.1784	  190.00	  181.70	 -488.20	   18.30
     68.2118	  108.00	  128.90	 -517.40	   18.30
     68.2452	   76.00	   88.64	 -509.14	   18.30
     68.2787	   50.00	   63.77	 -510.27	   18.30
     68.3121	   65.00	   50.44	 -481.94	   18.30
     68.3455	   36.00	   43.62	 -504.12	   18.30
     68.3789	   36.00	   39.88	 -500.38	   18.30
     68.4123	   32.00	   37.53	 -502.03	   18.30
     68.4458	   33.00	   35.89	 -499.39	   18.30
     68.4792	   28.00	   34.70	 -503.20	   18.30
     68.5126	   36.00	   33.83	 -494.33	   18.30
     68.5460	   35.00	   33.22	 -494.72	   18.30
     68.5795	   38.00	   32.83	 -491.33	   18.30
     68.6129	   38.00	   32.63	 -491.13	   18.30
     68.6463	   38.00	   32.62	 -491.12	   18.30
     68.6797	   35.00	   32.80	 -494.30	   18.30
     68.7132	   30.00	   33.20	 -499.70	   18.29
     68.7466	   40.00	   33.88	 -490.38	   18.29
     68.7800	   47.00	   34.93	 -484.43	   18.29
     68.8134	   46.00	   36.59	 -487.09	   18.29
     68.8468	   36.00	   39.43	 -499.93	   18.29
     68.8803	   62.00	   44.98	 -479.48	   18.29
     68.9137	   64.00	   56.44	 -488.94	   18.29
     68.9471	   67.00	   78.63	 -508.13	   18.29
     68.9805	   96.00	  115.48	 -515.98	   18.29
     69.0140	  136.00	  164.55	 -525.05	   18.29
     69.0474	  214.00	  210.48	 -492.98	   18.29
     69.0808	  200.00	  225.09	 -521.59	   18.29
     69.1142	  219.00	  199.72	 -477.22	   18.29
     69.1476	  126.00	  162.39	 -532.89	   18.29
     69.1811	  123.00	  138.47	 -511.97	   18.29
     69.2145	  125.00	  133.97	 -505.47	   18.29
     69.2479	  111.00	  138.10	 -523.60	   18.29
     69.2813	  116.00	  131.58	 -512.08	   18.29
     69.3148	  125.00	  109.05	 -480.55	   18.29
     69.3482	   80.00	   82.24	 -498.74	   18.29
     69.3816	   45.00	   60.52	 -512.02	   18.29
     69.4150	   52.00	   46.48	 -490.98	   18.29
     69.4484	   31.00	   38.69	 -504.19	   18.29
     69.4819	   37.00	   34.65	 -494.15	   18.29
     69.5153	   37.00	   32.44	 -491.94	   18.29
     69.5487	   30.00	   31.04	 -497.54	   18.29
     69.5821	   21.00	   30.04	 -505.54	   18.29
     69.6156	   30.00	   29.28	 -495.78	   18.29
     69.6490	   31.00	   28.67	 -494.17	   18.29
     69.6824	   21.00	   28.18	 -503.68	   18.29
     69.7158	   20.00	   27.78	 -504.28	   18.29
     69.7492	   22.00	   27.44	 -501.94	   18.29
     69.7827	   22.00	   27.15	 -501.65	   18.29
     69.8161	   33.00	   26.91	 -490.41	   18.29
     69.8495	   27.00	   26.70	 -496.20	   18.29
     69.8829	   32.00	   26.51	 -491.01	   18.29
     69.9164	   22.00	   26.35	 -500.85	   18.29
     69.9498	   20.00	   26.21	 -502.71	   18.29
     69.9832	   26.00	   26.09	 -496.59	   18.29
     70.0166	   18.00	   25.97	 -504.47	   18.29
     70.0500	   28.00	   25.87	 -494.37	   18.29
     70.0835	   33.00	   25.78	 -489.28	   18.29
     70.1169	   31.00	   25.70	 -491.20	   18.29
     70.1503	   30.00	   25.63	 -492.13	   18.29
     70.1837	   27.00	   25.56	 -495.06	   18.29
     70.2172	   25.00	   25.50	 -497.00	   18.29
     70.2506	   30.00	   25.44	 -491.94	   18.29
     70.2840	   21.00	   25.39	 -500.89	   18.29
     70.3174	   30.00	   25.34	 -491.84	   18.29
     70.3509	   32.00	   25.30	 -489.80	   18.29
     70.3843	   18.00	   25.26	 -503.76	   18.29
     70.4177	   25.00	   25.22	 -496.72	   18.29
     70.4511	   28.00	   25.18	 -493.68	   18.29
     70.4845	   22.00	   25.14	 -499.64	   18.29
     70.5180	   26.00	   25.11	 -495.61	   18.29
     70.5514	   23.00	   25.08	 -498.58	   18.29
     70.5848	   23.00	   25.05	 -498.55	   18.29
     70.6182	   27.00	   25.03	 -494.53	   18.29
     70.6517	   30.00	   25.00	 -491.50	   18.29
     70.6851	   37.00	   24.98	 -484.48	   18.29
     70.7185	   35.00	   24.96	 -486.46	   18.29
     70.7519	   22.00	   24.94	 -499.44	   18.29
     70.7853	   21.00	   24.92	 -500.42	   18.29
     70.8188	   33.00	   24.90	 -488.40	   18.29
     70.8522	   25.00	   24.89	 -496.39	   18.29
     70.8856	   25.00	   24.87	 -496.37	   18.29
     70.9190	   17.00	   24.86	 -504.36	   18.29
     70.9525	   38.00	   24.85	 -483.35	   18.29
     70.9859	   22.00	   24.83	 -499.33	   18.29
     71.0193	   27.00	   24.82	 -494.32	   18.29
     71.0527	   23.00	   24.81	 -498.31	   18.29
     71.0862	   18.00	   24.80	 -503.30	   18.29
     71.1196	   27.00	   24.79	 -494.29	   18.29
     71.1530	   35.00	   24.78	 -486.28	   18.29
     71.1864	   27.00	   24.78	 -494.28	   18.29
     71.2198	   23.00	   24.77	 -498.27	   18.29
     71.2533	   22.00	   24.76	 -499.26	   18.29
     71.2867	   25.00	   24.76	 -496.26	   18.29
     71.3201	   13.00	   24.75	 -508.25	   18.29
     71.3535	   26.00	   24.75	 -495.25	   18.29
     71.3870	   21.00	   24.75	 -500.25	   18.28
     71.4204	   28.00	   24.74	 -493.24	   18.28
     71.4538	   27.00	   24.74	 -494.24	   18.28
     71.4872	   21.00	   24.74	 -500.24	   18.28
     71.5206	   23.00	   24.74	 -498.24	   18.28
     71.5541	   23.00	   24.74	 -498.24	   18.28
     71.5875	   27.00	   24.74	 -494.24	   18.28
     71.6209	   21.00	   24.75	 -500.25	   18.28
     71.6543	   20.00	   24.75	 -501.25	   18.28
     71.6878	   28.00	   24.76	 -493.26	   18.28
     71.7212	   22.00	   24.77	 -499.27	   18.28
     71.7546	   26.00	   24.78	 -495.28	   18.28
     71.7880	   20.00	   24.79	 -501.29	   18.28
     71.8214	   28.00	   24.80	 -493.30	   18.28
     71.8549	   23.00	   24.82	 -498.32	   18.28
     71.8883	   26.00	   24.84	 -495.34	   18.28
     71.9217	   18.00	   24.86	 -503.36	   18.28
     71.9551	   31.00	   24.89	 -490.39	   18.28
     71.9886	   16.00	   24.93	 -505.43	   18.28
     72.0220	   22.00	   24.97	 -499.47	   18.28
     72.0554	   31.00	   25.02	 -490.52	   18.28
     72.0888	   26.00	   25.02	 -495.52	   18.28
     72.1222	   18.00	   25.09	 -503.59	   18.28
     72.1557	   18.00	   25.19	 -503.69	   18.28
     72.1891	   17.00	   25.32	 -504.82	   18.28
     72.2225	   32.00	   25.48	 -489.98	   18.28
     72.2559	   20.00	   25.70	 -502.20	   18.28
     72.2894	   26.00	   25.97	 -496.47	   18.28
     72.3228	   22.00	   26.48	 -500.98	   18.28
     72.3562	   33.00	   27.42	 -490.92	   18.28
     72.3896	   43.00	   29.32	 -482.82	   18.28
     72.4230	   32.00	   32.91	 -497.41	   18.28
     72.4565	   31.00	   38.78	 -504.28	   18.28
     72.4899	   30.00	   46.57	 -513.07	   18.28
     72.5233	   45.00	   53.94	 -505.44	   18.28
     72.5567	   51.00	   56.53	 -502.03	   18.28
     72.5902	   52.00	   52.64	 -497.14	   18.28
     72.6236	   41.00	   46.40	 -501.90	   18.28
     72.6570	   32.00	   41.98	 -506.48	   18.28
     72.6904	   42.00	   40.79	 -495.29	   18.28
     72.7239	   48.00	   41.77	 -490.27	   18.28
     72.7573	   36.00	   42.11	 -502.61	   18.28
     72.7907	   54.00	   39.68	 -482.18	   18.28
     72.8241	   46.00	   35.54	 -486.04	   18.28
     72.8575	   38.00	   31.62	 -490.12	   18.28
     72.8910	   20.00	   28.80	 -505.30	   18.28
     72.9244	   20.00	   27.11	 -503.61	   18.28
     72.9578	   27.00	   26.21	 -495.71	   18.28
     72.9912	   32.00	   25.73	 -490.23	   18.28
     73.0247	   21.00	   25.46	 -500.96	   18.28
     73.0581	   27.00	   25.27	 -494.77	   18.28
     73.0915	   30.00	   25.14	 -491.64	   18.28
     73.1249	   23.00	   25.03	 -498.53	   18.28
     73.1583	   27.00	   24.95	 -494.45	   18.28
     73.1918	   23.00	   24.88	 -498.38	   18.28
     73.2252	   27.00	   24.82	 -494.32	   18.28
     73.2586	   27.00	   24.74	 -494.24	   18.28
     73.2920	   28.00	   24.70	 -493.20	   18.28
     73.3255	   22.00	   24.67	 -499.17	   18.28
     73.3589	   22.00	   24.64	 -499.14	   18.28
     73.3923	   25.00	   24.61	 -496.11	   18.28
     73.4257	   30.00	   24.59	 -491.09	   18.28
     73.4592	   25.00	   24.55	 -496.05	   18.28
     73.4926	   25.00	   24.54	 -496.04	   18.28
     73.5260	   23.00	   24.52	 -498.02	   18.28
     73.5594	   18.00	   24.51	 -503.01	   18.28
     73.5928	   32.00	   24.50	 -489.00	   18.28
     73.6263	   18.00	   24.49	 -502.99	   18.28
     73.6597	   25.00	   24.48	 -495.98	   18.28
     73.6931	   21.00	   24.47	 -499.97	   18.28
     73.7265	   22.00	   24.46	 -498.96	   18.28
     73.7599	   28.00	   24.46	 -492.96	   18.28
     73.7934	   30.00	   24.45	 -490.95	   18.28
     73.8268	   27.00	   24.44	 -493.94	   18.28
     73.8602	   20.00	   24.44	 -500.94	   18.28
     73.8936	   18.00	   24.43	 -502.93	   18.28
     73.9271	   35.00	   24.43	 -485.93	   18.28
     73.9605	   30.00	   24.43	 -490.93	   18.28
     73.9939	   31.00	   24.42	 -489.92	   18.28
     74.0273	   25.00	   24.42	 -495.92	   18.28
     74.0608	   21.00	   24.42	 -499.92	   18.28
     74.0942	   33.00	   24.41	 -487.91	   18.27
     74.1276	   15.00	   24.41	 -505.91	   18.27
     74.1610	   18.00	   24.41	 -502.91	   18.27
     74.1944	   21.00	   24.41	 -499.91	   18.27
     74.2279	   21.00	   24.41	 -499.91	   18.27
     74.2613	   36.00	   24.41	 -484.91	   18.27
     74.2947	   22.00	   24.40	 -498.90	   18.27
     74.3281	   18.00	   24.40	 -502.90	   18.27
     74.3616	   32.00	   24.40	 -488.90	   18.27
     74.3950	   27.00	   24.40	 -493.90	   18.27
     74.4284	   31.00	   24.40	 -489.90	   18.27
     74.4618	   23.00	   24.40	 -497.90	   18.27
     74.4952	   35.00	   24.40	 -485.90	   18.27
     74.5287	   20.00	   24.40	 -500.90	   18.27
     74.5621	   13.00	   24.40	 -507.90	   18.27
     74.5955	   25.00	   24.40	 -495.90	   18.27
     74.6289	   18.00	   24.40	 -502.90	   18.27
     74.6624	   23.00	   24.40	 -497.90	   18.27
     74.6958	   36.00	   24.40	 -484.90	   18.27
     74.7292	   27.00	   24.40	 -493.90	   18.27
     74.7626	   22.00	   24.40	 -498.90	   18.27
     74.7961	   28.00	   24.40	 -492.90	   18.27
     74.8295	   27.00	   24.40	 -493.90	   18.27
     74.8629	   33.00	   24.40	 -487.90	   18.27
     74.8963	   30.00	   24.40	 -490.90	   18.27
     74.9297	   21.00	   24.41	 -499.91	   18.27
     74.9632	   27.00	   24.41	 -493.91	   18.27
     74.9966	   35.00	   24.41	 -485.91	   18.27
     75.0300	   28.00	   24.41	 -492.91	   18.27
     75.0634	   20.00	   24.41	 -500.91	   18.27
     75.0969	   30.00	   24.41	 -490.91	   18.27
     75.1303	   30.00	   24.42	 -490.92	   18.27
     75.1637	   23.00	   24.42	 -497.92	   18.27
     75.1971	   28.00	   24.42	 -492.92	   18.27
     75.2305	   22.00	   24.42	 -498.92	   18.27
     75.2640	   23.00	   24.43	 -497.93	   18.27
     75.2974	   15.00	   24.43	 -505.93	   18.27
     75.3308	   25.00	   24.43	 -495.93	   18.27
     75.3642	   33.00	   24.44	 -487.94	   18.27
     75.3977	   27.00	   24.44	 -493.94	   18.27
     75.4311	   31.00	   24.45	 -489.95	   18.27
     75.4645	   26.00	   24.45	 -494.95	   18.27
     75.4979	   18.00	   24.46	 -502.96	   18.27
     75.5313	   17.00	   24.46	 -503.96	   18.27
     75.5648	   15.00	   24.47	 -505.97	   18.27
     75.5982	   26.00	   24.47	 -494.97	   18.27
     75.6316	   18.00	   24.48	 -502.98	   18.27
     75.6650	   31.00	   24.49	 -489.99	   18.27
     75.6985	   25.00	   24.50	 -496.00	   18.27
     75.7319	   25.00	   24.51	 -496.01	   18.27
     75.7653	   20.00	   24.52	 -501.02	   18.27
     75.7987	   26.00	   24.53	 -495.03	   18.27
     75.8321	   23.00	   24.54	 -498.04	   18.27
     75.8656	   26.00	   24.55	 -495.05	   18.27
     75.8990	   25.00	   24.57	 -496.07	   18.27
     75.9324	   26.00	   24.58	 -495.08	   18.27
     75.9658	   28.00	   24.60	 -493.10	   18.27
     75.9993	   25.00	   24.62	 -496.12	   18.27
     76.0327	   28.00	   24.64	 -493.14	   18.27
     76.0661	   27.00	   24.66	 -494.16	   18.27
     76.0995	   17.00	   24.69	 -504.19	   18.27
     76.1329	   25.00	   24.71	 -496.21	   18.27
     76.1664	   23.00	   24.75	 -498.25	   18.27
     76.1998	   32.00	   24.78	 -489.28	   18.27
     76.2332	   25.00	   24.83	 -496.33	   18.27
     76.2666	   21.00	   24.87	 -500.37	   18.27
     76.3001	   33.00	   24.93	 -488.43	   18.27
     76.3335	   25.00	   24.99	 -496.49	   18.27
     76.3669	   22.00	   25.07	 -499.57	   18.27
     76.4003	   21.00	   25.15	 -500.65	   18.27
     76.4338	   25.00	   25.26	 -496.76	   18.27
     76.4672	   31.00	   25.38	 -490.88	   18.27
     76.5006	   22.00	   25.53	 -500.03	   18.27
     76.5340	   21.00	   25.71	 -501.21	   18.27
     76.5674	   26.00	   25.94	 -496.44	   18.27
     76.6009	   35.00	   26.23	 -487.73	   18.27
     76.6343	   21.00	   26.62	 -502.12	   18.27
     76.6677	   33.00	   27.15	 -490.65	   18.27
     76.7011	   26.00	   27.96	 -498.46	   18.27
     76.7346	   32.00	   29.39	 -493.89	   18.27
     76.7680	   20.00	   32.18	 -508.68	   18.26
     76.8014	   35.00	   37.57	 -499.07	   18.26
     76.8348	   46.00	   46.86	 -497.36	   18.26
     76.8682	   55.00	   60.33	 -501.83	   18.26
     76.9017	   84.00	   75.55	 -488.05	   18.26
     76.9351	   76.00	   85.88	 -506.38	   18.26
     76.9685	   66.00	   84.14	 -514.64	   18.26
     77.0019	   77.00	   72.96	 -492.46	   18.26
     77.0354	   45.00	   61.22	 -512.72	   18.26
     77.0688	   48.00	   54.57	 -503.07	   18.26
     77.1022	   59.00	   54.04	 -491.54	   18.26
     77.1356	   42.00	   57.03	 -511.53	   18.26
     77.1691	   71.00	   58.32	 -483.82	   18.26
     77.2025	   50.00	   54.12	 -500.62	   18.26
     77.2359	   51.00	   46.44	 -491.94	   18.26
     77.2693	   45.00	   38.93	 -490.43	   18.26
     77.3027	   35.00	   33.35	 -494.85	   18.26
     77.3362	   31.00	   29.91	 -495.41	   18.26
     77.3696	   31.00	   28.02	 -493.52	   18.26
     77.4030	   37.00	   27.02	 -486.52	   18.26
     77.4364	   37.00	   26.45	 -485.95	   18.26
     77.4699	   23.00	   26.08	 -499.58	   18.26
     77.5033	   28.00	   25.81	 -494.31	   18.26
     77.5367	   30.00	   25.60	 -492.10	   18.26
     77.5701	   28.00	   25.43	 -493.93	   18.26
     77.6035	   32.00	   25.29	 -489.79	   18.26
     77.6370	   16.00	   25.18	 -505.68	   18.26
     77.6704	   17.00	   25.09	 -504.59	   18.26
     77.7038	   26.00	   25.01	 -495.51	   18.26
     77.7372	   35.00	   24.94	 -486.44	   18.26
     77.7707	   41.00	   24.88	 -480.38	   18.26
     77.8041	   32.00	   24.83	 -489.33	   18.26
     77.8375	   27.00	   24.79	 -494.29	   18.26
     77.8709	   22.00	   24.75	 -499.25	   18.26
     77.9043	   22.00	   24.72	 -499.22	   18.26
     77.9378	   12.00	   24.69	 -509.19	   18.26
     77.9712	   23.00	   24.66	 -498.16	   18.26
     78.0046	   23.00	   24.64	 -498.14	   18.26
     78.0380	   22.00	   24.61	 -499.11	   18.26
     78.0715	   40.00	   24.59	 -481.09	   18.26
     78.1049	   21.00	   24.58	 -500.08	   18.26
     78.1383	   16.00	   24.56	 -505.06	   18.26
     78.1717	   20.00	   24.55	 -501.05	   18.26
     78.2051	   18.00	   24.53	 -503.03	   18.26
     78.2386	   21.00	   24.52	 -500.02	   18.26
     78.2720	   26.00	   24.51	 -495.01	   18.26
     78.3054	   23.00	   24.50	 -498.00	   18.26
     78.3388	   18.00	   24.49	 -502.99	   18.26
     78.3723	   30.00	   24.48	 -490.98	   18.26
     78.4057	   21.00	   24.47	 -499.97	   18.26
     78.4391	   27.00	   24.47	 -493.97	   18.26
     78.4725	   20.00	   24.46	 -500.96	   18.26
     78.5060	   27.00	   24.45	 -493.95	   18.26
     78.5394	   11.00	   24.45	 -509.95	   18.26
     78.5728	   18.00	   24.44	 -502.94	   18.26
     78.6062	   15.00	   24.44	 -505.94	   18.26
     78.6396	   17.00	   24.43	 -503.93	   18.26
     78.6731	   27.00	   24.43	 -493.93	   18.26
     78.7065	   26.00	   24.42	 -494.92	   18.26
     78.7399	   33.00	   24.42	 -487.92	   18.26
     78.7733	   26.00	   24.42	 -494.92	   18.26
     78.8068	   25.00	   24.41	 -495.91	   18.26
     78.8402	   28.00	   24.41	 -492.91	   18.26
     78.8736	   37.00	   24.41	 -483.91	   18.26
     78.9070	   26.00	   24.40	 -494.90	   18.26
     78.9404	   28.00	   24.40	 -492.90	   18.26
     78.9739	   11.00	   24.40	 -509.90	   18.26
     79.0073	   22.00	   24.40	 -498.90	   18.26
     79.0407	   32.00	   24.40	 -488.90	   18.26
     79.0741	   21.00	   24.39	 -499.89	   18.26
     79.1076	   21.00	   24.39	 -499.89	   18.26
     79.1410	   31.00	   24.39	 -489.89	   18.26
     79.1744	   21.00	   24.39	 -499.89	   18.26
     79.2078	   23.00	   24.39	 -497.89	   18.26
     79.2412	   25.00	   24.39	 -495.89	   18.26
     79.2747	   35.00	   24.39	 -485.89	   18.26
     79.3081	   32.00	   24.39	 -488.89	   18.26
     79.3415	   26.00	   24.39	 -494.89	   18.26
     79.3749	   12.00	   24.38	 -508.88	   18.26
     79.4084	   20.00	   24.38	 -500.88	   18.26
     79.4418	   21.00	   24.38	 -499.88	   18.25
     79.4752	   16.00	   24.38	 -504.88	   18.25
     79.5086	   25.00	   24.38	 -495.88	   18.25
     79.5421	   25.00	   24.38	 -495.88	   18.25
     79.5755	   38.00	   24.38	 -482.88	   18.25
     79.6089	   20.00	   24.39	 -500.89	   18.25
     79.6423	   26.00	   24.39	 -494.89	   18.25
     79.6757	   21.00	   24.39	 -499.89	   18.25
     79.7092	   35.00	   24.39	 -485.89	   18.25
     79.7426	   40.00	   24.39	 -480.89	   18.25
     79.7760	   30.00	   24.39	 -490.89	   18.25
     79.8094	   21.00	   24.39	 -499.89	   18.25
     79.8428	   17.00	   24.39	 -503.89	   18.25
     79.8763	   23.00	   24.39	 -497.89	   18.25
     79.9097	   16.00	   24.40	 -504.90	   18.25
     79.9431	   30.00	   24.40	 -490.90	   18.25
     79.9765	   25.00	   24.40	 -495.90	   18.25
     80.0100	   33.00	   24.40	 -487.90	   18.25
     80.0434	   28.00	   24.41	 -492.91	   18.25
     80.0768	   23.00	   24.41	 -497.91	   18.25
     80.1102	   21.00	   24.41	 -499.91	   18.25
     80.1437	   32.00	   24.42	 -488.92	   18.25
     80.1771	   18.00	   24.42	 -502.92	   18.25
     80.2105	   25.00	   24.43	 -495.93	   18.25
     80.2439	   26.00	   24.43	 -494.93	   18.25
     80.2773	   30.00	   24.44	 -490.94	   18.25
     80.3108	   26.00	   24.45	 -494.95	   18.25
     80.3442	   26.00	   24.45	 -494.95	   18.25
     80.3776	   25.00	   24.46	 -495.96	   18.25
     80.4110	   27.00	   24.47	 -493.97	   18.25
     80.4445	   37.00	   24.48	 -483.98	   18.25
     80.4779	   20.00	   24.49	 -500.99	   18.25
     80.5113	   26.00	   24.51	 -495.01	   18.25
     80.5447	   25.00	   24.52	 -496.02	   18.25
     80.5781	   23.00	   24.54	 -498.04	   18.25
     80.6116	   26.00	   24.56	 -495.06	   18.25
     80.6450	   40.00	   24.58	 -481.08	   18.25
     80.6784	   20.00	   24.60	 -501.10	   18.25
     80.7118	   31.00	   24.63	 -490.13	   18.25
     80.7453	   35.00	   24.66	 -486.16	   18.25
     80.7787	   23.00	   24.70	 -498.20	   18.25
     80.8121	   25.00	   24.74	 -496.24	   18.25
     80.8455	   28.00	   24.80	 -493.30	   18.25
     80.8790	   25.00	   24.86	 -496.36	   18.25
     80.9124	   30.00	   24.93	 -491.43	   18.25
     80.9458	   22.00	   25.03	 -499.53	   18.25
     80.9792	   17.00	   25.14	 -504.64	   18.25
     81.0126	   28.00	   25.29	 -493.79	   18.25
     81.0461	   20.00	   25.47	 -501.97	   18.25
     81.0795	   22.00	   25.73	 -500.23	   18.25
     81.1129	   28.00	   26.11	 -494.61	   18.25
     81.1463	   28.00	   26.75	 -495.25	   18.25
     81.1798	   30.00	   27.97	 -494.47	   18.25
     81.2132	   32.00	   30.32	 -494.82	   18.25
     81.2466	   50.00	   34.44	 -480.94	   18.25
     81.2800	   48.00	   40.68	 -489.18	   18.25
     81.3134	   62.00	   48.30	 -482.80	   18.25
     81.3469	   41.00	   54.81	 -510.31	   18.25
     81.3803	   45.00	   56.27	 -507.77	   18.25
     81.4137	   45.00	   51.83	 -503.33	   18.25
     81.4471	   46.00	   45.28	 -495.78	   18.25
     81.4806	   31.00	   40.24	 -505.74	   18.25
     81.5140	   17.00	   38.23	 -517.73	   18.25
     81.5474	   36.00	   39.00	 -499.50	   18.25
     81.5808	   30.00	   40.97	 -507.47	   18.25
     81.6143	   47.00	   41.62	 -491.12	   18.25
     81.6477	   47.00	   39.42	 -488.92	   18.25
     81.6811	   38.00	   35.56	 -494.06	   18.25
     81.7145	   31.00	   31.80	 -497.30	   18.25
     81.7479	   28.00	   28.99	 -497.49	   18.25
     81.7814	   25.00	   27.23	 -498.73	   18.25
     81.8148	   16.00	   26.24	 -506.74	   18.25
     81.8482	   30.00	   25.71	 -492.21	   18.25
     81.8816	   30.00	   25.41	 -491.91	   18.25
     81.9151	   21.00	   25.21	 -500.71	   18.25
     81.9485	   26.00	   25.07	 -495.57	   18.25
     81.9819	   21.00	   24.96	 -500.46	   18.25
     82.0153	   22.00	   24.87	 -499.37	   18.25
     82.0487	   27.00	   24.80	 -494.30	   18.25
     82.0822	   27.00	   24.74	 -494.24	   18.25
     82.1156	   23.00	   24.69	 -498.19	   18.25
     82.1490	   21.00	   24.65	 -500.15	   18.24
     82.1824	   27.00	   24.62	 -494.12	   18.24
     82.2159	   30.00	   24.59	 -491.09	   18.24
     82.2493	   22.00	   24.56	 -499.06	   18.24
     82.2827	   16.00	   24.54	 -505.04	   18.24
     82.3161	   28.00	   24.51	 -493.01	   18.24
     82.3495	   26.00	   24.50	 -495.00	   18.24
     82.3830	   26.00	   24.48	 -494.98	   18.24
     82.4164	   23.00	   24.47	 -497.97	   18.24
     82.4498	   27.00	   24.45	 -493.95	   18.24
     82.4832	   32.00	   24.44	 -488.94	   18.24
     82.5167	   27.00	   24.43	 -493.93	   18.24
     82.5501	   15.00	   24.42	 -505.92	   18.24
     82.5835	   28.00	   24.41	 -492.91	   18.24
     82.6169	   25.00	   24.40	 -495.90	   18.24
     82.6503	   26.00	   24.40	 -494.90	   18.24
     82.6838	   33.00	   24.39	 -487.89	   18.24
     82.7172	   28.00	   24.38	 -492.88	   18.24
     82.7506	   28.00	   24.38	 -492.88	   18.24
     82.7840	   18.00	   24.37	 -502.87	   18.24
     82.8175	   26.00	   24.37	 -494.87	   18.24
     82.8509	   20.00	   24.36	 -500.86	   18.24
     82.8843	   27.00	   24.36	 -493.86	   18.24
     82.9177	   23.00	   24.36	 -497.86	   18.24
     82.9511	   30.00	   24.35	 -490.85	   18.24
     82.9846	   23.00	   24.35	 -497.85	   18.24
     83.0180	   30.00	   24.35	 -490.85	   18.24
     83.0514	   26.00	   24.34	 -494.84	   18.24
     83.0848	   28.00	   24.34	 -492.84	   18.24
     83.1183	   32.00	   24.34	 -488.84	   18.24
     83.1517	   26.00	   24.33	 -494.83	   18.24
     83.1851	   27.00	   24.33	 -493.83	   18.24
     83.2185	   11.00	   24.33	 -509.83	   18.24
     83.2520	   27.00	   24.33	 -493.83	   18.24
     83.2854	   28.00	   24.33	 -492.83	   18.24
     83.3188	   37.00	   24.32	 -483.82	   18.24
     83.3522	   22.00	   24.32	 -498.82	   18.24
     83.3856	   28.00	   24.32	 -492.82	   18.24
     83.4191	   22.00	   24.32	 -498.82	   18.24
     83.4525	   37.00	   24.32	 -483.82	   18.24
     83.4859	   25.00	   24.32	 -495.82	   18.24
     83.5193	   23.00	   24.31	 -497.81	   18.24
     83.5528	   28.00	   24.31	 -492.81	   18.24
     83.5862	   23.00	   24.31	 -497.81	   18.24
     83.6196	   26.00	   24.31	 -494.81	   18.24
     83.6530	   23.00	   24.31	 -497.81	   18.24
     83.6864	   25.00	   24.31	 -495.81	   18.24
     83.7199	   22.00	   24.31	 -498.81	   18.24
     83.7533	   25.00	   24.31	 -495.81	   18.24
     83.7867	   28.00	   24.30	 -492.80	   18.24
     83.8201	   25.00	   24.30	 -495.80	   18.24
     83.8536	   31.00	   24.30	 -489.80	   18.24
     83.8870	   21.00	   24.30	 -499.80	   18.24
     83.9204	   36.00	   24.30	 -484.80	   18.24
     83.9538	   33.00	   24.30	 -487.80	   18.24
     83.9873	   23.00	   24.30	 -497.80	   18.24
     84.0207	   37.00	   24.30	 -483.80	   18.24
     84.0541	   27.00	   24.30	 -493.80	   18.24
     84.0875	   22.00	   24.30	 -498.80	   18.24
     84.1209	   23.00	   24.30	 -497.80	   18.24
     84.1544	   27.00	   24.30	 -493.80	   18.24
     84.1878	   27.00	   24.29	 -493.79	   18.24
     84.2212	   28.00	   24.29	 -492.79	   18.24
     84.2546	   23.00	   24.29	 -497.79	   18.24
     84.2880	   31.00	   24.29	 -489.79	   18.24
     84.3215	   25.00	   24.29	 -495.79	   18.24
     84.3549	   21.00	   24.29	 -499.79	   18.24
     84.3883	   30.00	   24.29	 -490.79	   18.24
     84.4217	   23.00	   24.29	 -497.79	   18.24
     84.4552	   23.00	   24.29	 -497.79	   18.24
     84.4886	   25.00	   24.29	 -495.79	   18.24
     84.5220	   16.00	   24.29	 -504.79	   18.24
     84.5554	   25.00	   24.29	 -495.79	   18.24
     84.5889	   18.00	   24.29	 -502.79	   18.24
     84.6223	   22.00	   24.29	 -498.79	   18.24
     84.6557	   38.00	   24.29	 -482.79	   18.24
     84.6891	   25.00	   24.29	 -495.79	   18.24
     84.7225	   25.00	   24.29	 -495.79	   18.24
     84.7560	   31.00	   24.29	 -489.79	   18.24
     84.7894	   16.00	   24.28	 -504.78	   18.24
     84.8228	   35.00	   24.28	 -485.78	   18.23
     84.8562	   28.00	   24.28	 -492.78	   18.23
     84.8897	   22.00	   24.28	 -498.78	   18.23
     84.9231	   17.00	   24.28	 -503.78	   18.23
     84.9565	   32.00	   24.31	 -488.81	   18.23
     84.9899	   36.00	   24.31	 -484.81	   18.23
     85.0233	   17.00	   24.31	 -503.81	   18.23
     85.0568	   16.00	   24.31	 -504.81	   18.23
     85.0902	   28.00	   24.31	 -492.81	   18.23
     85.1236	   31.00	   24.31	 -489.81	   18.23
     85.1570	   25.00	   24.31	 -495.81	   18.23
     85.1905	   35.00	   24.31	 -485.81	   18.23
     85.2239	   27.00	   24.32	 -493.82	   18.23
     85.2573	   20.00	   24.32	 -500.82	   18.23
     85.2907	   30.00	   24.32	 -490.82	   18.23
     85.3242	   23.00	   24.32	 -497.82	   18.23
     85.3576	   35.00	   24.32	 -485.82	   18.23
     85.3910	   18.00	   24.32	 -502.82	   18.23
     85.4244	   32.00	   24.32	 -488.82	   18.23
     85.4578	   30.00	   24.32	 -490.82	   18.23
     85.4913	   18.00	   24.32	 -502.82	   18.23
     85.5247	   20.00	   24.32	 -500.82	   18.23
     85.5581	   22.00	   24.32	 -498.82	   18.23
     85.5915	   36.00	   24.32	 -484.82	   18.23
     85.6250	   28.00	   24.32	 -492.82	   18.23
     85.6584	   20.00	   24.32	 -500.82	   18.23
     85.6918	   26.00	   24.32	 -494.82	   18.23
     85.7252	   31.00	   24.33	 -489.83	   18.23
     85.7586	   33.00	   24.33	 -487.83	   18.23
     85.7921	   18.00	   24.33	 -502.83	   18.23
     85.8255	   28.00	   24.33	 -492.83	   18.23
     85.8589	   27.00	   24.32	 -493.82	   18.23
     85.8923	   22.00	   24.32	 -498.82	   18.23
     85.9258	   20.00	   24.32	 -500.82	   18.23
     85.9592	   22.00	   24.32	 -498.82	   18.23
     85.9926	   20.00	   24.33	 -500.83	   18.23
     86.0260	   31.00	   24.33	 -489.83	   18.23
     86.0594	   38.00	   24.33	 -482.83	   18.23
     86.0929	   37.00	   24.33	 -483.83	   18.23
     86.1263	   11.00	   24.33	 -509.83	   18.23
     86.1597	   26.00	   24.33	 -494.83	   18.23
     86.1931	   23.00	   24.33	 -497.83	   18.23
     86.2266	   17.00	   24.33	 -503.83	   18.23
     86.2600	   32.00	   24.33	 -488.83	   18.23
     86.2934	   16.00	   24.33	 -504.83	   18.23
     86.3268	   17.00	   24.33	 -503.83	   18.23
     86.3602	   32.00	   24.33	 -488.83	   18.23
     86.3937	   20.00	   24.34	 -500.84	   18.23
     86.4271	   26.00	   24.34	 -494.84	   18.23
     86.4605	   16.00	   24.34	 -504.84	   18.23
     86.4939	   21.00	   24.34	 -499.84	   18.23
     86.5274	   28.00	   24.34	 -492.84	   18.23
     86.5608	   31.00	   24.34	 -489.84	   18.23
     86.5942	   21.00	   24.35	 -499.85	   18.23
     86.6276	   30.00	   24.35	 -490.85	   18.23
     86.6610	   31.00	   24.35	 -489.85	   18.23
     86.6945	   21.00	   24.35	 -499.85	   18.23
     86.7279	   27.00	   24.35	 -493.85	   18.23
     86.7613	   23.00	   24.35	 -497.85	   18.23
     86.7947	   17.00	   24.36	 -503.86	   18.23
     86.8282	   28.00	   24.36	 -492.86	   18.23
     86.8616	   26.00	   24.36	 -494.86	   18.23
     86.8950	   35.00	   24.36	 -485.86	   18.23
     86.9284	   21.00	   24.36	 -499.86	   18.23
     86.9619	   22.00	   24.37	 -498.87	   18.23
     86.9953	   22.00	   24.37	 -498.87	   18.23
     87.0287	   20.00	   24.37	 -500.87	   18.23
     87.0621	   15.00	   24.38	 -505.88	   18.23
     87.0955	   35.00	   24.38	 -485.88	   18.23
     87.1290	   22.00	   24.38	 -498.88	   18.23
     87.1624	   36.00	   24.38	 -484.88	   18.23
     87.1958	   13.00	   24.39	 -507.89	   18.23
     87.2292	   25.00	   24.39	 -495.89	   18.23
     87.2627	   20.00	   24.39	 -500.89	   18.23
     87.2961	   21.00	   24.40	 -499.90	   18.23
     87.3295	   25.00	   24.40	 -495.90	   18.23
     87.3629	   30.00	   24.41	 -490.91	   18.23
     87.3963	   18.00	   24.41	 -502.91	   18.23
     87.4298	   33.00	   24.41	 -487.91	   18.23
     87.4632	   27.00	   24.42	 -493.92	   18.23
     87.4966	   30.00	   24.42	 -490.92	   18.22
     87.5300	   17.00	   24.43	 -503.93	   18.22
     87.5635	   31.00	   24.43	 -489.93	   18.22
     87.5969	   17.00	   24.44	 -503.94	   18.22
     87.6303	   21.00	   24.45	 -499.95	   18.22
     87.6637	   22.00	   24.45	 -498.95	   18.22
     87.6972	   11.00	   24.46	 -509.96	   18.22
     87.7306	   20.00	   24.46	 -500.96	   18.22
     87.7640	   32.00	   24.47	 -488.97	   18.22
     87.7974	   18.00	   24.48	 -502.98	   18.22
     87.8308	   32.00	   24.49	 -488.99	   18.22
     87.8643	   50.00	   24.50	 -471.00	   18.22
     87.8977	   20.00	   24.50	 -501.00	   18.22
     87.9311	   22.00	   24.51	 -499.01	   18.22
     87.9645	   30.00	   24.52	 -491.02	   18.22
     87.9979	   32.00	   24.53	 -489.03	   18.22
     88.0314	   28.00	   24.55	 -493.05	   18.22
     88.0648	   31.00	   24.57	 -490.07	   18.22
     88.0982	   32.00	   24.58	 -489.08	   18.22
     88.1316	   20.00	   24.59	 -501.09	   18.22
     88.1651	   31.00	   24.61	 -490.11	   18.22
     88.1985	   23.00	   24.62	 -498.12	   18.22
     88.2319	   25.00	   24.64	 -496.14	   18.22
     88.2653	   25.00	   24.66	 -496.16	   18.22
     88.2988	   33.00	   24.68	 -488.18	   18.22
     88.3322	   17.00	   24.70	 -504.20	   18.22
     88.3656	   27.00	   24.73	 -494.23	   18.22
     88.3990	   22.00	   24.75	 -499.25	   18.22
     88.4324	   26.00	   24.78	 -495.28	   18.22
     88.4659	   38.00	   24.81	 -483.31	   18.22
     88.4993	   20.00	   24.84	 -501.34	   18.22
     88.5327	   27.00	   24.87	 -494.37	   18.22
     88.5661	   36.00	   24.91	 -485.41	   18.22
     88.5996	   31.00	   24.95	 -490.45	   18.22
     88.6330	   22.00	   24.99	 -499.49	   18.22
     88.6664	   27.00	   25.04	 -494.54	   18.22
     88.6998	   26.00	   25.10	 -495.60	   18.22
     88.7332	   28.00	   25.16	 -493.66	   18.22
     88.7667	   16.00	   25.23	 -505.73	   18.22
     88.8001	   26.00	   25.30	 -495.80	   18.22
     88.8335	   32.00	   25.39	 -489.89	   18.22
     88.8669	   22.00	   25.49	 -499.99	   18.22
     88.9004	   37.00	   25.60	 -485.10	   18.22
     88.9338	   38.00	   25.72	 -484.22	   18.22
     88.9672	   23.00	   25.87	 -499.37	   18.22
     89.0006	   28.00	   26.04	 -494.54	   18.22
     89.0340	   36.00	   26.23	 -486.73	   18.22
     89.0675	   32.00	   26.46	 -490.96	   18.22
     89.1009	   28.00	   26.74	 -495.24	   18.22
     89.1343	   21.00	   27.07	 -502.57	   18.22
     89.1677	   30.00	   27.47	 -493.97	   18.22
     89.2012	   33.00	   27.97	 -491.47	   18.22
     89.2346	   17.00	   28.59	 -508.09	   18.22
     89.2680	   23.00	   29.40	 -502.90	   18.22
     89.3014	   21.00	   30.52	 -506.02	   18.22
     89.3349	   32.00	   32.20	 -496.70	   18.22
     89.3683	   46.00	   35.06	 -485.56	   18.22
     89.4017	   45.00	   40.33	 -491.83	   18.22
     89.4351	   51.00	   50.02	 -495.52	   18.22
     89.4685	   51.00	   66.38	 -511.88	   18.22
     89.5020	   87.00	   90.44	 -499.94	   18.22
     89.5354	  101.00	  119.80	 -515.30	   18.22
     89.5688	  146.00	  146.16	 -496.66	   18.22
     89.6022	  163.00	  155.73	 -489.23	   18.22
     89.6357	  123.00	  142.12	 -515.62	   18.22
     89.6691	   95.00	  116.18	 -517.68	   18.22
     89.7025	   85.00	   91.79	 -503.29	   18.22
     89.7359	   65.00	   76.63	 -508.13	   18.22
     89.7693	   47.00	   72.81	 -522.31	   18.22
     89.8028	   70.00	   78.39	 -504.89	   18.22
     89.8362	  108.00	   88.22	 -476.72	   18.22
     89.8696	   91.00	   94.38	 -499.88	   18.22
     89.9030	  101.00	   90.02	 -485.52	   18.22
     89.9365	   79.00	   76.88	 -494.38	   18.22
     89.9699	   57.00	   61.67	 -501.17	   18.22
     90.0033	   43.00	   48.86	 -502.36	   18.22
     90.0367	   32.00	   39.92	 -504.42	   18.22
     90.0701	   33.00	   34.47	 -497.97	   18.22
     90.1036	   20.00	   31.40	 -507.90	   18.22
     90.1370	   37.00	   29.69	 -489.19	   18.22
     90.1704	   32.00	   28.66	 -493.16	   18.22
     90.2038	   32.00	   27.95	 -492.45	   18.21
     90.2373	   22.00	   27.43	 -501.93	   18.21
     90.2707	   28.00	   27.02	 -495.52	   18.21
     90.3041	   30.00	   26.69	 -493.19	   18.21
     90.3375	   30.00	   26.42	 -492.92	   18.21
     90.3709	   28.00	   26.19	 -494.69	   18.21
     90.4044	   27.00	   26.00	 -495.50	   18.21
     90.4378	   22.00	   25.86	 -500.36	   18.21
     90.4712	   27.00	   25.72	 -495.22	   18.21
     90.5046	   41.00	   25.60	 -481.10	   18.21
     90.5381	   18.00	   25.50	 -504.00	   18.21
     90.5715	   23.00	   25.41	 -498.91	   18.21
     90.6049	   21.00	   25.32	 -500.82	   18.21
     90.6383	   25.00	   25.25	 -496.75	   18.21
     90.6718	   25.00	   25.19	 -496.69	   18.21
     90.7052	   37.00	   25.13	 -484.63	   18.21
     90.7386	   32.00	   25.10	 -489.60	   18.21
     90.7720	   27.00	   25.05	 -494.55	   18.21
     90.8054	   26.00	   25.01	 -495.51	   18.21
     90.8389	   18.00	   24.97	 -503.47	   18.21
     90.8723	   32.00	   24.94	 -489.44	   18.21
     90.9057	   26.00	   24.91	 -495.41	   18.21
     90.9391	   27.00	   24.88	 -494.38	   18.21
     90.9726	   23.00	   24.86	 -498.36	   18.21
     91.0060	   23.00	   24.84	 -498.34	   18.21
     91.0394	   20.00	   24.82	 -501.32	   18.21
     91.0728	   16.00	   24.80	 -505.30	   18.21
     91.1062	   33.00	   24.78	 -488.28	   18.21
     91.1397	   25.00	   24.77	 -496.27	   18.21
     91.1731	   28.00	   24.76	 -493.26	   18.21
     91.2065	   32.00	   24.74	 -489.24	   18.21
     91.2399	   26.00	   24.73	 -495.23	   18.21
     91.2734	   28.00	   24.72	 -493.22	   18.21
     91.3068	   31.00	   24.72	 -490.22	   18.21
     91.3402	   25.00	   24.71	 -496.21	   18.21
     91.3736	   17.00	   24.70	 -504.20	   18.21
     91.4071	   22.00	   24.70	 -499.20	   18.21
     91.4405	   25.00	   24.70	 -496.20	   18.21
     91.4739	   31.00	   24.69	 -490.19	   18.21
     91.5073	   28.00	   24.69	 -493.19	   18.21
     91.5407	   21.00	   24.69	 -500.19	   18.21
     91.5742	   36.00	   24.69	 -485.19	   18.21
     91.6076	   26.00	   24.70	 -495.20	   18.21
     91.6410	   28.00	   24.70	 -493.20	   18.21
     91.6744	   28.00	   24.70	 -493.20	   18.21
     91.7079	   25.00	   24.71	 -496.21	   18.21
     91.7413	   22.00	   24.72	 -499.22	   18.21
     91.7747	   33.00	   24.73	 -488.23	   18.21
     91.8081	   33.00	   24.74	 -488.24	   18.21
     91.8415	   22.00	   24.75	 -499.25	   18.21
     91.8750	   27.00	   24.76	 -494.26	   18.21
     91.9084	   18.00	   24.78	 -503.28	   18.21
     91.9418	   35.00	   24.80	 -486.30	   18.21
     91.9752	   23.00	   24.82	 -498.32	   18.21
     92.0087	   25.00	   24.85	 -496.35	   18.21
     92.0421	   23.00	   24.88	 -498.38	   18.21
     92.0755	   33.00	   24.91	 -488.41	   18.21
     92.1089	   36.00	   24.95	 -485.45	   18.21
     92.1423	   30.00	   25.00	 -491.50	   18.21
     92.1758	   17.00	   25.06	 -504.56	   18.21
     92.2092	   26.00	   25.12	 -495.62	   18.21
     92.2426	   28.00	   25.20	 -493.70	   18.21
     92.2760	   27.00	   25.29	 -494.79	   18.21
     92.3095	   25.00	   25.40	 -496.90	   18.21
     92.3429	   27.00	   25.53	 -495.03	   18.21
     92.3763	   37.00	   25.69	 -485.19	   18.21
     92.4097	   27.00	   25.90	 -495.40	   18.21
     92.4431	   22.00	   26.17	 -500.67	   18.21
     92.4766	   31.00	   26.54	 -492.04	   18.21
     92.5100	   25.00	   27.09	 -498.59	   18.21
     92.5434	   31.00	   28.02	 -493.52	   18.21
     92.5768	   28.00	   29.71	 -498.21	   18.21
     92.6103	   32.00	   32.77	 -497.27	   18.21
     92.6437	   31.00	   37.89	 -503.39	   18.21
     92.6771	   38.00	   45.45	 -503.95	   18.21
     92.7105	   48.00	   54.81	 -503.31	   18.21
     92.7439	   77.00	   63.69	 -483.19	   18.21
     92.7774	   66.00	   67.91	 -498.41	   18.21
     92.8108	   43.00	   64.71	 -518.21	   18.21
     92.8442	   60.00	   56.66	 -493.16	   18.21
     92.8776	   37.00	   48.22	 -507.72	   18.20
     92.9111	   41.00	   42.18	 -497.68	   18.20
     92.9445	   47.00	   39.61	 -489.11	   18.20
     92.9779	   33.00	   40.34	 -503.84	   18.20
     93.0113	   41.00	   43.27	 -498.77	   18.20
     93.0448	   51.00	   46.50	 -492.00	   18.20
     93.0782	   50.00	   47.50	 -494.00	   18.20
     93.1116	   45.00	   44.97	 -496.47	   18.20
     93.1450	   37.00	   40.33	 -499.83	   18.20
     93.1784	   43.00	   35.55	 -489.05	   18.20
     93.2119	   23.00	   31.74	 -505.24	   18.20
     93.2453	   36.00	   29.16	 -489.66	   18.20
     93.2787	   30.00	   27.60	 -494.10	   18.20
     93.3121	   23.00	   26.73	 -500.23	   18.20
     93.3456	   26.00	   26.23	 -496.73	   18.20
     93.3790	   26.00	   25.92	 -496.42	   18.20
     93.4124	   25.00	   25.71	 -497.21	   18.20
     93.4458	   36.00	   25.55	 -486.05	   18.20
     93.4792	   27.00	   25.43	 -494.93	   18.20
     93.5127	   16.00	   25.33	 -505.83	   18.20
     93.5461	   22.00	   25.25	 -499.75	   18.20
     93.5795	   30.00	   25.19	 -491.69	   18.20
     93.6129	   27.00	   25.15	 -494.65	   18.20
     93.6464	   27.00	   25.10	 -494.60	   18.20
     93.6798	   22.00	   25.07	 -499.57	   18.20
     93.7132	   28.00	   25.04	 -493.54	   18.20
     93.7466	   27.00	   25.02	 -494.52	   18.20
     93.7801	   25.00	   25.00	 -496.50	   18.20
     93.8135	   40.00	   24.99	 -481.49	   18.20
     93.8469	   27.00	   24.98	 -494.48	   18.20
     93.8803	   30.00	   24.98	 -491.48	   18.20
     93.9137	   20.00	   24.98	 -501.48	   18.20
     93.9472	   31.00	   24.98	 -490.48	   18.20
     93.9806	   35.00	   24.99	 -486.49	   18.20
     94.0140	   20.00	   25.00	 -501.50	   18.20
     94.0474	   30.00	   25.01	 -491.51	   18.20
     94.0808	   35.00	   25.02	 -486.52	   18.20
     94.1143	   31.00	   25.04	 -490.54	   18.20
     94.1477	   25.00	   25.06	 -496.56	   18.20
     94.1811	   30.00	   25.08	 -491.58	   18.20
     94.2145	   27.00	   25.11	 -494.61	   18.20
     94.2480	   32.00	   25.14	 -489.64	   18.20
     94.2814	   30.00	   25.18	 -491.68	   18.20
     94.3148	   26.00	   25.22	 -495.72	   18.20
     94.3482	   26.00	   25.24	 -495.74	   18.20
     94.3817	   28.00	   25.30	 -493.80	   18.20
     94.4151	   27.00	   25.36	 -494.86	   18.20
     94.4485	   21.00	   25.42	 -500.92	   18.20
     94.4819	   27.00	   25.50	 -495.00	   18.20
     94.5153	   23.00	   25.58	 -499.08	   18.20
     94.5488	   22.00	   25.68	 -500.18	   18.20
     94.5822	   30.00	   25.79	 -492.29	   18.20
     94.6156	   21.00	   25.92	 -501.42	   18.20
     94.6490	   30.00	   26.06	 -492.56	   18.20
     94.6825	   31.00	   26.23	 -491.73	   18.20
     94.7159	   16.00	   26.43	 -506.93	   18.20
     94.7493	   26.00	   26.67	 -497.17	   18.20
     94.7827	   26.00	   26.95	 -497.45	   18.20
     94.8161	   21.00	   27.29	 -502.79	   18.20
     94.8496	   31.00	   27.70	 -493.20	   18.20
     94.8830	   25.00	   28.20	 -499.70	   18.20
     94.9164	   48.00	   28.83	 -477.33	   18.20
     94.9498	   33.00	   29.64	 -493.14	   18.20
     94.9833	   28.00	   30.74	 -499.24	   18.20
     95.0167	   38.00	   32.36	 -490.86	   18.20
     95.0501	   30.00	   35.06	 -501.56	   18.20
     95.0835	   37.00	   39.90	 -499.40	   18.20
     95.1170	   45.00	   48.58	 -500.08	   18.20
     95.1504	   46.00	   63.14	 -513.64	   18.20
     95.1838	   84.00	   84.88	 -497.38	   18.20
     95.2172	  114.00	  112.60	 -495.10	   18.20
     95.2506	  130.00	  140.63	 -507.13	   18.20
     95.2841	  167.00	  157.58	 -487.08	   18.20
     95.3175	  159.00	  153.04	 -490.54	   18.20
     95.3509	  135.00	  130.92	 -492.42	   18.20
     95.3843	   79.00	  104.27	 -521.77	   18.20
     95.4178	   75.00	   82.79	 -504.29	   18.20
     95.4512	   55.00	   70.87	 -512.37	   18.20
     95.4846	   50.00	   69.15	 -515.65	   18.20
     95.5180	   65.00	   75.63	 -507.13	   18.20
     95.5514	   72.00	   86.21	 -510.71	   18.20
     95.5849	   80.00	   94.51	 -511.01	   18.19
     95.6183	   80.00	   93.72	 -510.22	   18.19
     95.6517	   85.00	   83.12	 -494.62	   18.19
     95.6851	   70.00	   68.39	 -494.89	   18.19
     95.7186	   48.00	   54.63	 -503.13	   18.19
     95.7520	   51.00	   44.15	 -489.65	   18.19
     95.7854	   41.00	   37.23	 -492.73	   18.19
     95.8188	   37.00	   33.11	 -492.61	   18.19
     95.8522	   41.00	   30.76	 -486.26	   18.19
     95.8857	   42.00	   29.39	 -483.89	   18.19
     95.9191	   37.00	   28.51	 -488.01	   18.19
     95.9525	   26.00	   27.89	 -498.39	   18.19
     95.9859	   35.00	   27.41	 -488.91	   18.19
     96.0194	   26.00	   27.03	 -497.53	   18.19
     96.0528	   36.00	   26.72	 -487.22	   18.19
     96.0862	   25.00	   26.46	 -497.96	   18.19
     96.1196	   23.00	   26.25	 -499.75	   18.19
     96.1531	   20.00	   26.06	 -502.56	   18.19
     96.1865	   35.00	   25.90	 -487.40	   18.19
     96.2199	   27.00	   25.77	 -495.27	   18.19
     96.2533	   35.00	   25.65	 -487.15	   18.19
     96.2867	   23.00	   25.55	 -499.05	   18.19
     96.3202	   26.00	   25.46	 -495.96	   18.19
     96.3536	   25.00	   25.38	 -496.88	   18.19
     96.3870	   25.00	   25.30	 -496.80	   18.19
     96.4204	   27.00	   25.24	 -494.74	   18.19
     96.4538	   21.00	   25.18	 -500.68	   18.19
     96.4873	   21.00	   25.13	 -500.63	   18.19
     96.5207	   23.00	   25.09	 -498.59	   18.19
     96.5541	   28.00	   25.05	 -493.55	   18.19
     96.5875	   25.00	   25.01	 -496.51	   18.19
     96.6210	   30.00	   24.98	 -491.48	   18.19
     96.6544	   28.00	   24.95	 -493.45	   18.19
     96.6878	   27.00	   24.92	 -494.42	   18.19
     96.7212	   21.00	   24.90	 -500.40	   18.19
     96.7547	   22.00	   24.87	 -499.37	   18.19
     96.7881	   20.00	   24.85	 -501.35	   18.19
     96.8215	   27.00	   24.84	 -494.34	   18.19
     96.8549	   25.00	   24.82	 -496.32	   18.19
     96.8883	   27.00	   24.80	 -494.30	   18.19
     96.9218	   16.00	   24.79	 -505.29	   18.19
     96.9552	   22.00	   24.78	 -499.28	   18.19
     96.9886	   30.00	   24.77	 -491.27	   18.19
     97.0220	   17.00	   24.76	 -504.26	   18.19
     97.0555	   18.00	   24.76	 -503.26	   18.19
     97.0889	   22.00	   24.75	 -499.25	   18.19
     97.1223	   37.00	   24.75	 -484.25	   18.19
     97.1557	   27.00	   24.74	 -494.24	   18.19
     97.1891	   21.00	   24.74	 -500.24	   18.19
     97.2226	   20.00	   24.74	 -501.24	   18.19
     97.2560	   25.00	   24.74	 -496.24	   18.19
     97.2894	   27.00	   24.75	 -494.25	   18.19
     97.3228	   25.00	   24.75	 -496.25	   18.19
     97.3563	   27.00	   24.75	 -494.25	   18.19
     97.3897	   25.00	   24.76	 -496.26	   18.19
     97.4231	   18.00	   24.77	 -503.27	   18.19
     97.4565	   25.00	   24.78	 -496.28	   18.19
     97.4900	   22.00	   24.79	 -499.29	   18.19
     97.5234	   32.00	   24.80	 -489.30	   18.19
     97.5568	   23.00	   24.82	 -498.32	   18.19
     97.5902	   30.00	   24.84	 -491.34	   18.19
     97.6236	   22.00	   24.85	 -499.35	   18.19
     97.6571	   22.00	   24.88	 -499.38	   18.19
     97.6905	   23.00	   24.91	 -498.41	   18.19
     97.7239	   32.00	   24.95	 -489.45	   18.19
     97.7573	   37.00	   24.98	 -484.48	   18.19
     97.7908	   23.00	   25.02	 -498.52	   18.19
     97.8242	   28.00	   25.07	 -493.57	   18.19
     97.8576	   28.00	   25.12	 -493.62	   18.19
     97.8910	   27.00	   25.19	 -494.69	   18.19
     97.9244	   33.00	   25.26	 -488.76	   18.19
     97.9579	   26.00	   25.33	 -495.83	   18.19
     97.9913	   26.00	   25.43	 -495.93	   18.19
     98.0247	   31.00	   25.55	 -491.05	   18.19
     98.0581	   23.00	   25.68	 -499.18	   18.19
     98.0916	   20.00	   25.84	 -502.34	   18.19
     98.1250	   33.00	   26.02	 -489.52	   18.19
     98.1584	   16.00	   26.25	 -506.75	   18.19
     98.1918	   16.00	   26.53	 -507.03	   18.19
     98.2253	   25.00	   26.89	 -498.39	   18.19
     98.2587	   30.00	   27.34	 -493.84	   18.18
     98.2921	   32.00	   27.97	 -492.47	   18.18
     98.3255	   27.00	   28.92	 -498.42	   18.18
     98.3589	   28.00	   30.51	 -499.01	   18.18
     98.3924	   33.00	   33.32	 -496.82	   18.18
     98.4258	   40.00	   38.26	 -494.76	   18.18
     98.4592	   50.00	   46.30	 -492.80	   18.18
     98.4926	   50.00	   58.00	 -504.50	   18.18
     98.5260	   62.00	   72.59	 -507.09	   18.18
     98.5595	   70.00	   87.09	 -513.59	   18.18
     98.5929	  100.00	   95.79	 -492.29	   18.18
     98.6263	   90.00	   93.56	 -500.06	   18.18
     98.6597	   66.00	   82.20	 -512.70	   18.18
     98.6932	   69.00	   68.11	 -495.61	   18.18
     98.7266	   38.00	   56.22	 -514.72	   18.18
     98.7600	   52.00	   48.90	 -493.40	   18.18
     98.7934	   51.00	   46.69	 -492.19	   18.18
     98.8269	   38.00	   48.95	 -507.45	   18.18
     98.8603	   47.00	   54.16	 -503.66	   18.18
     98.8937	   54.00	   59.80	 -502.30	   18.18
     98.9271	   71.00	   62.42	 -487.92	   18.18
     98.9605	   42.00	   59.67	 -514.17	   18.18
     98.9940	   46.00	   52.91	 -503.41	   18.18
     99.0274	   48.00	   45.20	 -493.70	   18.18
     99.0608	   40.00	   38.54	 -495.04	   18.18
     99.0942	   25.00	   33.67	 -505.17	   18.18
     99.1277	   42.00	   30.53	 -485.03	   18.18
     99.1611	   30.00	   28.66	 -495.16	   18.18
     99.1945	   36.00	   27.59	 -488.09	   18.18
     99.2279	   17.00	   26.94	 -506.44	   18.18
     99.2613	   32.00	   26.51	 -491.01	   18.18
     99.2948	   23.00	   26.20	 -499.70	   18.18
     99.3282	   25.00	   25.96	 -497.46	   18.18
     99.3616	   25.00	   25.76	 -497.26	   18.18
     99.3950	   32.00	   25.60	 -490.10	   18.18
     99.4285	   17.00	   25.47	 -504.97	   18.18
     99.4619	   27.00	   25.36	 -494.86	   18.18
     99.4953	   15.00	   25.26	 -506.76	   18.18
     99.5287	   33.00	   25.18	 -488.68	   18.18
     99.5621	   27.00	   25.11	 -494.61	   18.18
     99.5956	   21.00	   25.04	 -500.54	   18.18
     99.6290	   20.00	   24.99	 -501.49	   18.18
     99.6624	   12.00	   24.94	 -509.44	   18.18
     99.6958	   23.00	   24.89	 -498.39	   18.18
     99.7293	   33.00	   24.86	 -488.36	   18.18
     99.7627	   26.00	   24.82	 -495.32	   18.18
     99.7961	   25.00	   24.79	 -496.29	   18.18
     99.8295	   22.00	   24.76	 -499.26	   18.18
     99.8630	   33.00	   24.74	 -488.24	   18.18
     99.8964	   20.00	   24.71	 -501.21	   18.18
     99.9298	   21.00	   24.69	 -500.19	   18.18
     99.9632	   30.00	   24.67	 -491.17	   18.18
     99.9966	   27.00	   24.66	 -494.16	   18.18
    100.0301	   18.00	   24.64	 -503.14	   18.18
    100.0635	   20.00	   24.63	 -501.13	   18.18
    100.0969	   32.00	   24.61	 -489.11	   18.18
    100.1303	   16.00	   24.60	 -505.10	   18.18
    100.1638	   26.00	   24.59	 -495.09	   18.18
    100.1972	   27.00	   24.58	 -494.08	   18.18
    100.2306	   23.00	   24.57	 -498.07	   18.18
    100.2640	   35.00	   24.54	 -486.04	   18.18
    100.2974	   30.00	   24.53	 -491.03	   18.18
    100.3309	   22.00	   24.52	 -499.02	   18.18
    100.3643	   22.00	   24.52	 -499.02	   18.18
    100.3977	   30.00	   24.51	 -491.01	   18.18
    100.4311	   36.00	   24.51	 -485.01	   18.18
    100.4646	   31.00	   24.50	 -490.00	   18.18
    100.4980	   22.00	   24.50	 -499.00	   18.18
    100.5314	   27.00	   24.49	 -493.99	   18.18
    100.5648	   20.00	   24.48	 -500.98	   18.18
    100.5982	   20.00	   24.48	 -500.98	   18.18
    100.6317	   23.00	   24.47	 -497.97	   18.18
    100.6651	   27.00	   24.47	 -493.97	   18.18
    100.6985	   27.00	   24.47	 -493.97	   18.18
    100.7319	   20.00	   24.47	 -500.97	   18.18
    100.7654	   26.00	   24.47	 -494.97	   18.18
    100.7988	   37.00	   24.47	 -483.97	   18.18
    100.8322	   32.00	   24.47	 -488.97	   18.18
    100.8656	   31.00	   24.47	 -489.97	   18.18
    100.8990	   23.00	   24.47	 -497.97	   18.18
    100.9325	   28.00	   24.47	 -492.97	   18.17
    100.9659	   20.00	   24.47	 -500.97	   18.17
    100.9993	   25.00	   24.47	 -495.97	   18.17
    101.0327	   38.00	   24.47	 -482.97	   18.17
    101.0662	   27.00	   24.47	 -493.97	   18.17
    101.0996	   28.00	   24.48	 -492.98	   18.17
    101.1330	   20.00	   24.48	 -500.98	   18.17
    101.1664	   30.00	   24.48	 -490.98	   18.17
    101.1999	   30.00	   24.49	 -490.99	   18.17
    101.2333	   17.00	   24.49	 -503.99	   18.17
    101.2667	   26.00	   24.49	 -494.99	   18.17
    101.3001	   33.00	   24.50	 -488.00	   18.17
    101.3335	   25.00	   24.50	 -496.00	   18.17
    101.3670	   30.00	   24.51	 -491.01	   18.17
    101.4004	   18.00	   24.52	 -503.02	   18.17
    101.4338	   25.00	   24.52	 -496.02	   18.17
    101.4672	   25.00	   24.53	 -496.03	   18.17
    101.5007	   27.00	   24.54	 -494.04	   18.17
    101.5341	   42.00	   24.55	 -479.05	   18.17
    101.5675	   38.00	   24.56	 -483.06	   18.17
    101.6009	   35.00	   24.57	 -486.07	   18.17
    101.6343	   43.00	   24.58	 -478.08	   18.17
    101.6678	   40.00	   24.59	 -481.09	   18.17
    101.7012	   31.00	   24.60	 -490.10	   18.17
    101.7346	   32.00	   24.61	 -489.11	   18.17
    101.7680	   26.00	   24.63	 -495.13	   18.17
    101.8015	   22.00	   24.65	 -499.15	   18.17
    101.8349	   21.00	   24.66	 -500.16	   18.17
    101.8683	   22.00	   24.68	 -499.18	   18.17
    101.9017	   31.00	   24.70	 -490.20	   18.17
    101.9352	   36.00	   24.73	 -485.23	   18.17
    101.9686	   15.00	   24.75	 -506.25	   18.17
    102.0020	   25.00	   24.78	 -496.28	   18.17
    102.0354	   31.00	   24.81	 -490.31	   18.17
    102.0688	   20.00	   24.85	 -501.35	   18.17
    102.1023	   32.00	   24.88	 -489.38	   18.17
    102.1357	   37.00	   24.93	 -484.43	   18.17
    102.1691	   25.00	   24.97	 -496.47	   18.17
    102.2025	   32.00	   25.03	 -489.53	   18.17
    102.2360	   25.00	   25.09	 -496.59	   18.17
    102.2694	   30.00	   25.15	 -491.65	   18.17
    102.3028	   36.00	   25.23	 -485.73	   18.17
    102.3362	   33.00	   25.32	 -488.82	   18.17
    102.3696	   26.00	   25.43	 -495.93	   18.17
    102.4031	   35.00	   25.55	 -487.05	   18.17
    102.4365	   17.00	   25.70	 -505.20	   18.17
    102.4699	   21.00	   25.88	 -501.38	   18.17
    102.5033	   28.00	   26.09	 -494.59	   18.17
    102.5368	   28.00	   26.36	 -494.86	   18.17
    102.5702	   13.00	   26.70	 -510.20	   18.17
    102.6036	   35.00	   27.18	 -488.68	   18.17
    102.6370	   36.00	   27.89	 -488.39	   18.17
    102.6704	   31.00	   29.07	 -494.57	   18.17
    102.7039	   46.00	   31.10	 -481.60	   18.17
    102.7373	   28.00	   34.56	 -503.06	   18.17
    102.7707	   31.00	   40.05	 -505.55	   18.17
    102.8041	   31.00	   47.89	 -513.39	   18.17
    102.8376	   56.00	   57.62	 -498.12	   18.17
    102.8710	   80.00	   67.47	 -483.97	   18.17
    102.9044	   75.00	   74.01	 -495.51	   18.17
    102.9378	   74.00	   73.74	 -496.24	   18.17
    102.9712	   65.00	   67.01	 -498.51	   18.17
    103.0047	   54.00	   57.58	 -500.08	   18.17
    103.0381	   47.00	   48.85	 -498.35	   18.17
    103.0715	   31.00	   42.65	 -508.15	   18.17
    103.1049	   26.00	   39.60	 -510.10	   18.17
    103.1384	   33.00	   39.61	 -503.11	   18.17
    103.1718	   43.00	   42.09	 -495.59	   18.17
    103.2052	   37.00	   46.03	 -505.53	   18.17
    103.2386	   50.00	   49.88	 -496.38	   18.17
    103.2720	   60.00	   51.50	 -488.00	   18.17
    103.3055	   48.00	   49.62	 -498.12	   18.17
    103.3389	   56.00	   45.19	 -485.69	   18.17
    103.3723	   42.00	   40.12	 -494.62	   18.17
    103.4057	   36.00	   35.67	 -496.17	   18.17
    103.4392	   33.00	   32.38	 -495.88	   18.17
    103.4726	   36.00	   30.23	 -490.73	   18.17
    103.5060	   40.00	   28.97	 -485.47	   18.17
    103.5394	   22.00	   28.31	 -502.81	   18.17
    103.5729	   26.00	   28.00	 -498.50	   18.17
    103.6063	   32.00	   27.90	 -492.40	   18.17
    103.6397	   28.00	   27.94	 -496.44	   18.16
    103.6731	   31.00	   28.09	 -493.59	   18.16
    103.7065	   31.00	   28.33	 -493.83	   18.16
    103.7400	   31.00	   28.71	 -494.21	   18.16
    103.7734	   41.00	   29.28	 -484.78	   18.16
    103.8068	   31.00	   30.12	 -495.62	   18.16
    103.8402	   27.00	   31.49	 -500.99	   18.16
    103.8737	   27.00	   33.84	 -503.34	   18.16
    103.9071	   32.00	   37.96	 -502.46	   18.16
    103.9405	   41.00	   44.89	 -500.39	   18.16
    103.9739	   50.00	   55.66	 -502.16	   18.16
    104.0073	   60.00	   70.57	 -507.07	   18.16
    104.0408	   95.00	   88.43	 -489.93	   18.16
    104.0742	  113.00	  105.57	 -489.07	   18.16
    104.1076	  120.00	  115.51	 -492.01	   18.16
    104.1410	   84.00	  112.78	 -525.28	   18.16
    104.1745	  111.00	   99.33	 -484.83	   18.16
    104.2079	   62.00	   82.09	 -516.59	   18.16
    104.2413	   62.00	   66.66	 -501.16	   18.16
    104.2747	   48.00	   55.89	 -504.39	   18.16
    104.3082	   56.00	   50.73	 -491.23	   18.16
    104.3416	   51.00	   50.91	 -496.41	   18.16
    104.3750	   42.00	   55.39	 -509.89	   18.16
    104.4084	   60.00	   62.47	 -498.97	   18.16
    104.4418	   72.00	   69.44	 -493.94	   18.16
    104.4753	   69.00	   72.63	 -500.13	   18.16
    104.5087	   64.00	   69.57	 -502.07	   18.16
    104.5421	   46.00	   61.69	 -512.19	   18.16
    104.5755	   47.00	   52.38	 -501.88	   18.16
    104.6089	   30.00	   44.02	 -510.52	   18.16
    104.6424	   28.00	   37.62	 -506.12	   18.16
    104.6758	   32.00	   33.28	 -497.78	   18.16
    104.7092	   30.00	   30.58	 -497.08	   18.16
    104.7426	   31.00	   28.97	 -494.47	   18.16
    104.7761	   17.00	   27.99	 -507.49	   18.16
    104.8095	   20.00	   27.36	 -503.86	   18.16
    104.8429	   35.00	   26.92	 -488.42	   18.16
    104.8763	   36.00	   26.58	 -487.08	   18.16
    104.9098	   31.00	   26.31	 -491.81	   18.16
    104.9432	   27.00	   26.09	 -495.59	   18.16
    104.9766	   26.00	   25.90	 -496.40	   18.16
    105.0100	   33.00	   25.74	 -489.24	   18.16
    105.0434	   21.00	   25.61	 -501.11	   18.16
    105.0769	   17.00	   25.49	 -504.99	   18.16
    105.1103	   22.00	   25.39	 -499.89	   18.16
    105.1437	   25.00	   25.30	 -496.80	   18.16
    105.1771	   27.00	   25.23	 -494.73	   18.16
    105.2106	   23.00	   25.16	 -498.66	   18.16
    105.2440	   26.00	   25.10	 -495.60	   18.16
    105.2774	   23.00	   25.04	 -498.54	   18.16
    105.3108	   32.00	   24.99	 -489.49	   18.16
    105.3442	   22.00	   24.95	 -499.45	   18.16
    105.3777	   31.00	   24.91	 -490.41	   18.16
    105.4111	   36.00	   24.87	 -485.37	   18.16
    105.4445	   25.00	   24.84	 -496.34	   18.16
    105.4779	   35.00	   24.80	 -486.30	   18.16
    105.5114	   26.00	   24.78	 -495.28	   18.16
    105.5448	   23.00	   24.75	 -498.25	   18.16
    105.5782	   28.00	   24.73	 -493.23	   18.16
    105.6116	   26.00	   24.71	 -495.21	   18.16
    105.6451	   31.00	   24.69	 -490.19	   18.16
    105.6785	   38.00	   24.67	 -483.17	   18.16
    105.7119	   26.00	   24.65	 -495.15	   18.16
    105.7453	   21.00	   24.64	 -500.14	   18.16
    105.7787	   26.00	   24.62	 -495.12	   18.16
    105.8122	   23.00	   24.61	 -498.11	   18.16
    105.8456	   23.00	   24.60	 -498.10	   18.16
    105.8790	   26.00	   24.59	 -495.09	   18.16
    105.9124	   30.00	   24.58	 -491.08	   18.16
    105.9459	   18.00	   24.57	 -503.07	   18.16
    105.9793	   21.00	   24.56	 -500.06	   18.16
    106.0127	   23.00	   24.55	 -498.05	   18.16
    106.0461	   22.00	   24.54	 -499.04	   18.16
    106.0795	   22.00	   24.54	 -499.04	   18.16
    106.1130	   31.00	   24.53	 -490.03	   18.16
    106.1464	   23.00	   24.53	 -498.03	   18.16
    106.1798	   25.00	   24.52	 -496.02	   18.16
    106.2132	   31.00	   24.52	 -490.02	   18.16
    106.2467	   31.00	   24.52	 -490.02	   18.16
    106.2801	   21.00	   24.51	 -500.01	   18.16
    106.3135	   27.00	   24.51	 -494.01	   18.15
    106.3469	   28.00	   24.51	 -493.01	   18.15
    106.3803	   23.00	   24.51	 -498.01	   18.15
    106.4138	   27.00	   24.51	 -494.01	   18.15
    106.4472	   32.00	   24.51	 -489.01	   18.15
    106.4806	   27.00	   24.52	 -494.02	   18.15
    106.5140	   38.00	   24.52	 -483.02	   18.15
    106.5475	   31.00	   24.52	 -490.02	   18.15
    106.5809	   25.00	   24.53	 -496.03	   18.15
    106.6143	   28.00	   24.54	 -493.04	   18.15
    106.6477	   31.00	   24.55	 -490.05	   18.15
    106.6812	   35.00	   24.56	 -486.06	   18.15
    106.7146	   38.00	   24.57	 -483.07	   18.15
    106.7480	   20.00	   24.59	 -501.09	   18.15
    106.7814	   27.00	   24.60	 -494.10	   18.15
    106.8148	   16.00	   24.62	 -505.12	   18.15
    106.8483	   26.00	   24.65	 -495.15	   18.15
    106.8817	   32.00	   24.68	 -489.18	   18.15
    106.9151	   23.00	   24.72	 -498.22	   18.15
    106.9485	   30.00	   24.76	 -491.26	   18.15
    106.9819	   28.00	   24.82	 -493.32	   18.15
    107.0154	   37.00	   24.89	 -484.39	   18.15
    107.0488	   25.00	   24.97	 -496.47	   18.15
    107.0822	   22.00	   25.09	 -499.59	   18.15
    107.1156	   40.00	   25.27	 -481.77	   18.15
    107.1491	   23.00	   25.54	 -499.04	   18.15
    107.1825	   30.00	   26.01	 -492.51	   18.15
    107.2159	   20.00	   26.79	 -503.29	   18.15
    107.2493	   30.00	   28.05	 -494.55	   18.15
    107.2828	   31.00	   29.93	 -495.43	   18.15
    107.3162	   41.00	   32.41	 -487.91	   18.15
    107.3496	   47.00	   35.24	 -484.74	   18.15
    107.3830	   33.00	   37.81	 -501.31	   18.15
    107.4164	   38.00	   39.12	 -497.62	   18.15
    107.4499	   41.00	   38.46	 -493.96	   18.15
    107.4833	   37.00	   36.26	 -495.76	   18.15
    107.5167	   32.00	   33.55	 -498.05	   18.15
    107.5501	   33.00	   31.12	 -494.62	   18.15
    107.5836	   36.00	   29.37	 -489.87	   18.15
    107.6170	   35.00	   28.44	 -489.94	   18.15
    107.6504	   21.00	   28.30	 -503.80	   18.15
    107.6838	   26.00	   28.85	 -499.35	   18.15
    107.7172	   28.00	   29.87	 -498.37	   18.15
    107.7507	   50.00	   31.06	 -477.56	   18.15
    107.7841	   38.00	   31.96	 -490.46	   18.15
    107.8175	   35.00	   32.03	 -493.53	   18.15
    107.8509	   42.00	   31.18	 -485.68	   18.15
    107.8844	   41.00	   29.81	 -485.31	   18.15
    107.9178	   26.00	   28.38	 -498.88	   18.15
    107.9512	   43.00	   27.16	 -480.66	   18.15
    107.9846	   13.00	   26.26	 -509.76	   18.15
    108.0181	   41.00	   25.65	 -481.15	   18.15
    108.0515	   36.00	   25.28	 -485.78	   18.15
    108.0849	   27.00	   25.05	 -494.55	   18.15
    108.1183	   23.00	   24.91	 -498.41	   18.15
    108.1517	   27.00	   24.82	 -494.32	   18.15
    108.1852	   32.00	   24.75	 -489.25	   18.15
    108.2186	   28.00	   24.69	 -493.19	   18.15
    108.2520	   27.00	   24.65	 -494.15	   18.15
    108.2854	   30.00	   24.62	 -491.12	   18.15
    108.3189	   18.00	   24.60	 -503.10	   18.15
    108.3523	   30.00	   24.57	 -491.07	   18.15
    108.3857	   28.00	   24.56	 -493.06	   18.15
    108.4191	   20.00	   24.54	 -501.04	   18.15
    108.4525	   23.00	   24.53	 -498.03	   18.15
    108.4860	   20.00	   24.52	 -501.02	   18.15
    108.5194	   22.00	   24.51	 -499.01	   18.15
    108.5528	   27.00	   24.50	 -494.00	   18.15
    108.5862	   26.00	   24.50	 -495.00	   18.15
    108.6197	   25.00	   24.49	 -495.99	   18.15
    108.6531	   26.00	   24.48	 -494.98	   18.15
    108.6865	   16.00	   24.48	 -504.98	   18.15
    108.7199	   30.00	   24.48	 -490.98	   18.15
    108.7533	   35.00	   24.48	 -485.98	   18.15
    108.7868	   31.00	   24.48	 -489.98	   18.15
    108.8202	   21.00	   24.48	 -499.98	   18.15
    108.8536	   23.00	   24.49	 -497.99	   18.15
    108.8870	   20.00	   24.49	 -500.99	   18.15
    108.9205	   23.00	   24.50	 -498.00	   18.15
    108.9539	   32.00	   24.50	 -489.00	   18.15
    108.9873	   25.00	   24.51	 -496.01	   18.14
    109.0207	   23.00	   24.51	 -498.01	   18.14
    109.0541	   35.00	   24.52	 -486.02	   18.14
    109.0876	   31.00	   24.53	 -490.03	   18.14
    109.1210	   31.00	   24.54	 -490.04	   18.14
    109.1544	   30.00	   24.55	 -491.05	   18.14
    109.1878	   25.00	   24.57	 -496.07	   18.14
    109.2213	   30.00	   24.58	 -491.08	   18.14
    109.2547	   27.00	   24.60	 -494.10	   18.14
    109.2881	   28.00	   24.62	 -493.12	   18.14
    109.3215	   17.00	   24.64	 -504.14	   18.14
    109.3549	   25.00	   24.66	 -496.16	   18.14
    109.3884	   37.00	   24.68	 -484.18	   18.14
    109.4218	   21.00	   24.71	 -500.21	   18.14
    109.4552	   23.00	   24.74	 -498.24	   18.14
    109.4886	   25.00	   24.76	 -496.26	   18.14
    109.5221	   20.00	   24.80	 -501.30	   18.14
    109.5555	   27.00	   24.84	 -494.34	   18.14
    109.5889	   22.00	   24.89	 -499.39	   18.14
    109.6223	   31.00	   24.94	 -490.44	   18.14
    109.6558	   21.00	   25.00	 -500.50	   18.14
    109.6892	   31.00	   25.07	 -490.57	   18.14
    109.7226	   22.00	   25.15	 -499.65	   18.14
    109.7560	   27.00	   25.25	 -494.75	   18.14
    109.7894	   30.00	   25.36	 -491.86	   18.14
    109.8229	   25.00	   25.48	 -496.98	   18.14
    109.8563	   36.00	   25.64	 -486.14	   18.14
    109.8897	   31.00	   25.81	 -491.31	   18.14
    109.9231	   26.00	   26.02	 -496.52	   18.14
    109.9566	   22.00	   26.29	 -500.79	   18.14
    109.9900	   32.00	   26.63	 -491.13	   18.14
    110.0234	   20.00	   27.09	 -503.59	   18.14
    110.0568	   45.00	   27.75	 -479.25	   18.14
    110.0902	   25.00	   28.77	 -500.27	   18.14
    110.1237	   27.00	   30.46	 -499.96	   18.14
    110.1571	   28.00	   33.29	 -501.79	   18.14
    110.1905	   36.00	   37.77	 -498.27	   18.14
    110.2239	   31.00	   44.39	 -509.89	   18.14
    110.2574	   41.00	   53.23	 -508.73	   18.14
    110.2908	   61.00	   63.62	 -499.12	   18.14
    110.3242	   80.00	   73.67	 -490.17	   18.14
    110.3576	   86.00	   80.15	 -490.65	   18.14
    110.3911	   85.00	   79.94	 -491.44	   18.14
    110.4245	   57.00	   73.28	 -512.78	   18.14
    110.4579	   65.00	   63.46	 -494.96	   18.14
    110.4913	   38.00	   53.71	 -512.21	   18.14
    110.5247	   43.00	   45.90	 -499.40	   18.14
    110.5582	   46.00	   40.86	 -491.36	   18.14
    110.5916	   38.00	   38.70	 -497.20	   18.14
    110.6250	   38.00	   39.18	 -497.68	   18.14
    110.6584	   31.00	   41.82	 -507.32	   18.14
    110.6919	   59.00	   45.93	 -483.43	   18.14
    110.7253	   57.00	   50.39	 -489.89	   18.14
    110.7587	   51.00	   53.54	 -499.04	   18.14
    110.7921	   57.00	   53.64	 -493.14	   18.14
    110.8255	   61.00	   50.43	 -485.93	   18.14
    110.8590	   48.00	   45.35	 -493.85	   18.14
    110.8924	   60.00	   40.03	 -476.53	   18.14
    110.9258	   46.00	   35.45	 -485.95	   18.14
    110.9592	   27.00	   31.97	 -501.47	   18.14
    110.9927	   37.00	   29.59	 -489.09	   18.14
    111.0261	   28.00	   28.06	 -496.56	   18.14
    111.0595	   28.00	   27.12	 -495.62	   18.14
    111.0929	   30.00	   26.54	 -493.04	   18.14
    111.1263	   32.00	   26.15	 -490.65	   18.14
    111.1598	   28.00	   25.88	 -494.38	   18.14
    111.1932	   38.00	   25.68	 -484.18	   18.14
    111.2266	   25.00	   25.51	 -497.01	   18.14
    111.2600	   38.00	   25.37	 -483.87	   18.14
    111.2935	   26.00	   25.26	 -495.76	   18.14
    111.3269	   30.00	   25.16	 -491.66	   18.14
    111.3603	   30.00	   25.08	 -491.58	   18.14
    111.3937	   28.00	   25.01	 -493.51	   18.14
    111.4271	   28.00	   24.95	 -493.45	   18.14
    111.4606	   21.00	   24.89	 -500.39	   18.14
    111.4940	   23.00	   24.84	 -498.34	   18.14
    111.5274	   28.00	   24.80	 -493.30	   18.14
    111.5608	   28.00	   24.76	 -493.26	   18.14
    111.5943	   26.00	   24.73	 -495.23	   18.14
    111.6277	   36.00	   24.70	 -485.20	   18.14
    111.6611	   36.00	   24.67	 -485.17	   18.14
    111.6945	   25.00	   24.64	 -496.14	   18.13
    111.7280	   31.00	   24.62	 -490.12	   18.13
    111.7614	   26.00	   24.60	 -495.10	   18.13
    111.7948	   36.00	   24.58	 -485.08	   18.13
    111.8282	   28.00	   24.56	 -493.06	   18.13
    111.8616	   23.00	   24.55	 -498.05	   18.13
    111.8951	   25.00	   24.53	 -496.03	   18.13
    111.9285	   31.00	   24.52	 -490.02	   18.13
    111.9619	   28.00	   24.51	 -493.01	   18.13
    111.9953	   32.00	   24.50	 -489.00	   18.13
    112.0288	   35.00	   24.49	 -485.99	   18.13
    112.0622	   27.00	   24.48	 -493.98	   18.13
    112.0956	   33.00	   24.47	 -487.97	   18.13
    112.1290	   37.00	   24.46	 -483.96	   18.13
    112.1624	   28.00	   24.45	 -492.95	   18.13
    112.1959	   23.00	   24.45	 -497.95	   18.13
    112.2293	   22.00	   24.44	 -498.94	   18.13
    112.2627	   25.00	   24.44	 -495.94	   18.13
    112.2961	   23.00	   24.43	 -497.93	   18.13
    112.3296	   22.00	   24.42	 -498.92	   18.13
    112.3630	   36.00	   24.42	 -484.92	   18.13
    112.3964	   30.00	   24.42	 -490.92	   18.13
    112.4298	   25.00	   24.41	 -495.91	   18.13
    112.4632	   26.00	   24.41	 -494.91	   18.13
    112.4967	   33.00	   24.41	 -487.90	   18.13
    112.5301	   18.00	   24.40	 -502.90	   18.13
    112.5635	   35.00	   24.40	 -485.90	   18.13
    112.5969	   27.00	   24.40	 -493.90	   18.13
    112.6304	   21.00	   24.39	 -499.89	   18.13
    112.6638	   26.00	   24.39	 -494.89	   18.13
    112.6972	   26.00	   24.39	 -494.89	   18.13
    112.7306	   31.00	   24.39	 -489.89	   18.13
    112.7641	   25.00	   24.39	 -495.89	   18.13
    112.7975	   35.00	   24.39	 -485.89	   18.13
    112.8309	   28.00	   24.39	 -492.89	   18.13
    112.8643	   21.00	   24.39	 -499.89	   18.13
    112.8977	   20.00	   24.38	 -500.88	   18.13
    112.9312	   30.00	   24.38	 -490.88	   18.13
    112.9646	   16.00	   24.38	 -504.88	   18.13
    112.9980	   21.00	   24.38	 -499.88	   18.13
    113.0314	   30.00	   24.38	 -490.88	   18.13
    113.0648	   32.00	   24.38	 -488.88	   18.13
    113.0983	   23.00	   24.38	 -497.88	   18.13
    113.1317	   31.00	   24.38	 -489.88	   18.13
    113.1651	   18.00	   24.38	 -502.88	   18.13
    113.1985	   37.00	   24.39	 -483.89	   18.13
    113.2320	   28.00	   24.39	 -492.89	   18.13
    113.2654	   11.00	   24.39	 -509.89	   18.13
    113.2988	   27.00	   24.39	 -493.89	   18.13
    113.3322	   23.00	   24.39	 -497.89	   18.13
    113.3657	   20.00	   24.39	 -500.89	   18.13
    113.3991	   18.00	   24.39	 -502.89	   18.13
    113.4325	   33.00	   24.40	 -487.90	   18.13
    113.4659	   27.00	   24.40	 -493.90	   18.13
    113.4993	   23.00	   24.40	 -497.90	   18.13
    113.5328	   30.00	   24.40	 -490.90	   18.13
    113.5662	   30.00	   24.41	 -490.91	   18.13
    113.5996	   22.00	   24.41	 -498.91	   18.13
    113.6330	   27.00	   24.41	 -493.91	   18.13
    113.6665	   23.00	   24.42	 -497.92	   18.13
    113.6999	   27.00	   24.42	 -493.92	   18.13
    113.7333	   26.00	   24.42	 -494.92	   18.13
    113.7667	   42.00	   24.43	 -478.93	   18.13
    113.8001	   26.00	   24.43	 -494.93	   18.13
    113.8336	   28.00	   24.44	 -492.94	   18.13
    113.8670	   25.00	   24.44	 -495.94	   18.13
    113.9004	   35.00	   24.45	 -485.95	   18.13
    113.9338	   33.00	   24.45	 -487.95	   18.13
    113.9673	   31.00	   24.46	 -489.96	   18.13
    114.0007	   22.00	   24.47	 -498.97	   18.13
    114.0341	   33.00	   24.47	 -487.97	   18.13
    114.0675	   27.00	   24.48	 -493.98	   18.13
    114.1010	   23.00	   24.49	 -497.99	   18.13
    114.1344	   20.00	   24.50	 -501.00	   18.13
    114.1678	   35.00	   24.50	 -486.00	   18.13
    114.2012	   23.00	   24.51	 -498.01	   18.13
    114.2346	   20.00	   24.52	 -501.02	   18.13
    114.2681	   42.00	   24.53	 -479.03	   18.13
    114.3015	   31.00	   24.54	 -490.04	   18.13
    114.3349	   23.00	   24.55	 -498.05	   18.13
    114.3683	   23.00	   24.56	 -498.06	   18.12
    114.4018	   25.00	   24.58	 -496.08	   18.12
    114.4352	   22.00	   24.59	 -499.09	   18.12
    114.4686	   25.00	   24.60	 -496.10	   18.12
    114.5020	   30.00	   24.62	 -491.12	   18.12
    114.5354	   31.00	   24.63	 -490.13	   18.12
    114.5689	   33.00	   24.65	 -488.15	   18.12
    114.6023	   41.00	   24.66	 -480.16	   18.12
    114.6357	   30.00	   24.68	 -491.18	   18.12
    114.6691	   22.00	   24.70	 -499.20	   18.12
    114.7026	   30.00	   24.72	 -491.22	   18.12
    114.7360	   25.00	   24.74	 -496.24	   18.12
    114.7694	   22.00	   24.77	 -499.27	   18.12
    114.8028	   26.00	   24.79	 -495.29	   18.12
    114.8363	   33.00	   24.82	 -488.32	   18.12
    114.8697	   33.00	   24.84	 -488.34	   18.12
    114.9031	   32.00	   24.87	 -489.37	   18.12
    114.9365	   25.00	   24.91	 -496.41	   18.12
    114.9699	   31.00	   24.96	 -490.46	   18.12
    115.0034	   25.00	   24.99	 -496.49	   18.12
    115.0368	   28.00	   25.03	 -493.53	   18.12
    115.0702	   35.00	   25.08	 -486.58	   18.12
    115.1036	   27.00	   25.13	 -494.63	   18.12
    115.1371	   32.00	   25.18	 -489.68	   18.12
    115.1705	   41.00	   25.24	 -480.74	   18.12
    115.2039	   25.00	   25.30	 -496.80	   18.12
    115.2373	   33.00	   25.36	 -488.86	   18.12
    115.2707	   28.00	   25.44	 -493.94	   18.12
    115.3042	   28.00	   25.52	 -494.02	   18.12
    115.3376	   20.00	   25.61	 -502.11	   18.12
    115.3710	   46.00	   25.71	 -476.21	   18.12
    115.4044	   22.00	   25.82	 -500.32	   18.12
    115.4379	   27.00	   25.95	 -495.45	   18.12
    115.4713	   27.00	   26.09	 -495.59	   18.12
    115.5047	   36.00	   26.24	 -486.74	   18.12
    115.5381	   30.00	   26.42	 -492.92	   18.12
    115.5715	   26.00	   26.62	 -497.12	   18.12
    115.6050	   22.00	   26.84	 -501.34	   18.12
    115.6384	   30.00	   27.11	 -493.61	   18.12
    115.6718	   27.00	   27.41	 -496.91	   18.12
    115.7052	   33.00	   27.77	 -491.27	   18.12
    115.7387	   32.00	   28.19	 -492.69	   18.12
    115.7721	   20.00	   28.68	 -505.18	   18.12
    115.8055	   25.00	   29.29	 -500.79	   18.12
    115.8389	   42.00	   30.03	 -484.53	   18.12
    115.8723	   28.00	   31.00	 -499.50	   18.12
    115.9058	   30.00	   32.31	 -498.81	   18.12
    115.9392	   41.00	   34.24	 -489.74	   18.12
    115.9726	   37.00	   37.25	 -496.75	   18.12
    116.0060	   31.00	   42.09	 -507.59	   18.12
    116.0395	   47.00	   49.75	 -499.25	   18.12
    116.0729	   52.00	   61.37	 -505.87	   18.12
    116.1063	   62.00	   77.75	 -512.25	   18.12
    116.1397	   87.00	   98.83	 -508.33	   18.12
    116.1731	   91.00	  123.03	 -528.53	   18.12
    116.2066	  133.00	  146.42	 -509.92	   18.12
    116.2400	  143.00	  162.46	 -515.96	   18.12
    116.2734	  169.00	  164.54	 -492.04	   18.12
    116.3068	  146.00	  151.80	 -502.30	   18.12
    116.3403	  125.00	  130.14	 -501.64	   18.12
    116.3737	   84.00	  106.61	 -519.11	   18.12
    116.4071	   55.00	   85.91	 -527.41	   18.12
    116.4405	   66.00	   70.36	 -500.86	   18.12
    116.4740	   56.00	   60.75	 -501.25	   18.12
    116.5074	   45.00	   56.93	 -508.43	   18.12
    116.5408	   54.00	   58.32	 -500.82	   18.12
    116.5742	   57.00	   64.14	 -503.64	   18.12
    116.6076	   84.00	   73.27	 -485.77	   18.12
    116.6411	   86.00	   83.99	 -494.49	   18.12
    116.6745	  108.00	   93.53	 -482.03	   18.12
    116.7079	  105.00	   98.21	 -489.71	   18.12
    116.7413	   90.00	   95.48	 -501.98	   18.12
    116.7748	   77.00	   86.33	 -505.83	   18.12
    116.8082	   71.00	   74.17	 -499.67	   18.12
    116.8416	   59.00	   62.02	 -499.52	   18.12
    116.8750	   45.00	   51.62	 -503.12	   18.12
    116.9084	   54.00	   43.61	 -486.11	   18.12
    116.9419	   41.00	   37.96	 -493.46	   18.12
    116.9753	   37.00	   34.21	 -493.71	   18.12
    117.0087	   32.00	   31.81	 -496.31	   18.12
    117.0421	   28.00	   30.28	 -498.78	   18.12
    117.0756	   22.00	   29.27	 -503.77	   18.11
    117.1090	   30.00	   28.55	 -495.05	   18.11
    117.1424	   20.00	   28.01	 -504.51	   18.11
    117.1758	   28.00	   27.58	 -496.08	   18.11
    117.2093	   25.00	   27.23	 -498.73	   18.11
    117.2427	   27.00	   26.93	 -496.43	   18.11
    117.2761	   27.00	   26.68	 -496.18	   18.11
    117.3095	   25.00	   26.46	 -497.96	   18.11
    117.3429	   30.00	   26.27	 -492.77	   18.11
    117.3764	   33.00	   26.11	 -489.61	   18.11
    117.4098	   27.00	   25.96	 -495.46	   18.11
    117.4432	   28.00	   25.83	 -494.33	   18.11
    117.4766	   32.00	   25.72	 -490.22	   18.11
    117.5100	   20.00	   25.61	 -502.11	   18.11
    117.5435	   36.00	   25.52	 -486.02	   18.11
    117.5769	   22.00	   25.44	 -499.94	   18.11
    117.6103	   36.00	   25.36	 -485.86	   18.11
    117.6437	   27.00	   25.30	 -494.80	   18.11
    117.6772	   26.00	   25.24	 -495.74	   18.11
    117.7106	   23.00	   25.18	 -498.68	   18.11
    117.7440	   26.00	   25.13	 -495.63	   18.11
    117.7774	   27.00	   25.08	 -494.58	   18.11
    117.8109	   32.00	   25.04	 -489.54	   18.11
    117.8443	   16.00	   25.00	 -505.50	   18.11
    117.8777	   22.00	   24.96	 -499.46	   18.11
    117.9111	   32.00	   24.92	 -489.42	   18.11
    117.9445	   22.00	   24.89	 -499.39	   18.11
    117.9780	   28.00	   24.86	 -493.36	   18.11
    118.0114	   18.00	   24.84	 -503.34	   18.11
    118.0448	   32.00	   24.81	 -489.31	   18.11
    118.0782	   23.00	   24.79	 -498.29	   18.11
    118.1117	   20.00	   24.76	 -501.26	   18.11
    118.1451	   17.00	   24.74	 -504.24	   18.11
    118.1785	   20.00	   24.72	 -501.22	   18.11
    118.2119	   18.00	   24.71	 -503.21	   18.11
    118.2453	   26.00	   24.69	 -495.19	   18.11
    118.2788	   25.00	   24.68	 -496.18	   18.11
    118.3122	   25.00	   24.66	 -496.16	   18.11
    118.3456	   27.00	   24.65	 -494.15	   18.11
    118.3790	   22.00	   24.63	 -499.13	   18.11
    118.4125	   27.00	   24.62	 -494.12	   18.11
    118.4459	   15.00	   24.61	 -506.11	   18.11
    118.4793	   22.00	   24.60	 -499.10	   18.11
    118.5127	   32.00	   24.59	 -489.09	   18.11
    118.5462	   30.00	   24.58	 -491.08	   18.11
    118.5796	   25.00	   24.57	 -496.07	   18.11
    118.6130	   26.00	   24.56	 -495.06	   18.11
    118.6464	   28.00	   24.56	 -493.06	   18.11
    118.6798	   27.00	   24.55	 -494.05	   18.11
    118.7133	   22.00	   24.54	 -499.04	   18.11
    118.7467	   23.00	   24.54	 -498.04	   18.11
    118.7801	   30.00	   24.53	 -491.03	   18.11
    118.8135	   37.00	   24.53	 -484.03	   18.11
    118.8470	   20.00	   24.52	 -501.02	   18.11
    118.8804	   25.00	   24.52	 -496.02	   18.11
    118.9138	   36.00	   24.51	 -485.01	   18.11
    118.9472	   21.00	   24.51	 -500.01	   18.11
    118.9806	   27.00	   24.51	 -494.01	   18.11
    119.0141	   22.00	   24.50	 -499.00	   18.11
    119.0475	   21.00	   24.50	 -500.00	   18.11
    119.0809	   28.00	   24.50	 -493.00	   18.11
    119.1143	   38.00	   24.50	 -483.00	   18.11
    119.1478	   30.00	   24.49	 -490.99	   18.11
    119.1812	   32.00	   24.49	 -488.99	   18.11
    119.2146	   23.00	   24.49	 -497.99	   18.11
    119.2480	   22.00	   24.49	 -498.99	   18.11
    119.2814	   30.00	   24.49	 -490.99	   18.11
    119.3149	   26.00	   24.49	 -494.99	   18.11
    119.3483	   33.00	   24.49	 -487.99	   18.11
    119.3817	   25.00	   24.49	 -495.99	   18.11
    119.4151	   36.00	   24.49	 -484.99	   18.11
    119.4486	   33.00	   24.50	 -488.00	   18.11
    119.4820	   28.00	   24.50	 -493.00	   18.11
    119.5154	   28.00	   24.50	 -493.00	   18.11
    119.5488	   31.00	   24.50	 -490.00	   18.11
    119.5822	   26.00	   24.51	 -495.01	   18.11
    119.6157	   26.00	   24.51	 -495.01	   18.11
    119.6491	   22.00	   24.51	 -499.01	   18.11
    119.6825	   32.00	   24.52	 -489.02	   18.11
    119.7159	   20.00	   24.52	 -501.02	   18.11
    119.7494	   20.00	   24.53	 -501.03	   18.10
    119.7828	   31.00	   24.53	 -490.03	   18.10
    119.8162	   32.00	   24.54	 -489.04	   18.10
    119.8496	   31.00	   24.55	 -490.05	   18.10
    119.8830	   30.00	   24.56	 -491.06	   18.10
    119.9165	   25.00	   24.57	 -496.07	   18.10
    119.9499	   30.00	   24.57	 -491.07	   18.10
    119.9833	   32.00	   24.58	 -489.08	   18.10
     31.7544	        	        	        	        	       0	(  1  0  0)	  0  1
     31.8346	        	        	        	        	       0	(  1  0  0)	  0  2
     34.4066	        	        	        	        	       0	(  0  0  2)	  0  1
     34.4939	        	        	        	        	       0	(  0  0  2)	  0  2
     36.2392	        	        	        	        	       0	(  1  0  1)	  0  1
     36.3315	        	        	        	        	       0	(  1  0  1)	  0  2
     47.5246	        	        	        	        	       0	(  1  0  2)	  0  1
     47.6487	        	        	        	        	       0	(  1  0  2)	  0  2
     56.5812	        	        	        	        	       0	(  1  1  0)	  0  1
     56.7331	        	        	        	        	       0	(  1  1  0)	  0  2
     62.8419	        	        	        	        	       0	(  1  0  3)	  0  1
     63.0143	        	        	        	        	       0	(  1  0  3)	  0  2
     66.3620	        	        	        	        	       0	(  2  0  0)	  0  1
     66.5465	        	        	        	        	       0	(  2  0  0)	  0  2
     67.9333	        	        	        	        	       0	(  1  1  2)	  0  1
     68.1234	        	        	        	        	       0	(  1  1  2)	  0  2
     69.0724	        	        	        	        	       0	(  2  0  1)	  0  1
     69.2666	        	        	        	        	       0	(  2  0  1)	  0  2
     72.5502	        	        	        	        	       0	(  0  0  4)	  0  1
     72.7573	        	        	        	        	       0	(  0  0  4)	  0  2
     76.9455	        	        	        	        	       0	(  2  0  2)	  0  1
     77.1697	        	        	        	        	       0	(  2  0  2)	  0  2
     81.3696	        	        	        	        	       0	(  1  0  4)	  0  1
     81.6122	        	        	        	        	       0	(  1  0  4)	  0  2
     89.5978	        	        	        	        	       0	(  2  0  3)	  0  1
     89.8782	        	        	        	        	       0	(  2  0  3)	  0  2
     92.7787	        	        	        	        	       0	(  2  1  0)	  0  1
     93.0751	        	        	        	        	       0	(  2  1  0)	  0  2
     95.2932	        	        	        	        	       0	(  2  1  1)	  0  1
     95.6030	        	        	        	        	       0	(  2  1  1)	  0  2
     98.6023	        	        	        	        	       0	(  1  1  4)	  0  1
     98.9307	        	        	        	        	       0	(  1  1  4)	  0  2
    102.9191	        	        	        	        	       0	(  2  1  2)	  0  1
    103.2737	        	        	        	        	       0	(  2  1  2)	  0  2
    104.1168	        	        	        	        	       0	(  1  0  5)	  0  1
    104.4792	        	        	        	        	       0	(  1  0  5)	  0  2
    107.4215	        	        	        	        	       0	(  2  0  4)	  0  1
    107.8064	        	        	        	        	       0	(  2  0  4)	  0  2
    110.3727	        	        	        	        	       0	(  3  0  0)	  0  1
    110.7792	        	        	        	        	       0	(  3  0  0)	  0  2
    113.0728	        	        	        	        	       0	(  3  0  1)	  0  1
    113.5006	        	        	        	        	       0	(  3  0  1)	  0  2
    116.2604	        	        	        	        	       0	(  2  1  3)	  0  1
    116.7154	        	        	        	        	       0	(  2  1  3)	  0  2
    121.5492	        	        	        	        	       0	(  3  0  2)	  0  1
    122.0552	        	        	        	        	       0	(  3  0  2)	  0  2
    125.1421	        	        	        	        	       0	(  0  0  6)	  0  1
    125.6879	        	        	        	        	       0	(  0  0  6)	  0  2
