 ZnO   Chi2:  2.9617  CELL:    3.24980   3.24980   5.20664   90.0000   90.0000  120.0000   SPGR: P 63 m c               TEMP:      0.00
  1   2992     1.54060     1.54439     0.00000    -0.07481     0.00000    0
    49     0     1
       0.00000      15.00000
 2Theta	Yobs	Ycal	Yobs-Ycal	Backg	Posr	(hkl)	K
     20.0165	   21.00	   19.99	 -400.39	   17.42
     20.0499	   26.00	   19.98	 -395.39	   17.42
     20.0834	   18.00	   19.98	 -403.38	   17.41
     20.1168	   27.00	   19.98	 -394.38	   17.41
     20.1502	   23.00	   19.97	 -398.38	   17.41
     20.1836	   26.00	   19.97	 -395.37	   17.40
     20.2170	   12.00	   19.97	 -409.37	   17.40
     20.2505	   21.00	   19.96	 -400.37	   17.40
     20.2839	   30.00	   19.96	 -391.36	   17.39
     20.3173	   18.00	   19.96	 -403.36	   17.39
     20.3507	   16.00	   19.95	 -405.36	   17.39
     20.3842	   20.00	   19.95	 -401.35	   17.38
     20.4176	   17.00	   19.95	 -404.35	   17.38
     20.4510	   16.00	   19.94	 -405.35	   17.38
     20.4844	   20.00	   19.94	 -401.34	   17.38
     20.5179	   27.00	   19.94	 -394.34	   17.37
     20.5513	   17.00	   19.93	 -404.34	   17.37
     20.5847	   16.00	   19.93	 -405.33	   17.37
     20.6181	   17.00	   19.93	 -404.33	   17.36
     20.6515	   18.00	   19.92	 -403.33	   17.36
     20.6850	   21.00	   19.92	 -400.32	   17.36
     20.7184	   20.00	   19.92	 -401.32	   17.35
     20.7518	   12.00	   19.91	 -409.32	   17.35
     20.7852	   18.00	   19.91	 -403.31	   17.35
     20.8187	   13.00	   19.91	 -408.31	   17.34
     20.8521	   17.00	   19.90	 -404.31	   17.34
     20.8855	   20.00	   19.90	 -401.31	   17.34
     20.9189	   21.00	   19.90	 -400.30	   17.33
     20.9523	   17.00	   19.89	 -404.30	   17.33
     20.9858	   20.00	   19.89	 -401.30	   17.33
     21.0192	   23.00	   19.89	 -398.29	   17.32
     21.0526	   18.00	   19.88	 -403.29	   17.32
     21.0860	   25.00	   19.88	 -396.29	   17.32
     21.1195	   23.00	   19.88	 -398.28	   17.31
     21.1529	   25.00	   19.87	 -396.28	   17.31
     21.1863	   22.00	   19.87	 -399.28	   17.31
     21.2197	   30.00	   19.87	 -391.27	   17.30
     21.2531	   13.00	   19.86	 -408.27	   17.30
     21.2866	   26.00	   19.86	 -395.27	   17.30
     21.3200	   12.00	   19.86	 -409.26	   17.29
     21.3534	   21.00	   19.86	 -400.26	   17.29
     21.3868	   15.00	   19.85	 -406.26	   17.29
     21.4203	   12.00	   19.85	 -409.25	   17.28
     21.4537	   22.00	   19.85	 -399.25	   17.28
     21.4871	   22.00	   19.84	 -399.25	   17.28
     21.5205	   32.00	   19.84	 -389.24	   17.27
     21.5539	   36.00	   19.84	 -385.24	   17.27
     21.5874	   13.00	   19.83	 -408.24	   17.27
     21.6208	   22.00	   19.83	 -399.23	   17.26
     21.6542	   17.00	   19.83	 -404.23	   17.26
     21.6876	   23.00	   19.82	 -398.23	   17.26
     21.7211	   11.00	   19.82	 -410.22	   17.25
     21.7545	   17.00	   19.82	 -404.22	   17.25
     21.7879	   15.00	   19.81	 -406.22	   17.25
     21.8213	   16.00	   19.81	 -405.21	   17.25
     21.8548	   18.00	   19.81	 -403.21	   17.24
     21.8882	   22.00	   19.80	 -399.21	   17.24
     21.9216	   18.00	   19.80	 -403.20	   17.24
     21.9550	   22.00	   19.80	 -399.20	   17.23
     21.9884	   16.00	   19.79	 -405.20	   17.23
     22.0219	   27.00	   19.79	 -394.19	   17.23
     22.0553	   16.00	   19.79	 -405.19	   17.22
     22.0887	   20.00	   19.78	 -401.19	   17.22
     22.1221	   18.00	   19.78	 -403.18	   17.22
     22.1556	   28.00	   19.78	 -393.18	   17.21
     22.1890	   21.00	   19.77	 -400.18	   17.21
     22.2224	   22.00	   19.77	 -399.17	   17.21
     22.2558	   26.00	   19.77	 -395.17	   17.20
     22.2892	   22.00	   19.76	 -399.17	   17.20
     22.3227	   21.00	   19.76	 -400.17	   17.20
     22.3561	   28.00	   19.76	 -393.16	   17.19
     22.3895	   18.00	   19.75	 -403.16	   17.19
     22.4229	   11.00	   19.75	 -410.16	   17.19
     22.4564	   28.00	   19.75	 -393.15	   17.18
     22.4898	   20.00	   19.74	 -401.15	   17.18
     22.5232	   12.00	   19.74	 -409.15	   17.18
     22.5566	   12.00	   19.74	 -409.14	   17.17
     22.5900	   18.00	   19.73	 -403.14	   17.17
     22.6235	   22.00	   19.73	 -399.14	   17.17
     22.6569	   23.00	   19.73	 -398.13	   17.16
     22.6903	   26.00	   19.72	 -395.13	   17.16
     22.7237	   13.00	   19.72	 -408.13	   17.16
     22.7572	   25.00	   19.72	 -396.12	   17.15
     22.7906	   15.00	   19.72	 -406.12	   17.15
     22.8240	   21.00	   19.71	 -400.12	   17.15
     22.8574	   22.00	   19.71	 -399.11	   17.14
     22.8909	   18.00	   19.71	 -403.11	   17.14
     22.9243	   23.00	   19.70	 -398.11	   17.14
     22.9577	   22.00	   19.70	 -399.10	   17.13
     22.9911	   16.00	   19.70	 -405.10	   17.13
     23.0245	   17.00	   19.69	 -404.10	   17.13
     23.0580	   22.00	   19.69	 -399.09	   17.12
     23.0914	   22.00	   19.69	 -399.09	   17.12
     23.1248	   26.00	   19.68	 -395.09	   17.12
     23.1582	   20.00	   19.68	 -401.08	   17.11
     23.1917	   26.00	   19.68	 -395.08	   17.11
     23.2251	   17.00	   19.67	 -404.08	   17.11
     23.2585	   23.00	   19.67	 -398.07	   17.11
     23.2919	   20.00	   19.67	 -401.07	   17.10
     23.3253	   17.00	   19.66	 -404.07	   17.10
     23.3588	   15.00	   19.66	 -406.06	   17.10
     23.3922	   22.00	   19.66	 -399.06	   17.09
     23.4256	   17.00	   19.65	 -404.06	   17.09
     23.4590	   17.00	   19.65	 -404.05	   17.09
     23.4925	   25.00	   19.65	 -396.05	   17.08
     23.5259	   11.00	   19.64	 -410.05	   17.08
     23.5593	   27.00	   19.64	 -394.04	   17.08
     23.5927	   20.00	   19.64	 -401.04	   17.07
     23.6261	   23.00	   19.63	 -398.04	   17.07
     23.6596	   21.00	   19.63	 -400.04	   17.07
     23.6930	   15.00	   19.63	 -406.03	   17.06
     23.7264	   13.00	   19.62	 -408.03	   17.06
     23.7598	   18.00	   19.62	 -403.03	   17.06
     23.7933	   12.00	   19.62	 -409.02	   17.05
     23.8267	   17.00	   19.61	 -404.02	   17.05
     23.8601	   22.00	   19.61	 -399.02	   17.05
     23.8935	   18.00	   19.61	 -403.01	   17.04
     23.9269	   17.00	   19.60	 -404.01	   17.04
     23.9604	    8.00	   19.60	 -413.01	   17.04
     23.9938	   25.00	   19.60	 -396.00	   17.03
     24.0272	   18.00	   19.59	 -403.00	   17.03
     24.0606	   23.00	   19.59	 -398.00	   17.03
     24.0941	   18.00	   19.59	 -402.99	   17.02
     24.1275	   16.00	   19.59	 -404.99	   17.02
     24.1609	   16.00	   19.58	 -404.99	   17.02
     24.1943	   17.00	   19.58	 -403.98	   17.01
     24.2278	   26.00	   19.58	 -394.98	   17.01
     24.2612	   17.00	   19.57	 -403.98	   17.01
     24.2946	   13.00	   19.57	 -407.97	   17.00
     24.3280	   18.00	   19.57	 -402.97	   17.00
     24.3614	   18.00	   19.56	 -402.97	   17.00
     24.3949	   18.00	   19.56	 -402.96	   16.99
     24.4283	   17.00	   19.56	 -403.96	   16.99
     24.4617	   20.00	   19.55	 -400.96	   16.99
     24.4951	   21.00	   19.55	 -399.95	   16.98
     24.5286	   26.00	   19.55	 -394.95	   16.98
     24.5620	   11.00	   19.54	 -409.95	   16.98
     24.5954	   16.00	   19.54	 -404.94	   16.98
     24.6288	   26.00	   19.54	 -394.94	   16.97
     24.6622	   13.00	   19.53	 -407.94	   16.97
     24.6957	   22.00	   19.53	 -398.93	   16.97
     24.7291	   21.00	   19.53	 -399.93	   16.96
     24.7625	   21.00	   19.52	 -399.93	   16.96
     24.7959	   12.00	   19.52	 -408.92	   16.96
     24.8294	   16.00	   19.52	 -404.92	   16.95
     24.8628	    7.00	   19.51	 -413.92	   16.95
     24.8962	   10.00	   19.51	 -410.91	   16.95
     24.9296	   18.00	   19.51	 -402.91	   16.94
     24.9630	   18.00	   19.50	 -402.91	   16.94
     24.9965	   21.00	   19.50	 -399.90	   16.94
     25.0299	   15.00	   19.50	 -405.90	   16.93
     25.0633	   11.00	   19.49	 -409.90	   16.93
     25.0967	   15.00	   19.49	 -405.90	   16.93
     25.1302	   21.00	   19.49	 -399.89	   16.92
     25.1636	   28.00	   19.48	 -392.89	   16.92
     25.1970	   20.00	   19.48	 -400.89	   16.92
     25.2304	   23.00	   19.48	 -397.88	   16.91
     25.2639	   22.00	   19.47	 -398.88	   16.91
     25.2973	   21.00	   19.47	 -399.88	   16.91
     25.3307	   12.00	   19.47	 -408.87	   16.90
     25.3641	   15.00	   19.46	 -405.87	   16.90
     25.3975	   12.00	   19.46	 -408.87	   16.90
     25.4310	   12.00	   19.46	 -408.86	   16.89
     25.4644	   22.00	   19.45	 -398.86	   16.89
     25.4978	   27.00	   19.45	 -393.86	   16.89
     25.5312	   27.00	   19.45	 -393.85	   16.88
     25.5647	   18.00	   19.45	 -402.85	   16.88
     25.5981	   23.00	   19.44	 -397.85	   16.88
     25.6315	   21.00	   19.44	 -399.84	   16.87
     25.6649	   23.00	   19.44	 -397.84	   16.87
     25.6983	   15.00	   19.43	 -405.84	   16.87
     25.7318	   23.00	   19.43	 -397.83	   16.86
     25.7652	   17.00	   19.43	 -403.83	   16.86
     25.7986	   31.00	   19.42	 -389.83	   16.86
     25.8320	   18.00	   19.42	 -402.82	   16.85
     25.8655	   21.00	   19.42	 -399.82	   16.85
     25.8989	   23.00	   19.41	 -397.82	   16.85
     25.9323	   17.00	   19.41	 -403.81	   16.85
     25.9657	   20.00	   19.41	 -400.81	   16.84
     25.9991	   17.00	   19.40	 -403.81	   16.84
     26.0326	   15.00	   19.40	 -405.80	   16.84
     26.0660	   17.00	   19.40	 -403.80	   16.83
     26.0994	   20.00	   19.39	 -400.80	   16.83
     26.1328	   22.00	   19.39	 -398.79	   16.83
     26.1663	   20.00	   19.39	 -400.79	   16.82
     26.1997	   16.00	   19.38	 -404.79	   16.82
     26.2331	   18.00	   19.38	 -402.78	   16.82
     26.2665	   21.00	   19.38	 -399.78	   16.81
     26.2999	   17.00	   19.37	 -403.78	   16.81
     26.3334	   16.00	   19.37	 -404.77	   16.81
     26.3668	   10.00	   19.37	 -410.77	   16.80
     26.4002	   21.00	   19.36	 -399.77	   16.80
     26.4336	   12.00	   19.36	 -408.77	   16.80
     26.4671	   28.00	   19.36	 -392.76	   16.79
     26.5005	   16.00	   19.35	 -404.76	   16.79
     26.5339	   26.00	   19.35	 -394.76	   16.79
     26.5673	   16.00	   19.35	 -404.75	   16.78
     26.6008	   23.00	   19.34	 -397.75	   16.78
     26.6342	   16.00	   19.34	 -404.75	   16.78
     26.6676	   17.00	   19.34	 -403.74	   16.77
     26.7010	   23.00	   19.33	 -397.74	   16.77
     26.7344	   21.00	   19.33	 -399.74	   16.77
     26.7679	   21.00	   19.33	 -399.73	   16.76
     26.8013	   27.00	   19.32	 -393.73	   16.76
     26.8347	   28.00	   19.32	 -392.73	   16.76
     26.8681	   31.00	   19.32	 -389.72	   16.75
     26.9016	   13.00	   19.32	 -407.72	   16.75
     26.9350	   13.00	   19.31	 -407.72	   16.75
     26.9684	   27.00	   19.31	 -393.71	   16.74
     27.0018	   21.00	   19.31	 -399.71	   16.74
     27.0352	   25.00	   19.30	 -395.71	   16.74
     27.0687	   12.00	   19.30	 -408.70	   16.73
     27.1021	   20.00	   19.30	 -400.70	   16.73
     27.1355	   30.00	   19.29	 -390.70	   16.73
     27.1689	   12.00	   19.29	 -408.69	   16.72
     27.2024	   27.00	   19.29	 -393.69	   16.72
     27.2358	   20.00	   19.28	 -400.69	   16.72
     27.2692	   26.00	   19.28	 -394.68	   16.71
     27.3026	   20.00	   19.28	 -400.68	   16.71
     27.3360	   25.00	   19.27	 -395.68	   16.71
     27.3695	   23.00	   19.27	 -397.67	   16.71
     27.4029	   22.00	   19.27	 -398.67	   16.70
     27.4363	   16.00	   19.26	 -404.67	   16.70
     27.4697	   11.00	   19.26	 -409.66	   16.70
     27.5032	   18.00	   19.26	 -402.66	   16.69
     27.5366	   20.00	   19.25	 -400.66	   16.69
     27.5700	   26.00	   19.25	 -394.65	   16.69
     27.6034	   16.00	   19.39	 -404.80	   16.68
     27.6369	   20.00	   19.39	 -400.80	   16.68
     27.6703	   17.00	   19.39	 -403.80	   16.68
     27.7037	   16.00	   19.47	 -404.87	   16.67
     27.7371	   18.00	   19.47	 -402.87	   16.67
     27.7705	   20.00	   19.47	 -400.87	   16.67
     27.8040	   18.00	   19.47	 -402.87	   16.66
     27.8374	   17.00	   19.47	 -403.87	   16.66
     27.8708	   25.00	   19.47	 -395.87	   16.66
     27.9042	   17.00	   19.47	 -403.87	   16.65
     27.9377	   18.00	   19.47	 -402.88	   16.65
     27.9711	   26.00	   19.47	 -394.88	   16.65
     28.0045	   10.00	   19.47	 -410.88	   16.64
     28.0379	   35.00	   19.48	 -385.88	   16.64
     28.0713	   26.00	   19.48	 -394.88	   16.64
     28.1048	   26.00	   19.48	 -394.88	   16.63
     28.1382	   18.00	   19.48	 -402.89	   16.63
     28.1716	   31.00	   19.48	 -389.89	   16.63
     28.2050	   12.00	   19.49	 -408.89	   16.62
     28.2385	   13.00	   19.49	 -407.89	   16.62
     28.2719	   21.00	   19.49	 -399.90	   16.62
     28.3053	   21.00	   19.49	 -399.90	   16.61
     28.3387	   16.00	   19.50	 -404.90	   16.61
     28.3721	   20.00	   19.50	 -400.90	   16.61
     28.4056	   15.00	   19.50	 -405.91	   16.60
     28.4390	   20.00	   19.51	 -400.91	   16.60
     28.4724	   31.00	   19.51	 -389.92	   16.60
     28.5058	   21.00	   19.51	 -399.92	   16.59
     28.5393	   21.00	   19.52	 -399.92	   16.59
     28.5727	   16.00	   19.52	 -404.93	   16.59
     28.6061	   20.00	   19.53	 -400.93	   16.58
     28.6395	   17.00	   19.53	 -403.94	   16.58
     28.6729	   36.00	   19.54	 -384.94	   16.58
     28.7064	   26.00	   19.54	 -394.95	   16.58
     28.7398	   27.00	   19.55	 -393.95	   16.57
     28.7732	   27.00	   19.56	 -393.96	   16.57
     28.8066	   28.00	   19.56	 -392.97	   16.57
     28.8401	   21.00	   19.57	 -399.97	   16.56
     28.8735	   28.00	   19.58	 -392.98	   16.56
     28.9069	   21.00	   19.58	 -399.99	   16.56
     28.9403	   22.00	   19.59	 -399.00	   16.55
     28.9738	   18.00	   19.60	 -403.01	   16.55
     29.0072	   27.00	   19.61	 -394.01	   16.55
     29.0406	   16.00	   19.62	 -405.02	   16.54
     29.0740	   26.00	   19.63	 -395.03	   16.54
     29.1074	   32.00	   19.64	 -389.04	   16.54
     29.1409	   22.00	   19.65	 -399.05	   16.53
     29.1743	   18.00	   19.66	 -403.07	   16.53
     29.2077	   13.00	   19.67	 -408.08	   16.53
     29.2411	   16.00	   19.69	 -405.09	   16.52
     29.2746	   26.00	   19.70	 -395.10	   16.52
     29.3080	   13.00	   19.71	 -408.12	   16.52
     29.3414	   16.00	   19.73	 -405.13	   16.51
     29.3748	   18.00	   19.74	 -403.15	   16.51
     29.4082	   18.00	   19.76	 -403.16	   16.51
     29.4417	   20.00	   19.78	 -401.18	   16.50
     29.4751	   15.00	   19.79	 -406.20	   16.50
     29.5085	   23.00	   19.81	 -398.22	   16.50
     29.5419	   18.00	   19.83	 -403.24	   16.49
     29.5754	   26.00	   19.85	 -395.26	   16.49
     29.6088	   20.00	   19.87	 -401.28	   16.49
     29.6422	   21.00	   19.90	 -400.30	   16.48
     29.6756	   17.00	   19.92	 -404.33	   16.48
     29.7090	   17.00	   19.95	 -404.35	   16.48
     29.7425	   32.00	   19.98	 -389.38	   16.47
     29.7759	   21.00	   20.01	 -400.41	   16.47
     29.8093	   23.00	   20.04	 -398.44	   16.47
     29.8427	   27.00	   20.07	 -394.47	   16.46
     29.8762	   22.00	   20.10	 -399.51	   16.46
     29.9096	   25.00	   20.14	 -396.55	   16.46
     29.9430	   20.00	   20.18	 -401.58	   16.45
     29.9764	   25.00	   20.22	 -396.63	   16.45
     30.0098	   23.00	   20.27	 -398.67	   16.45
     30.0433	   21.00	   20.31	 -400.72	   16.44
     30.0767	   28.00	   20.36	 -393.77	   16.44
     30.1101	   30.00	   20.42	 -391.82	   16.44
     30.1435	   18.00	   20.47	 -403.88	   16.44
     30.1770	   21.00	   20.53	 -400.94	   16.43
     30.2104	   25.00	   20.60	 -397.00	   16.43
     30.2438	   23.00	   20.78	 -399.18	   16.43
     30.2772	   17.00	   20.86	 -405.26	   16.42
     30.3107	   25.00	   20.94	 -397.34	   16.42
     30.3441	   21.00	   21.08	 -401.49	   16.42
     30.3775	   21.00	   21.18	 -401.58	   16.41
     30.4109	   21.00	   21.28	 -401.69	   16.41
     30.4443	   21.00	   21.39	 -401.80	   16.41
     30.4778	   23.00	   21.52	 -399.92	   16.40
     30.5112	   23.00	   21.65	 -400.05	   16.40
     30.5446	   22.00	   21.79	 -401.20	   16.40
     30.5780	   26.00	   21.95	 -397.35	   16.39
     30.6115	   27.00	   22.12	 -396.52	   16.39
     30.6449	   21.00	   22.31	 -402.71	   16.39
     30.6783	   22.00	   22.51	 -401.91	   16.38
     30.7117	   17.00	   22.74	 -407.14	   16.38
     30.7451	   25.00	   22.99	 -399.39	   16.38
     30.7786	   21.00	   23.26	 -403.67	   16.37
     30.8120	   28.00	   23.57	 -396.97	   16.37
     30.8454	   23.00	   23.91	 -402.31	   16.37
     30.8788	   31.00	   24.29	 -394.70	   16.36
     30.9123	   33.00	   24.72	 -393.13	   16.36
     30.9457	   27.00	   25.21	 -399.62	   16.36
     30.9791	   30.00	   25.77	 -397.17	   16.35
     31.0125	   30.00	   26.40	 -397.81	   16.35
     31.0459	   31.00	   27.13	 -397.53	   16.35
     31.0794	   27.00	   27.97	 -402.38	   16.34
     31.1128	   43.00	   28.96	 -387.36	   16.34
     31.1462	   27.00	   30.12	 -404.52	   16.34
     31.1796	   41.00	   31.49	 -391.89	   16.33
     31.2131	   28.00	   33.14	 -406.54	   16.33
     31.2465	   46.00	   35.14	 -390.54	   16.33
     31.2799	   47.00	   37.59	 -392.00	   16.32
     31.3133	   47.00	   40.66	 -395.06	   16.32
     31.3468	   43.00	   44.54	 -402.95	   16.32
     31.3802	   51.00	   49.58	 -399.98	   16.31
     31.4136	   67.00	   56.31	 -390.71	   16.31
     31.4470	   76.00	   65.84	 -391.24	   16.31
     31.4804	   96.00	   80.82	 -386.23	   16.31
     31.5139	  103.00	  107.70	 -406.10	   16.30
     31.5473	  139.00	  159.62	 -422.03	   16.30
     31.5807	  211.00	  256.41	 -446.81	   16.30
     31.6141	  331.00	  415.38	 -485.78	   16.29
     31.6476	  658.00	  630.23	 -373.63	   16.29
     31.6810	  945.00	  836.42	 -292.83	   16.29
     31.7144	  999.00	  917.03	 -319.44	   16.28
     31.7478	  950.00	  853.05	 -304.46	   16.28
     31.7812	  717.00	  706.70	 -391.11	   16.28
     31.8147	  527.00	  515.87	 -390.27	   16.27
     31.8481	  310.00	  340.23	 -431.64	   16.27
     31.8815	  206.00	  215.41	 -410.82	   16.27
     31.9149	  134.00	  139.53	 -406.93	   16.26
     31.9484	   87.00	   97.60	 -412.01	   16.26
     31.9818	   60.00	   74.96	 -416.37	   16.26
     32.0152	   70.00	   61.91	 -393.32	   16.25
     32.0486	   56.00	   53.75	 -399.15	   16.25
     32.0820	   62.00	   47.75	 -387.15	   16.25
     32.1155	   45.00	   43.24	 -399.64	   16.24
     32.1489	   45.00	   39.87	 -396.28	   16.24
     32.1823	   38.00	   37.10	 -400.51	   16.24
     32.2157	   33.00	   34.88	 -403.28	   16.23
     32.2492	   37.00	   33.06	 -397.47	   16.23
     32.2826	   27.00	   31.56	 -405.97	   16.23
     32.3160	   35.00	   30.31	 -396.72	   16.22
     32.3494	   35.00	   29.26	 -395.67	   16.22
     32.3829	   32.00	   28.37	 -397.77	   16.22
     32.4163	   31.00	   27.61	 -398.01	   16.21
     32.4497	   17.00	   26.95	 -411.36	   16.21
     32.4831	   30.00	   26.39	 -397.79	   16.21
     32.5165	   23.00	   25.90	 -404.30	   16.20
     32.5500	   38.00	   25.47	 -388.88	   16.20
     32.5834	   28.00	   25.10	 -398.51	   16.20
     32.6168	   28.00	   24.78	 -398.18	   16.19
     32.6502	   48.00	   24.49	 -377.90	   16.19
     32.6837	   30.00	   24.25	 -395.65	   16.19
     32.7171	   32.00	   24.03	 -393.43	   16.18
     32.7505	   22.00	   23.84	 -403.24	   16.18
     32.7839	   22.00	   23.67	 -403.08	   16.18
     32.8173	   27.00	   23.53	 -397.94	   16.18
     32.8508	   20.00	   23.41	 -404.82	   16.17
     32.8842	   25.00	   23.31	 -399.71	   16.17
     32.9176	   26.00	   23.23	 -398.63	   16.17
     32.9510	   33.00	   23.16	 -391.56	   16.16
     32.9845	   32.00	   23.11	 -392.51	   16.16
     33.0179	   17.00	   23.07	 -407.47	   16.16
     33.0513	   23.00	   23.04	 -401.45	   16.15
     33.0847	   27.00	   23.04	 -397.44	   16.15
     33.1181	   28.00	   23.04	 -396.45	   16.15
     33.1516	   38.00	   23.06	 -386.47	   16.14
     33.1850	   26.00	   23.10	 -398.50	   16.14
     33.2184	   30.00	   23.15	 -394.55	   16.14
     33.2518	   32.00	   23.21	 -392.61	   16.13
     33.2853	   31.00	   23.29	 -393.70	   16.13
     33.3187	   28.00	   23.39	 -396.79	   16.13
     33.3521	   28.00	   23.51	 -396.91	   16.12
     33.3855	   17.00	   23.65	 -408.05	   16.12
     33.4189	   22.00	   23.81	 -403.21	   16.12
     33.4524	   17.00	   23.99	 -408.40	   16.11
     33.4858	   36.00	   24.21	 -389.61	   16.11
     33.5192	   27.00	   24.45	 -398.86	   16.11
     33.5526	   26.00	   24.74	 -400.14	   16.10
     33.5861	   35.00	   25.06	 -391.47	   16.10
     33.6195	   35.00	   25.44	 -391.84	   16.10
     33.6529	   36.00	   25.87	 -391.27	   16.09
     33.6863	   25.00	   26.37	 -402.77	   16.09
     33.7198	   20.00	   26.95	 -408.35	   16.09
     33.7532	   26.00	   27.62	 -403.03	   16.08
     33.7866	   28.00	   28.42	 -401.83	   16.08
     33.8200	   42.00	   29.37	 -388.77	   16.08
     33.8534	   48.00	   30.50	 -383.91	   16.07
     33.8869	   30.00	   31.87	 -403.28	   16.07
     33.9203	   28.00	   33.54	 -406.95	   16.07
     33.9537	   35.00	   35.62	 -402.02	   16.06
     33.9871	   33.00	   38.23	 -406.64	   16.06
     34.0206	   48.00	   41.58	 -394.99	   16.06
     34.0540	   56.00	   46.00	 -391.40	   16.05
     34.0874	   54.00	   52.08	 -399.48	   16.05
     34.1208	   65.00	   61.22	 -397.62	   16.05
     34.1542	   62.00	   76.82	 -416.22	   16.04
     34.1877	  106.00	  106.38	 -401.78	   16.04
     34.2211	  133.00	  162.60	 -431.01	   16.04
     34.2545	  209.00	  259.64	 -452.04	   16.04
     34.2879	  326.00	  401.27	 -476.67	   16.03
     34.3214	  595.00	  560.13	 -366.54	   16.03
     34.3548	  690.00	  659.66	 -371.07	   16.03
     34.3882	  619.00	  648.70	 -431.11	   16.02
     34.4216	  610.00	  570.06	 -361.46	   16.02
     34.4550	  419.00	  452.59	 -434.99	   16.02
     34.4885	  291.00	  320.17	 -430.58	   16.01
     34.5219	  183.00	  210.92	 -429.33	   16.01
     34.5553	  104.00	  137.67	 -435.08	   16.01
     34.5887	   76.00	   94.53	 -419.93	   16.00
     34.6222	   61.00	   70.93	 -411.33	   16.00
     34.6556	   56.00	   57.98	 -403.38	   16.00
     34.6890	   61.00	   50.23	 -390.63	   15.99
     34.7224	   37.00	   45.05	 -409.46	   15.99
     34.7559	   32.00	   41.31	 -410.71	   15.99
     34.7893	   41.00	   38.49	 -398.89	   15.98
     34.8227	   25.00	   36.32	 -412.72	   15.98
     34.8561	   40.00	   34.63	 -396.03	   15.98
     34.8895	   32.00	   33.30	 -402.71	   15.97
     34.9230	   36.00	   32.26	 -397.66	   15.97
     34.9564	   40.00	   31.44	 -392.84	   15.97
     34.9898	   46.00	   30.80	 -386.20	   15.96
     35.0232	   38.00	   30.31	 -393.72	   15.96
     35.0567	   27.00	   29.95	 -404.36	   15.96
     35.0901	   42.00	   29.71	 -389.11	   15.95
     35.1235	   41.00	   29.57	 -389.97	   15.95
     35.1569	   36.00	   29.51	 -394.92	   15.95
     35.1903	   59.00	   29.55	 -371.96	   15.94
     35.2238	   36.00	   29.67	 -395.08	   15.94
     35.2572	   40.00	   29.87	 -391.28	   15.94
     35.2906	   35.00	   30.16	 -396.57	   15.93
     35.3240	   36.00	   30.54	 -395.95	   15.93
     35.3575	   46.00	   31.02	 -386.43	   15.93
     35.3909	   52.00	   31.60	 -381.01	   15.92
     35.4243	   31.00	   32.30	 -402.71	   15.92
     35.4577	   32.00	   33.14	 -402.54	   15.92
     35.4911	   41.00	   34.13	 -394.53	   15.91
     35.5246	   41.00	   35.29	 -395.70	   15.91
     35.5580	   38.00	   36.68	 -400.08	   15.91
     35.5914	   40.00	   38.32	 -399.72	   15.91
     35.6248	   47.00	   40.27	 -394.67	   15.90
     35.6583	   50.00	   42.61	 -394.01	   15.90
     35.6917	   45.00	   45.43	 -401.83	   15.90
     35.7251	   59.00	   48.87	 -391.27	   15.89
     35.7585	   60.00	   53.10	 -394.50	   15.89
     35.7920	   76.00	   58.38	 -383.79	   15.89
     35.8254	   76.00	   65.08	 -390.48	   15.88
     35.8588	   79.00	   73.59	 -395.99	   15.88
     35.8922	   97.00	   85.02	 -389.42	   15.88
     35.9256	  111.00	  101.10	 -391.51	   15.87
     35.9591	  154.00	  125.86	 -373.27	   15.87
     35.9925	  143.00	  169.21	 -427.62	   15.87
     36.0259	  238.00	  252.05	 -415.46	   15.86
     36.0593	  306.00	  407.30	 -502.70	   15.86
     36.0928	  533.00	  667.27	 -535.67	   15.86
     36.1262	  953.00	 1031.29	 -479.70	   15.85
     36.1596	 1514.00	 1410.47	 -297.88	   15.85
     36.1930	 1600.00	 1605.62	 -407.02	   15.85
     36.2264	 1422.00	 1538.61	 -518.01	   15.84
     36.2599	 1210.00	 1338.35	 -529.76	   15.84
     36.2933	  943.00	 1056.25	 -514.65	   15.84
     36.3267	  650.00	  740.35	 -491.76	   15.83
     36.3601	  355.00	  479.09	 -525.49	   15.83
     36.3936	  241.00	  302.67	 -463.07	   15.83
     36.4270	  138.00	  197.88	 -461.28	   15.82
     36.4604	  128.00	  140.10	 -413.50	   15.82
     36.4938	  110.00	  108.11	 -399.52	   15.82
     36.5272	   91.00	   88.81	 -399.22	   15.81
     36.5607	   75.00	   75.78	 -402.19	   15.81
     36.5941	   86.00	   66.24	 -381.65	   15.81
     36.6275	   64.00	   58.94	 -396.34	   15.80
     36.6609	   64.00	   53.19	 -390.60	   15.80
     36.6944	   70.00	   48.60	 -380.00	   15.80
     36.7278	   38.00	   44.85	 -408.26	   15.79
     36.7612	   41.00	   41.77	 -402.18	   15.79
     36.7946	   37.00	   39.20	 -403.61	   15.79
     36.8280	   48.00	   37.03	 -390.44	   15.78
     36.8615	   42.00	   35.19	 -394.60	   15.78
     36.8949	   36.00	   33.61	 -399.01	   15.78
     36.9283	   32.00	   32.24	 -401.65	   15.78
     36.9617	   41.00	   31.05	 -391.46	   15.77
     36.9952	   43.00	   30.01	 -388.42	   15.77
     37.0286	   30.00	   29.09	 -400.50	   15.77
     37.0620	   37.00	   28.28	 -392.69	   15.76
     37.0954	   20.00	   27.56	 -408.96	   15.76
     37.1289	   25.00	   26.91	 -403.31	   15.76
     37.1623	   28.00	   26.33	 -399.73	   15.75
     37.1957	   32.00	   25.81	 -395.21	   15.75
     37.2291	   32.00	   25.33	 -394.74	   15.75
     37.2625	   18.00	   24.90	 -408.31	   15.74
     37.2960	   28.00	   24.51	 -397.92	   15.74
     37.3294	   25.00	   24.15	 -400.56	   15.74
     37.3628	   31.00	   23.83	 -394.23	   15.73
     37.3962	   32.00	   23.53	 -392.93	   15.73
     37.4297	   17.00	   23.25	 -407.65	   15.73
     37.4631	   27.00	   22.99	 -397.40	   15.72
     37.4965	   25.00	   22.76	 -399.16	   15.72
     37.5299	   22.00	   22.54	 -401.94	   15.72
     37.5633	   18.00	   22.33	 -405.74	   15.71
     37.5968	   20.00	   22.14	 -403.55	   15.71
     37.6302	   20.00	   21.97	 -403.37	   15.71
     37.6636	   23.00	   21.80	 -400.21	   15.70
     37.6970	   26.00	   21.65	 -397.05	   15.70
     37.7305	   25.00	   21.50	 -397.91	   15.70
     37.7639	   23.00	   21.37	 -399.77	   15.69
     37.7973	   30.00	   21.24	 -392.64	   15.69
     37.8307	   23.00	   21.12	 -399.52	   15.69
     37.8641	   28.00	   21.01	 -394.41	   15.68
     37.8976	   18.00	   20.90	 -404.30	   15.68
     37.9310	   28.00	   20.80	 -394.20	   15.68
     37.9644	   21.00	   20.70	 -401.11	   15.67
     37.9978	   31.00	   20.61	 -391.02	   15.67
     38.0313	   16.00	   20.53	 -405.93	   15.67
     38.0647	   28.00	   20.44	 -393.85	   15.66
     38.0981	   13.00	   20.37	 -408.77	   15.66
     38.1315	   16.00	   20.29	 -405.70	   15.66
     38.1649	   28.00	   20.22	 -393.63	   15.65
     38.1984	   25.00	   20.16	 -396.56	   15.65
     38.2318	   13.00	   20.09	 -408.50	   15.65
     38.2652	   30.00	   20.03	 -391.43	   15.64
     38.2986	   20.00	   19.97	 -401.38	   15.64
     38.3321	   15.00	   19.92	 -406.32	   15.64
     38.3655	   22.00	   19.86	 -399.27	   15.64
     38.3989	   32.00	   19.81	 -389.22	   15.63
     38.4323	   37.00	   19.76	 -384.17	   15.63
     38.4658	   18.00	   19.71	 -403.12	   15.63
     38.4992	   20.00	   19.56	 -400.97	   15.62
     38.5326	   23.00	   19.52	 -397.93	   15.62
     38.5660	   21.00	   19.43	 -399.83	   15.62
     38.5994	   20.00	   19.39	 -400.79	   15.61
     38.6329	   18.00	   19.35	 -402.76	   15.61
     38.6663	   23.00	   19.32	 -397.72	   15.61
     38.6997	   28.00	   19.28	 -392.69	   15.60
     38.7331	   23.00	   19.25	 -397.66	   15.60
     38.7666	   35.00	   19.22	 -385.62	   15.60
     38.8000	    8.00	   19.19	 -412.59	   15.59
     38.8334	   16.00	   19.16	 -404.56	   15.59
     38.8668	   21.00	   19.13	 -399.54	   15.59
     38.9002	   16.00	   19.10	 -404.51	   15.58
     38.9337	   17.00	   19.08	 -403.48	   15.58
     38.9671	   15.00	   19.05	 -405.46	   15.58
     39.0005	   35.00	   19.03	 -385.43	   15.57
     39.0339	   27.00	   19.00	 -393.41	   15.57
     39.0674	   18.00	   18.98	 -402.38	   15.57
     39.1008	   25.00	   18.96	 -395.36	   15.56
     39.1342	   21.00	   18.93	 -399.34	   15.56
     39.1676	   22.00	   18.91	 -398.32	   15.56
     39.2010	   18.00	   18.89	 -402.30	   15.55
     39.2345	   13.00	   18.87	 -407.28	   15.55
     39.2679	   32.00	   18.85	 -388.26	   15.55
     39.3013	   20.00	   18.83	 -400.24	   15.54
     39.3347	   32.00	   18.81	 -388.22	   15.54
     39.3682	   21.00	   18.80	 -399.20	   15.54
     39.4016	   18.00	   18.78	 -402.18	   15.53
     39.4350	   21.00	   18.76	 -399.16	   15.53
     39.4684	   28.00	   18.74	 -392.15	   15.53
     39.5019	   26.00	   18.73	 -394.13	   15.52
     39.5353	   18.00	   18.71	 -402.12	   15.52
     39.5687	   17.00	   18.70	 -403.10	   15.52
     39.6021	   25.00	   18.68	 -395.08	   15.51
     39.6355	   20.00	   18.67	 -400.07	   15.51
     39.6690	   25.00	   18.65	 -395.06	   15.51
     39.7024	   15.00	   18.64	 -405.04	   15.51
     39.7358	   26.00	   18.62	 -394.03	   15.50
     39.7692	   25.00	   18.61	 -395.01	   15.50
     39.8027	   22.00	   18.60	 -398.00	   15.50
     39.8361	   22.00	   18.58	 -397.99	   15.49
     39.8695	   16.00	   18.57	 -403.97	   15.49
     39.9029	   18.00	   18.56	 -401.96	   15.49
     39.9363	   22.00	   18.54	 -397.95	   15.48
     39.9698	   21.00	   18.53	 -398.94	   15.48
     40.0032	   35.00	   18.52	 -384.93	   15.48
     40.0366	   17.00	   18.51	 -402.91	   15.47
     40.0700	   18.00	   18.50	 -401.90	   15.47
     40.1035	   30.00	   18.49	 -389.89	   15.47
     40.1369	   18.00	   18.48	 -401.88	   15.46
     40.1703	   20.00	   18.46	 -399.87	   15.46
     40.2037	   18.00	   18.45	 -401.86	   15.46
     40.2371	   23.00	   18.44	 -396.85	   15.45
     40.2706	   21.00	   18.43	 -398.84	   15.45
     40.3040	   13.00	   18.42	 -406.83	   15.45
     40.3374	   13.00	   18.15	 -406.55	   15.44
     40.3708	   18.00	   18.14	 -401.55	   15.44
     40.4043	   22.00	   18.14	 -397.54	   15.44
     40.4377	   18.00	   18.00	 -401.40	   15.43
     40.4711	   23.00	   17.99	 -396.40	   15.43
     40.5045	   22.00	   17.99	 -397.40	   15.43
     40.5379	   18.00	   17.99	 -401.39	   15.42
     40.5714	   18.00	   17.99	 -401.39	   15.42
     40.6048	   23.00	   17.98	 -396.39	   15.42
     40.6382	   27.00	   17.98	 -392.38	   15.41
     40.6716	   23.00	   17.98	 -396.38	   15.41
     40.7051	   23.00	   17.97	 -396.38	   15.41
     40.7385	   25.00	   17.97	 -394.37	   15.40
     40.7719	   23.00	   17.97	 -396.37	   15.40
     40.8053	   22.00	   17.96	 -397.37	   15.40
     40.8388	   13.00	   17.96	 -406.36	   15.39
     40.8722	   20.00	   17.96	 -399.36	   15.39
     40.9056	   25.00	   17.95	 -394.36	   15.39
     40.9390	   12.00	   17.95	 -407.35	   15.38
     40.9724	   23.00	   17.95	 -396.35	   15.38
     41.0059	   20.00	   17.94	 -399.35	   15.38
     41.0393	   15.00	   17.94	 -404.34	   15.38
     41.0727	   16.00	   17.94	 -403.34	   15.37
     41.1061	   25.00	   17.93	 -394.34	   15.37
     41.1396	   21.00	   17.93	 -398.33	   15.37
     41.1730	   21.00	   17.93	 -398.33	   15.36
     41.2064	   22.00	   17.92	 -397.33	   15.36
     41.2398	   32.00	   17.92	 -387.32	   15.36
     41.2732	   21.00	   17.92	 -398.32	   15.35
     41.3067	   11.00	   17.91	 -408.32	   15.35
     41.3401	   18.00	   17.91	 -401.31	   15.35
     41.3735	   22.00	   17.91	 -397.31	   15.34
     41.4069	   25.00	   17.90	 -394.31	   15.34
     41.4404	   22.00	   17.90	 -397.30	   15.34
     41.4738	   26.00	   17.90	 -393.30	   15.33
     41.5072	   28.00	   17.89	 -391.30	   15.33
     41.5406	   18.00	   17.89	 -401.30	   15.33
     41.5741	   22.00	   17.89	 -397.29	   15.32
     41.6075	   18.00	   17.88	 -401.29	   15.32
     41.6409	   22.00	   17.88	 -397.29	   15.32
     41.6743	   15.00	   17.88	 -404.28	   15.31
     41.7077	   12.00	   17.87	 -407.28	   15.31
     41.7412	   21.00	   17.87	 -398.28	   15.31
     41.7746	   23.00	   17.87	 -396.27	   15.30
     41.8080	   12.00	   17.86	 -407.27	   15.30
     41.8414	   21.00	   17.86	 -398.27	   15.30
     41.8749	   28.00	   17.86	 -391.26	   15.29
     41.9083	   26.00	   17.85	 -393.26	   15.29
     41.9417	   18.00	   17.85	 -401.26	   15.29
     41.9751	   20.00	   17.85	 -399.25	   15.28
     42.0085	   11.00	   17.85	 -408.25	   15.28
     42.0420	   21.00	   17.84	 -398.25	   15.28
     42.0754	   20.00	   17.84	 -399.24	   15.27
     42.1088	   22.00	   17.84	 -397.24	   15.27
     42.1422	   22.00	   17.83	 -397.24	   15.27
     42.1757	   26.00	   17.83	 -393.23	   15.26
     42.2091	   13.00	   17.83	 -406.23	   15.26
     42.2425	   17.00	   17.82	 -402.23	   15.26
     42.2759	   20.00	   17.82	 -399.22	   15.25
     42.3093	   22.00	   17.82	 -397.22	   15.25
     42.3428	   26.00	   17.81	 -393.22	   15.25
     42.3762	   22.00	   17.81	 -397.21	   15.24
     42.4096	   22.00	   17.81	 -397.21	   15.24
     42.4430	   23.00	   17.80	 -396.21	   15.24
     42.4765	   25.00	   17.80	 -394.20	   15.24
     42.5099	   16.00	   17.80	 -403.20	   15.23
     42.5433	   26.00	   17.79	 -393.20	   15.23
     42.5767	   18.00	   17.79	 -401.19	   15.23
     42.6101	   12.00	   17.79	 -407.19	   15.22
     42.6436	   26.00	   17.78	 -393.19	   15.22
     42.6770	   18.00	   17.78	 -401.18	   15.22
     42.7104	   23.00	   17.78	 -396.18	   15.21
     42.7438	   17.00	   17.77	 -402.18	   15.21
     42.7773	   22.00	   17.77	 -397.17	   15.21
     42.8107	   10.00	   17.77	 -409.17	   15.20
     42.8441	   28.00	   17.76	 -391.17	   15.20
     42.8775	   15.00	   17.76	 -404.17	   15.20
     42.9109	   15.00	   17.76	 -404.16	   15.19
     42.9444	   13.00	   17.75	 -406.16	   15.19
     42.9778	   15.00	   17.75	 -404.16	   15.19
     43.0112	   20.00	   17.75	 -399.15	   15.18
     43.0446	   16.00	   17.74	 -403.15	   15.18
     43.0781	   18.00	   17.74	 -401.15	   15.18
     43.1115	   13.00	   17.74	 -406.14	   15.17
     43.1449	   25.00	   17.73	 -394.14	   15.17
     43.1783	   28.00	   17.73	 -391.14	   15.17
     43.2118	   21.00	   17.79	 -398.19	   15.16
     43.2452	   21.00	   17.79	 -398.19	   15.16
     43.2786	   15.00	   17.78	 -404.19	   15.16
     43.3120	   16.00	   17.78	 -403.19	   15.15
     43.3454	   13.00	   17.81	 -406.21	   15.15
     43.3789	   17.00	   17.81	 -402.21	   15.15
     43.4123	   25.00	   17.81	 -394.21	   15.14
     43.4457	   16.00	   17.80	 -403.21	   15.14
     43.4791	   20.00	   17.80	 -399.21	   15.14
     43.5126	   18.00	   17.80	 -401.21	   15.13
     43.5460	   26.00	   17.80	 -393.20	   15.13
     43.5794	   18.00	   17.80	 -401.20	   15.13
     43.6128	   23.00	   17.80	 -396.20	   15.12
     43.6462	   25.00	   17.79	 -394.20	   15.12
     43.6797	   20.00	   17.79	 -399.20	   15.12
     43.7131	   20.00	   17.79	 -399.20	   15.11
     43.7465	   16.00	   17.79	 -403.20	   15.11
     43.7799	   18.00	   17.79	 -401.19	   15.11
     43.8134	   17.00	   17.79	 -402.19	   15.11
     43.8468	   15.00	   17.79	 -404.19	   15.10
     43.8802	   17.00	   17.79	 -402.19	   15.10
     43.9136	   22.00	   17.79	 -397.19	   15.10
     43.9470	   27.00	   17.78	 -392.19	   15.09
     43.9805	   11.00	   17.78	 -408.19	   15.09
     44.0139	   17.00	   17.78	 -402.19	   15.09
     44.0473	   23.00	   17.78	 -396.19	   15.08
     44.0807	   22.00	   17.78	 -397.19	   15.08
     44.1142	   23.00	   17.78	 -396.19	   15.08
     44.1476	   28.00	   17.78	 -391.19	   15.07
     44.1810	   15.00	   17.78	 -404.19	   15.07
     44.2144	   25.00	   17.78	 -394.18	   15.07
     44.2478	   20.00	   17.78	 -399.18	   15.06
     44.2813	   20.00	   17.78	 -399.18	   15.06
     44.3147	   16.00	   17.78	 -403.18	   15.06
     44.3481	   28.00	   17.78	 -391.18	   15.05
     44.3815	   27.00	   17.78	 -392.18	   15.05
     44.4150	   28.00	   17.78	 -391.19	   15.05
     44.4484	   23.00	   17.78	 -396.19	   15.04
     44.4818	   18.00	   17.78	 -401.19	   15.04
     44.5152	   15.00	   17.78	 -404.19	   15.04
     44.5487	   16.00	   17.78	 -403.19	   15.03
     44.5821	   18.00	   17.78	 -401.19	   15.03
     44.6155	   16.00	   17.79	 -403.19	   15.03
     44.6489	   17.00	   17.79	 -402.19	   15.02
     44.6823	   17.00	   17.79	 -402.19	   15.02
     44.7158	   20.00	   17.79	 -399.19	   15.02
     44.7492	   13.00	   17.79	 -406.20	   15.01
     44.7826	   21.00	   17.79	 -398.20	   15.01
     44.8160	   26.00	   17.80	 -393.20	   15.01
     44.8495	   17.00	   17.80	 -402.20	   15.00
     44.8829	   21.00	   17.80	 -398.21	   15.00
     44.9163	   13.00	   17.80	 -406.21	   15.00
     44.9497	   20.00	   17.81	 -399.21	   14.99
     44.9831	   20.00	   17.81	 -399.21	   14.99
     45.0166	   10.00	   17.81	 -409.22	   14.99
     45.0500	   26.00	   17.82	 -393.22	   14.98
     45.0834	   22.00	   17.82	 -397.23	   14.98
     45.1168	   21.00	   17.83	 -398.23	   14.98
     45.1503	   20.00	   17.83	 -399.24	   14.98
     45.1837	   18.00	   17.84	 -401.24	   14.97
     45.2171	    7.00	   17.84	 -412.25	   14.97
     45.2505	   18.00	   17.85	 -401.25	   14.97
     45.2840	   20.00	   17.85	 -399.26	   14.96
     45.3174	   20.00	   17.86	 -399.27	   14.96
     45.3508	   20.00	   17.87	 -399.27	   14.96
     45.3842	   18.00	   17.88	 -401.28	   14.95
     45.4176	   22.00	   17.88	 -397.29	   14.95
     45.4511	   15.00	   17.89	 -404.30	   14.95
     45.4845	   13.00	   17.90	 -406.31	   14.94
     45.5179	   18.00	   17.91	 -401.32	   14.94
     45.5513	   22.00	   17.92	 -397.33	   14.94
     45.5848	   27.00	   17.94	 -392.34	   14.93
     45.6182	   20.00	   17.95	 -399.35	   14.93
     45.6516	   15.00	   17.96	 -404.37	   14.93
     45.6850	   21.00	   17.98	 -398.38	   14.92
     45.7184	   20.00	   17.99	 -399.40	   14.92
     45.7519	   18.00	   18.01	 -401.41	   14.92
     45.7853	   25.00	   18.02	 -394.43	   14.91
     45.8187	   27.00	   18.04	 -392.45	   14.91
     45.8521	   22.00	   18.06	 -397.47	   14.91
     45.8856	   18.00	   18.08	 -401.49	   14.90
     45.9190	   27.00	   18.11	 -392.51	   14.90
     45.9524	   12.00	   18.13	 -407.54	   14.90
     45.9858	   21.00	   18.16	 -398.56	   14.89
     46.0192	   25.00	   18.19	 -394.59	   14.89
     46.0527	   13.00	   18.22	 -406.62	   14.89
     46.0861	   18.00	   18.25	 -401.65	   14.88
     46.1195	   18.00	   18.29	 -401.69	   14.88
     46.1529	   26.00	   18.32	 -393.73	   14.88
     46.1864	   22.00	   18.37	 -397.77	   14.87
     46.2198	   17.00	   18.41	 -402.82	   14.87
     46.2532	   25.00	   18.46	 -394.86	   14.87
     46.2866	   30.00	   18.51	 -389.92	   14.86
     46.3200	   22.00	   18.57	 -397.98	   14.86
     46.3535	   17.00	   18.64	 -403.04	   14.86
     46.3869	   18.00	   18.71	 -402.11	   14.85
     46.4203	   15.00	   18.78	 -405.19	   14.85
     46.4537	   16.00	   18.87	 -404.27	   14.85
     46.4872	   21.00	   18.96	 -399.37	   14.84
     46.5206	   23.00	   19.06	 -397.47	   14.84
     46.5540	   20.00	   19.18	 -400.58	   14.84
     46.5874	   23.00	   19.31	 -397.71	   14.84
     46.6208	   22.00	   19.45	 -398.85	   14.83
     46.6543	   36.00	   19.61	 -385.01	   14.83
     46.6877	   21.00	   19.79	 -400.19	   14.83
     46.7211	   27.00	   19.99	 -394.40	   14.82
     46.7545	   16.00	   20.23	 -405.63	   14.82
     46.7880	   25.00	   20.49	 -396.90	   14.82
     46.8214	   28.00	   20.80	 -394.20	   14.81
     46.8548	   28.00	   21.15	 -394.56	   14.81
     46.8882	   28.00	   21.56	 -394.97	   14.81
     46.9217	   30.00	   22.05	 -393.46	   14.80
     46.9551	   28.00	   22.63	 -396.03	   14.80
     46.9885	   17.00	   23.32	 -407.72	   14.80
     47.0219	   36.00	   24.16	 -389.56	   14.79
     47.0553	   25.00	   25.18	 -401.59	   14.79
     47.0888	   20.00	   26.46	 -407.87	   14.79
     47.1222	   22.00	   28.09	 -407.49	   14.78
     47.1556	   20.00	   30.19	 -411.60	   14.78
     47.1890	   48.00	   33.02	 -386.42	   14.78
     47.2225	   48.00	   37.09	 -390.50	   14.77
     47.2559	   56.00	   43.65	 -389.05	   14.77
     47.2893	   65.00	   55.48	 -391.89	   14.77
     47.3227	   64.00	   77.78	 -415.18	   14.76
     47.3561	   92.00	  117.29	 -426.70	   14.76
     47.3896	  126.00	  178.42	 -453.83	   14.76
     47.4230	  219.00	  255.72	 -438.13	   14.75
     47.4564	  319.00	  323.18	 -405.59	   14.75
     47.4898	  317.00	  341.49	 -425.89	   14.75
     47.5233	  251.00	  314.36	 -464.77	   14.74
     47.5567	  204.00	  278.98	 -476.39	   14.74
     47.5901	  226.00	  244.01	 -419.41	   14.74
     47.6235	  180.00	  197.24	 -418.65	   14.73
     47.6570	  106.00	  144.67	 -440.07	   14.73
     47.6904	   95.00	  100.71	 -407.12	   14.73
     47.7238	   52.00	   70.23	 -419.63	   14.72
     47.7572	   50.00	   51.63	 -403.03	   14.72
     47.7906	   41.00	   41.11	 -401.52	   14.72
     47.8241	   46.00	   35.15	 -390.56	   14.71
     47.8575	   31.00	   31.48	 -401.88	   14.71
     47.8909	   25.00	   28.96	 -405.36	   14.71
     47.9243	   32.00	   27.09	 -396.49	   14.71
     47.9578	   26.00	   25.64	 -401.04	   14.70
     47.9912	   23.00	   24.49	 -402.90	   14.70
     48.0246	   26.00	   23.56	 -398.97	   14.70
     48.0580	   26.00	   22.80	 -398.21	   14.69
     48.0914	   31.00	   22.17	 -392.57	   14.69
     48.1249	   22.00	   21.64	 -401.04	   14.69
     48.1583	   21.00	   21.19	 -401.59	   14.68
     48.1917	   21.00	   20.81	 -401.21	   14.68
     48.2251	   27.00	   20.47	 -394.88	   14.68
     48.2586	   22.00	   20.18	 -399.59	   14.67
     48.2920	   17.00	   19.93	 -404.34	   14.67
     48.3254	   17.00	   19.71	 -404.12	   14.67
     48.3588	   18.00	   19.51	 -402.92	   14.66
     48.3922	   28.00	   19.34	 -392.74	   14.66
     48.4257	   15.00	   19.18	 -405.59	   14.66
     48.4591	   18.00	   19.04	 -402.45	   14.65
     48.4925	   26.00	   18.92	 -394.32	   14.65
     48.5259	   20.00	   18.80	 -400.21	   14.65
     48.5594	   20.00	   18.70	 -400.10	   14.64
     48.5928	   25.00	   18.61	 -395.01	   14.64
     48.6262	   13.00	   18.52	 -406.92	   14.64
     48.6596	   22.00	   18.44	 -397.84	   14.63
     48.6930	   20.00	   18.37	 -399.77	   14.63
     48.7265	   22.00	   18.30	 -397.70	   14.63
     48.7599	   16.00	   18.24	 -403.64	   14.62
     48.7933	   21.00	   18.18	 -398.59	   14.62
     48.8267	   35.00	   18.13	 -384.53	   14.62
     48.8602	   17.00	   18.08	 -402.48	   14.61
     48.8936	   16.00	   18.03	 -403.44	   14.61
     48.9270	   18.00	   17.99	 -401.39	   14.61
     48.9604	   27.00	   17.95	 -392.35	   14.60
     48.9939	   17.00	   17.91	 -402.31	   14.60
     49.0273	   12.00	   17.87	 -407.28	   14.60
     49.0607	   15.00	   17.84	 -404.24	   14.59
     49.0941	   20.00	   17.81	 -399.21	   14.59
     49.1275	   15.00	   17.78	 -404.18	   14.59
     49.1610	   16.00	   17.75	 -403.15	   14.58
     49.1944	   21.00	   17.72	 -398.13	   14.58
     49.2278	   21.00	   17.70	 -398.10	   14.58
     49.2612	   20.00	   17.67	 -399.08	   14.57
     49.2947	   16.00	   17.65	 -403.05	   14.57
     49.3281	   22.00	   17.63	 -397.03	   14.57
     49.3615	   17.00	   17.61	 -402.01	   14.57
     49.3949	   21.00	   17.59	 -397.99	   14.56
     49.4283	   18.00	   17.57	 -400.97	   14.56
     49.4618	   20.00	   17.55	 -398.95	   14.56
     49.4952	   27.00	   17.53	 -391.94	   14.55
     49.5286	   20.00	   17.51	 -398.92	   14.55
     49.5620	   18.00	   17.50	 -400.90	   14.55
     49.5955	   20.00	   17.48	 -398.89	   14.54
     49.6289	   22.00	   17.47	 -396.87	   14.54
     49.6623	   12.00	   17.45	 -406.86	   14.54
     49.6957	   17.00	   17.44	 -401.84	   14.53
     49.7291	   21.00	   17.43	 -397.83	   14.53
     49.7626	   21.00	   17.41	 -397.82	   14.53
     49.7960	   15.00	   17.40	 -403.80	   14.52
     49.8294	   28.00	   17.39	 -390.79	   14.52
     49.8628	   20.00	   17.38	 -398.78	   14.52
     49.8963	   18.00	   17.36	 -400.77	   14.51
     49.9297	   21.00	   17.35	 -397.76	   14.51
     49.9631	   26.00	   17.34	 -392.75	   14.51
     49.9965	   17.00	   17.33	 -401.74	   14.50
     50.0300	   13.00	   17.32	 -405.73	   14.50
     50.0634	   18.00	   17.31	 -400.72	   14.50
     50.0968	   28.00	   17.30	 -390.71	   14.49
     50.1302	   20.00	   17.29	 -398.70	   14.49
     50.1636	   20.00	   17.28	 -398.69	   14.49
     50.1971	   21.00	   17.27	 -397.68	   14.48
     50.2305	   23.00	   17.27	 -395.67	   14.48
     50.2639	   18.00	   17.26	 -400.66	   14.48
     50.2973	   22.00	   17.25	 -396.65	   14.47
     50.3308	   21.00	   17.24	 -397.65	   14.47
     50.3642	   18.00	   17.23	 -400.64	   14.47
     50.3976	   18.00	   17.22	 -400.63	   14.46
     50.4310	   12.00	   17.22	 -406.62	   14.46
     50.4644	   22.00	   17.21	 -396.61	   14.46
     50.4979	   12.00	   17.20	 -406.61	   14.45
     50.5313	   13.00	   17.19	 -405.60	   14.45
     50.5647	   13.00	   17.19	 -405.59	   14.45
     50.5981	   16.00	   17.18	 -402.59	   14.44
     50.6316	   15.00	   17.17	 -403.58	   14.44
     50.6650	   12.00	   17.17	 -406.57	   14.44
     50.6984	   17.00	   17.16	 -401.56	   14.44
     50.7318	   15.00	   17.15	 -403.56	   14.43
     50.7652	   18.00	   17.15	 -400.55	   14.43
     50.7987	   17.00	   17.14	 -401.55	   14.43
     50.8321	   20.00	   17.13	 -398.54	   14.42
     50.8655	   20.00	   17.13	 -398.53	   14.42
     50.8989	   15.00	   17.12	 -403.53	   14.42
     50.9324	   25.00	   17.12	 -393.52	   14.41
     50.9658	   22.00	   17.11	 -396.51	   14.41
     50.9992	   18.00	   17.10	 -400.51	   14.41
     51.0326	   25.00	   17.10	 -393.50	   14.40
     51.0660	   28.00	   17.09	 -390.50	   14.40
     51.0995	   13.00	   17.09	 -405.49	   14.40
     51.1329	   20.00	   17.08	 -398.49	   14.39
     51.1663	   30.00	   17.08	 -388.48	   14.39
     51.1997	   15.00	   17.07	 -403.48	   14.39
     51.2332	   16.00	   17.07	 -402.47	   14.38
     51.2666	   21.00	   17.06	 -397.46	   14.38
     51.3000	   11.00	   17.05	 -407.46	   14.38
     51.3334	   27.00	   17.05	 -391.45	   14.37
     51.3669	   25.00	   17.04	 -393.45	   14.37
     51.4003	   25.00	   17.04	 -393.44	   14.37
     51.4337	   28.00	   17.03	 -390.44	   14.36
     51.4671	   16.00	   17.03	 -402.43	   14.36
     51.5005	   21.00	   17.02	 -397.43	   14.36
     51.5340	   12.00	   17.02	 -406.42	   14.35
     51.5674	   16.00	   17.01	 -402.42	   14.35
     51.6008	   20.00	   17.01	 -398.41	   14.35
     51.6342	   16.00	   17.00	 -402.41	   14.34
     51.6677	   12.00	   17.00	 -406.40	   14.34
     51.7011	    6.00	   16.99	 -412.40	   14.34
     51.7345	   20.00	   16.99	 -398.39	   14.33
     51.7679	   15.00	   16.93	 -403.33	   14.33
     51.8013	   20.00	   16.92	 -398.33	   14.33
     51.8348	   20.00	   16.92	 -398.32	   14.32
     51.8682	   12.00	   16.89	 -406.29	   14.32
     51.9016	   15.00	   16.88	 -403.29	   14.32
     51.9350	   12.00	   16.88	 -406.28	   14.31
     51.9685	   16.00	   16.88	 -402.28	   14.31
     52.0019	   20.00	   16.87	 -398.28	   14.31
     52.0353	   22.00	   16.87	 -396.27	   14.31
     52.0687	   17.00	   16.87	 -401.27	   14.30
     52.1021	   15.00	   16.86	 -403.27	   14.30
     52.1356	   22.00	   16.95	 -396.35	   14.30
     52.1690	   17.00	   16.95	 -401.35	   14.29
     52.2024	   16.00	   16.95	 -402.35	   14.29
     52.2358	   11.00	   16.95	 -407.35	   14.29
     52.2693	   18.00	   16.94	 -400.35	   14.28
     52.3027	   15.00	   16.99	 -403.39	   14.28
     52.3361	   15.00	   16.99	 -403.39	   14.28
     52.3695	   12.00	   16.99	 -406.39	   14.27
     52.4030	   12.00	   16.98	 -406.39	   14.27
     52.4364	   16.00	   16.98	 -402.39	   14.27
     52.4698	   22.00	   16.98	 -396.39	   14.26
     52.5032	   15.00	   16.98	 -403.39	   14.26
     52.5366	   20.00	   16.98	 -398.39	   14.26
     52.5701	   18.00	   16.98	 -400.39	   14.25
     52.6035	   23.00	   16.98	 -395.38	   14.25
     52.6369	   16.00	   16.98	 -402.38	   14.25
     52.6703	   13.00	   16.98	 -405.38	   14.24
     52.7038	   12.00	   16.98	 -406.38	   14.24
     52.7372	   22.00	   16.98	 -396.38	   14.24
     52.7706	   13.00	   16.98	 -405.38	   14.23
     52.8040	   20.00	   16.98	 -398.38	   14.23
     52.8374	   12.00	   16.98	 -406.38	   14.23
     52.8709	   21.00	   16.98	 -397.38	   14.22
     52.9043	   22.00	   16.98	 -396.38	   14.22
     52.9377	   17.00	   16.98	 -401.38	   14.22
     52.9711	   13.00	   16.98	 -405.38	   14.21
     53.0046	   16.00	   16.98	 -402.39	   14.21
     53.0380	    8.00	   16.98	 -410.39	   14.21
     53.0714	   16.00	   16.98	 -402.39	   14.20
     53.1048	   21.00	   16.98	 -397.39	   14.20
     53.1382	   16.00	   16.98	 -402.39	   14.20
     53.1717	   20.00	   16.98	 -398.39	   14.19
     53.2051	   23.00	   16.99	 -395.39	   14.19
     53.2385	   12.00	   16.99	 -406.39	   14.19
     53.2719	   17.00	   16.99	 -401.39	   14.18
     53.3054	   16.00	   16.99	 -402.40	   14.18
     53.3388	   15.00	   16.99	 -403.40	   14.18
     53.3722	   25.00	   16.99	 -393.40	   14.17
     53.4056	   12.00	   17.00	 -406.40	   14.17
     53.4390	   17.00	   17.00	 -401.40	   14.17
     53.4725	   22.00	   17.00	 -396.41	   14.17
     53.5059	   18.00	   17.00	 -400.41	   14.16
     53.5393	   18.00	   17.01	 -400.41	   14.16
     53.5727	   18.00	   17.01	 -400.41	   14.16
     53.6062	   21.00	   17.01	 -397.42	   14.15
     53.6396	   20.00	   17.02	 -398.42	   14.15
     53.6730	   17.00	   17.02	 -401.43	   14.15
     53.7064	   21.00	   17.02	 -397.43	   14.14
     53.7399	   21.00	   17.03	 -397.43	   14.14
     53.7733	   16.00	   17.03	 -402.44	   14.14
     53.8067	   11.00	   17.04	 -407.44	   14.13
     53.8401	   12.00	   17.04	 -406.45	   14.13
     53.8735	   13.00	   17.05	 -405.45	   14.13
     53.9070	   16.00	   17.05	 -402.46	   14.12
     53.9404	   21.00	   17.06	 -397.47	   14.12
     53.9738	   20.00	   17.07	 -398.47	   14.12
     54.0072	   17.00	   17.07	 -401.48	   14.11
     54.0407	   26.00	   17.08	 -392.49	   14.11
     54.0741	   18.00	   17.09	 -400.49	   14.11
     54.1075	   16.00	   17.10	 -402.50	   14.10
     54.1409	   27.00	   17.11	 -391.51	   14.10
     54.1743	   21.00	   17.12	 -397.52	   14.10
     54.2078	   26.00	   17.12	 -392.53	   14.09
     54.2412	   13.00	   17.14	 -405.54	   14.09
     54.2746	   13.00	   17.15	 -405.55	   14.09
     54.3080	   20.00	   17.16	 -398.56	   14.08
     54.3415	   21.00	   17.17	 -397.57	   14.08
     54.3749	   21.00	   17.18	 -397.59	   14.08
     54.4083	   23.00	   17.20	 -395.60	   14.07
     54.4417	   23.00	   17.21	 -395.61	   14.07
     54.4752	   21.00	   17.23	 -397.63	   14.07
     54.5086	   15.00	   17.24	 -403.65	   14.06
     54.5420	   17.00	   17.26	 -401.66	   14.06
     54.5754	   33.00	   17.28	 -385.68	   14.06
     54.6088	   15.00	   17.30	 -403.70	   14.05
     54.6423	   13.00	   17.32	 -405.72	   14.05
     54.6757	   27.00	   17.34	 -391.74	   14.05
     54.7091	   12.00	   17.36	 -406.76	   14.04
     54.7425	   26.00	   17.38	 -392.79	   14.04
     54.7759	   17.00	   17.41	 -401.81	   14.04
     54.8094	   18.00	   17.44	 -400.84	   14.04
     54.8428	   12.00	   17.47	 -406.87	   14.03
     54.8762	   17.00	   17.50	 -401.90	   14.03
     54.9096	   26.00	   17.53	 -392.94	   14.03
     54.9431	   17.00	   17.57	 -401.97	   14.02
     54.9765	   12.00	   17.61	 -407.01	   14.02
     55.0099	   23.00	   17.65	 -396.05	   14.02
     55.0433	   23.00	   17.69	 -396.10	   14.01
     55.0768	   17.00	   17.74	 -402.14	   14.01
     55.1102	   18.00	   17.79	 -401.19	   14.01
     55.1436	   20.00	   17.84	 -399.25	   14.00
     55.1770	   22.00	   17.90	 -397.30	   14.00
     55.2104	   28.00	   17.96	 -391.37	   14.00
     55.2439	   23.00	   18.03	 -396.44	   13.99
     55.2773	   16.00	   18.10	 -403.51	   13.99
     55.3107	   13.00	   18.18	 -406.59	   13.99
     55.3441	   26.00	   18.27	 -393.68	   13.98
     55.3776	   23.00	   18.37	 -396.77	   13.98
     55.4110	   13.00	   18.47	 -406.87	   13.98
     55.4444	   16.00	   18.58	 -403.99	   13.97
     55.4778	   20.00	   18.70	 -400.11	   13.97
     55.5112	   13.00	   18.84	 -407.24	   13.97
     55.5447	   23.00	   18.99	 -397.39	   13.96
     55.5781	   25.00	   19.15	 -395.56	   13.96
     55.6115	   21.00	   19.33	 -399.74	   13.96
     55.6449	   28.00	   19.54	 -392.94	   13.95
     55.6784	   32.00	   19.76	 -389.17	   13.95
     55.7118	   16.00	   20.02	 -405.42	   13.95
     55.7452	   28.00	   20.30	 -393.70	   13.94
     55.7786	   20.00	   20.62	 -402.03	   13.94
     55.8120	   31.00	   20.99	 -391.39	   13.94
     55.8455	   31.00	   21.40	 -391.81	   13.93
     55.8789	   23.00	   21.88	 -400.29	   13.93
     55.9123	   20.00	   22.44	 -403.84	   13.93
     55.9457	   21.00	   23.09	 -403.49	   13.92
     55.9792	   22.00	   23.84	 -403.25	   13.92
     56.0126	   22.00	   24.74	 -404.15	   13.92
     56.0460	   32.00	   25.82	 -395.22	   13.91
     56.0794	   28.00	   27.12	 -400.53	   13.91
     56.1129	   33.00	   28.72	 -397.12	   13.91
     56.1463	   23.00	   30.70	 -409.10	   13.91
     56.1797	   40.00	   33.21	 -394.61	   13.90
     56.2131	   41.00	   36.46	 -396.86	   13.90
     56.2465	   37.00	   40.85	 -405.25	   13.90
     56.2800	   48.00	   47.22	 -400.62	   13.89
     56.3134	   52.00	   57.57	 -406.98	   13.89
     56.3468	   66.00	   76.19	 -411.60	   13.89
     56.3802	   77.00	  110.50	 -434.91	   13.88
     56.4137	  103.00	  169.59	 -468.00	   13.88
     56.4471	  177.00	  258.37	 -482.78	   13.88
     56.4805	  301.00	  367.66	 -468.06	   13.87
     56.5139	  477.00	  460.23	 -384.64	   13.87
     56.5473	  409.00	  481.03	 -473.44	   13.87
     56.5808	  337.00	  434.34	 -498.75	   13.86
     56.6142	  247.00	  378.96	 -533.36	   13.86
     56.6476	  271.00	  343.64	 -474.05	   13.86
     56.6810	  303.00	  311.71	 -410.12	   13.85
     56.7145	  234.00	  257.80	 -425.21	   13.85
     56.7479	  168.00	  191.54	 -424.95	   13.85
     56.7813	  109.00	  133.63	 -426.04	   13.84
     56.8147	   77.00	   92.13	 -416.54	   13.84
     56.8481	   45.00	   66.15	 -422.56	   13.84
     56.8816	   52.00	   51.17	 -400.57	   13.83
     56.9150	   42.00	   42.58	 -401.99	   13.83
     56.9484	   40.00	   37.28	 -398.69	   13.83
     56.9818	   46.00	   33.65	 -389.05	   13.82
     57.0153	   28.00	   30.96	 -404.36	   13.82
     57.0487	   33.00	   28.86	 -397.27	   13.82
     57.0821	   36.00	   27.20	 -392.60	   13.81
     57.1155	   28.00	   25.84	 -399.25	   13.81
     57.1489	   28.00	   24.73	 -398.13	   13.81
     57.1824	   30.00	   23.80	 -395.21	   13.80
     57.2158	   32.00	   23.02	 -392.42	   13.80
     57.2492	   17.00	   22.35	 -406.76	   13.80
     57.2826	   23.00	   21.78	 -400.19	   13.79
     57.3161	   12.00	   21.29	 -410.70	   13.79
     57.3495	   17.00	   20.86	 -405.27	   13.79
     57.3829	   21.00	   20.49	 -400.89	   13.78
     57.4163	   30.00	   20.15	 -391.56	   13.78
     57.4498	   20.00	   19.86	 -401.26	   13.78
     57.4832	   11.00	   19.60	 -410.00	   13.77
     57.5166	   25.00	   19.36	 -395.77	   13.77
     57.5500	   20.00	   19.15	 -400.56	   13.77
     57.5834	   28.00	   18.96	 -392.37	   13.77
     57.6169	   20.00	   18.79	 -400.20	   13.76
     57.6503	   21.00	   18.64	 -399.04	   13.76
     57.6837	   15.00	   18.49	 -404.90	   13.76
     57.7171	   18.00	   18.36	 -401.77	   13.75
     57.7506	   18.00	   18.24	 -401.65	   13.75
     57.7840	   26.00	   18.13	 -393.54	   13.75
     57.8174	   20.00	   18.03	 -399.44	   13.74
     57.8508	   35.00	   17.94	 -384.34	   13.74
     57.8842	   18.00	   17.85	 -401.26	   13.74
     57.9177	   22.00	   17.77	 -397.18	   13.73
     57.9511	   21.00	   17.70	 -398.10	   13.73
     57.9845	   26.00	   17.63	 -393.03	   13.73
     58.0179	   21.00	   17.56	 -397.97	   13.72
     58.0514	   20.00	   17.50	 -398.91	   13.72
     58.0848	   25.00	   17.45	 -393.85	   13.72
     58.1182	   16.00	   17.39	 -402.80	   13.71
     58.1516	   27.00	   17.34	 -391.75	   13.71
     58.1851	   18.00	   17.29	 -400.70	   13.71
     58.2185	   10.00	   17.25	 -408.65	   13.70
     58.2519	   23.00	   17.21	 -395.61	   13.70
     58.2853	   17.00	   17.25	 -401.66	   13.70
     58.3187	   22.00	   17.21	 -396.62	   13.69
     58.3522	   25.00	   17.18	 -393.58	   13.69
     58.3856	   18.00	   17.15	 -400.55	   13.69
     58.4190	   25.00	   17.12	 -393.52	   13.68
     58.4524	   22.00	   17.13	 -396.53	   13.68
     58.4859	   13.00	   17.10	 -405.50	   13.68
     58.5193	   23.00	   17.07	 -395.48	   13.67
     58.5527	   25.00	   17.05	 -393.45	   13.67
     58.5861	   22.00	   17.03	 -396.43	   13.67
     58.6195	   22.00	   17.00	 -396.41	   13.66
     58.6530	   20.00	   16.98	 -398.39	   13.66
     58.6864	   13.00	   16.96	 -405.37	   13.66
     58.7198	   25.00	   16.94	 -393.35	   13.65
     58.7532	   26.00	   16.92	 -392.33	   13.65
     58.7867	   23.00	   16.91	 -395.31	   13.65
     58.8201	   26.00	   16.89	 -392.29	   13.64
     58.8535	   13.00	   16.87	 -405.28	   13.64
     58.8869	   17.00	   16.86	 -401.26	   13.64
     58.9203	   13.00	   16.84	 -405.25	   13.64
     58.9538	   18.00	   16.83	 -400.24	   13.63
     58.9872	   18.00	   16.82	 -400.22	   13.63
     59.0206	   21.00	   16.80	 -397.21	   13.63
     59.0540	   18.00	   16.79	 -400.20	   13.62
     59.0875	   15.00	   16.78	 -403.19	   13.62
     59.1209	   18.00	   16.77	 -400.17	   13.62
     59.1543	   18.00	   16.76	 -400.16	   13.61
     59.1877	   12.00	   16.75	 -406.15	   13.61
     59.2211	   11.00	   16.74	 -407.14	   13.61
     59.2546	   23.00	   16.73	 -395.14	   13.60
     59.2880	   28.00	   16.72	 -390.13	   13.60
     59.3214	   16.00	   16.71	 -402.12	   13.60
     59.3548	   21.00	   16.71	 -397.11	   13.59
     59.3883	   26.00	   16.70	 -392.10	   13.59
     59.4217	   21.00	   16.69	 -397.10	   13.59
     59.4551	   18.00	   16.69	 -400.09	   13.58
     59.4885	   25.00	   16.68	 -393.08	   13.58
     59.5219	   18.00	   16.67	 -400.08	   13.58
     59.5554	   20.00	   16.67	 -398.07	   13.57
     59.5888	   21.00	   16.66	 -397.07	   13.57
     59.6222	   18.00	   16.66	 -400.06	   13.57
     59.6556	   15.00	   16.65	 -403.06	   13.56
     59.6891	   21.00	   16.65	 -397.06	   13.56
     59.7225	   22.00	   16.65	 -396.05	   13.56
     59.7559	   20.00	   16.64	 -398.05	   13.55
     59.7893	   25.00	   16.64	 -393.05	   13.55
     59.8228	   13.00	   16.64	 -405.04	   13.55
     59.8562	   23.00	   16.64	 -395.04	   13.54
     59.8896	   20.00	   16.64	 -398.04	   13.54
     59.9230	   22.00	   16.63	 -396.04	   13.54
     59.9564	   25.00	   16.63	 -393.04	   13.53
     59.9899	   15.00	   16.63	 -403.04	   13.53
     60.0233	   17.00	   16.63	 -401.04	   13.53
     60.0567	   12.00	   16.63	 -406.04	   13.52
     60.0901	   16.00	   16.63	 -402.04	   13.52
     60.1236	   10.00	   16.63	 -408.04	   13.52
     60.1570	    8.00	   16.63	 -410.04	   13.51
     60.1904	   28.00	   16.64	 -390.04	   13.51
     60.2238	   26.00	   16.64	 -392.04	   13.51
     60.2572	   22.00	   16.64	 -396.05	   13.51
     60.2907	   12.00	   16.64	 -406.05	   13.50
     60.3241	   16.00	   16.65	 -402.05	   13.50
     60.3575	   18.00	   16.65	 -400.06	   13.50
     60.3909	   20.00	   16.66	 -398.06	   13.49
     60.4244	   23.00	   16.66	 -395.07	   13.49
     60.4578	   16.00	   16.67	 -402.07	   13.49
     60.4912	   20.00	   16.68	 -398.08	   13.48
     60.5246	   23.00	   16.68	 -395.09	   13.48
     60.5581	   16.00	   16.69	 -402.09	   13.48
     60.5915	   16.00	   16.70	 -402.10	   13.47
     60.6249	   26.00	   16.71	 -392.11	   13.47
     60.6583	   31.00	   16.72	 -387.12	   13.47
     60.6917	   26.00	   16.73	 -392.13	   13.46
     60.7252	   22.00	   16.74	 -396.14	   13.46
     60.7586	   22.00	   16.75	 -396.16	   13.46
     60.7920	   25.00	   16.77	 -393.17	   13.45
     60.8254	   20.00	   16.78	 -398.18	   13.45
     60.8588	   35.00	   16.80	 -383.20	   13.45
     60.8923	   22.00	   16.81	 -396.22	   13.44
     60.9257	   16.00	   16.83	 -402.23	   13.44
     60.9591	   15.00	   16.76	 -403.16	   13.44
     60.9925	   17.00	   16.78	 -401.19	   13.43
     61.0260	   18.00	   16.81	 -400.21	   13.43
     61.0594	   20.00	   16.83	 -398.23	   13.43
     61.0928	   12.00	   16.81	 -406.22	   13.42
     61.1262	   18.00	   16.84	 -400.25	   13.42
     61.1597	   22.00	   16.87	 -396.28	   13.42
     61.1931	    7.00	   16.91	 -411.31	   13.41
     61.2265	   22.00	   16.94	 -396.34	   13.41
     61.2599	   15.00	   16.98	 -403.38	   13.41
     61.2933	   15.00	   17.02	 -403.42	   13.40
     61.3268	   13.00	   17.06	 -405.47	   13.40
     61.3602	   11.00	   17.11	 -407.51	   13.40
     61.3936	   16.00	   17.16	 -402.56	   13.39
     61.4270	   17.00	   17.21	 -401.62	   13.39
     61.4605	   25.00	   17.27	 -393.68	   13.39
     61.4939	   25.00	   17.33	 -393.74	   13.38
     61.5273	   18.00	   17.40	 -400.81	   13.38
     61.5607	   17.00	   17.48	 -401.88	   13.38
     61.5941	   38.00	   17.56	 -380.96	   13.37
     61.6276	   16.00	   17.64	 -403.05	   13.37
     61.6610	   15.00	   17.74	 -404.14	   13.37
     61.6944	   26.00	   17.84	 -393.24	   13.37
     61.7278	   13.00	   17.97	 -406.37	   13.36
     61.7613	   15.00	   18.09	 -404.49	   13.36
     61.7947	   22.00	   18.23	 -397.63	   13.36
     61.8281	   31.00	   18.38	 -388.78	   13.35
     61.8615	   17.00	   18.54	 -402.95	   13.35
     61.8950	   27.00	   18.73	 -393.13	   13.35
     61.9284	   13.00	   18.94	 -407.34	   13.34
     61.9618	   23.00	   19.17	 -397.57	   13.34
     61.9952	   20.00	   19.43	 -400.83	   13.34
     62.0286	   21.00	   19.72	 -400.12	   13.33
     62.0621	   28.00	   20.05	 -393.45	   13.33
     62.0955	   25.00	   20.43	 -396.83	   13.33
     62.1289	   31.00	   20.86	 -391.26	   13.32
     62.1623	   21.00	   21.35	 -401.76	   13.32
     62.1958	   26.00	   21.93	 -397.33	   13.32
     62.2292	   20.00	   22.60	 -404.01	   13.31
     62.2626	   27.00	   23.40	 -397.80	   13.31
     62.2960	   36.00	   24.34	 -389.75	   13.31
     62.3294	   38.00	   25.48	 -388.89	   13.30
     62.3629	   23.00	   26.87	 -405.28	   13.30
     62.3963	   32.00	   28.59	 -397.99	   13.30
     62.4297	   33.00	   30.74	 -399.14	   13.29
     62.4631	   40.00	   33.49	 -394.90	   13.29
     62.4966	   42.00	   37.16	 -396.56	   13.29
     62.5300	   36.00	   42.34	 -407.75	   13.28
     62.5634	   36.00	   50.46	 -415.86	   13.28
     62.5968	   52.00	   64.59	 -413.99	   13.28
     62.6302	   67.00	   90.30	 -424.71	   13.27
     62.6637	   76.00	  135.15	 -460.55	   13.27
     62.6971	  118.00	  205.02	 -488.43	   13.27
     62.7305	  187.00	  297.01	 -511.41	   13.26
     62.7639	  302.00	  388.77	 -488.17	   13.26
     62.7974	  393.00	  433.38	 -441.78	   13.26
     62.8308	  319.00	  406.16	 -488.57	   13.25
     62.8642	  190.00	  348.43	 -559.84	   13.25
     62.8976	  174.00	  305.47	 -532.87	   13.25
     62.9311	  197.00	  286.52	 -490.92	   13.24
     62.9645	  211.00	  269.64	 -460.05	   13.24
     62.9979	  188.00	  230.09	 -443.49	   13.24
     63.0313	  149.00	  175.38	 -427.79	   13.24
     63.0647	   77.00	  124.83	 -449.23	   13.23
     63.0982	   56.00	   87.21	 -432.61	   13.23
     63.1316	   43.00	   62.91	 -421.31	   13.23
     63.1650	   43.00	   48.59	 -407.00	   13.22
     63.1984	   37.00	   40.34	 -404.74	   13.22
     63.2318	   31.00	   35.30	 -405.70	   13.22
     63.2653	   36.00	   31.96	 -397.37	   13.21
     63.2987	   12.00	   29.46	 -418.87	   13.21
     63.3321	   23.00	   27.53	 -405.93	   13.21
     63.3655	   27.00	   25.99	 -400.39	   13.20
     63.3990	   26.00	   24.74	 -400.14	   13.20
     63.4324	   32.00	   23.71	 -393.11	   13.20
     63.4658	   27.00	   22.88	 -397.29	   13.19
     63.4992	   33.00	   22.16	 -390.56	   13.19
     63.5327	   28.00	   21.54	 -394.95	   13.19
     63.5661	   17.00	   21.01	 -405.42	   13.18
     63.5995	   20.00	   20.56	 -401.96	   13.18
     63.6329	   20.00	   20.16	 -401.56	   13.18
     63.6663	   16.00	   19.81	 -405.21	   13.17
     63.6998	   20.00	   19.50	 -400.91	   13.17
     63.7332	   20.00	   19.23	 -400.64	   13.17
     63.7666	   25.00	   18.99	 -395.39	   13.16
     63.8000	   11.00	   18.77	 -409.18	   13.16
     63.8335	   23.00	   18.58	 -396.98	   13.16
     63.8669	   22.00	   18.41	 -397.81	   13.15
     63.9003	   21.00	   18.25	 -398.65	   13.15
     63.9337	   18.00	   18.11	 -401.51	   13.15
     63.9671	   15.00	   17.98	 -404.38	   13.14
     64.0006	   13.00	   17.86	 -406.26	   13.14
     64.0340	   16.00	   17.75	 -403.15	   13.14
     64.0674	   25.00	   17.65	 -394.05	   13.13
     64.1008	   12.00	   17.56	 -406.96	   13.13
     64.1343	   25.00	   17.48	 -393.88	   13.13
     64.1677	   27.00	   17.40	 -391.80	   13.12
     64.2011	   11.00	   17.33	 -407.73	   13.12
     64.2345	   12.00	   17.26	 -406.67	   13.12
     64.2680	   18.00	   17.20	 -400.61	   13.11
     64.3014	   13.00	   17.15	 -405.55	   13.11
     64.3348	   25.00	   17.10	 -393.50	   13.11
     64.3682	   16.00	   17.05	 -402.45	   13.11
     64.4016	   23.00	   17.04	 -395.44	   13.10
     64.4351	   27.00	   17.00	 -391.40	   13.10
     64.4685	   13.00	   16.96	 -405.36	   13.10
     64.5019	   23.00	   16.93	 -395.33	   13.09
     64.5353	   18.00	   16.89	 -400.30	   13.09
     64.5688	   12.00	   16.88	 -406.29	   13.09
     64.6022	   21.00	   16.85	 -397.26	   13.08
     64.6356	   20.00	   16.83	 -398.23	   13.08
     64.6690	   27.00	   16.81	 -391.21	   13.08
     64.7024	   22.00	   16.79	 -396.19	   13.07
     64.7359	   27.00	   16.77	 -391.17	   13.07
     64.7693	   20.00	   16.75	 -398.16	   13.07
     64.8027	   12.00	   16.74	 -406.14	   13.06
     64.8361	   11.00	   16.72	 -407.13	   13.06
     64.8696	   21.00	   16.71	 -397.12	   13.06
     64.9030	   26.00	   16.70	 -392.11	   13.05
     64.9364	   22.00	   16.70	 -396.10	   13.05
     64.9698	   23.00	   16.69	 -395.09	   13.05
     65.0033	   18.00	   16.69	 -400.09	   13.04
     65.0367	   17.00	   16.68	 -401.09	   13.04
     65.0701	   20.00	   16.68	 -398.09	   13.04
     65.1035	   17.00	   16.68	 -401.09	   13.03
     65.1369	   23.00	   16.69	 -395.09	   13.03
     65.1704	   22.00	   16.69	 -396.10	   13.03
     65.2038	   27.00	   16.70	 -391.11	   13.02
     65.2372	   22.00	   16.71	 -396.12	   13.02
     65.2706	   20.00	   16.72	 -398.13	   13.02
     65.3040	   15.00	   16.74	 -403.14	   13.01
     65.3375	   16.00	   16.76	 -402.16	   13.01
     65.3709	    8.00	   16.78	 -410.18	   13.01
     65.4043	   16.00	   16.80	 -402.21	   13.00
     65.4377	   13.00	   16.83	 -405.23	   13.00
     65.4712	   16.00	   16.86	 -402.27	   13.00
     65.5046	   22.00	   16.90	 -396.30	   12.99
     65.5380	   23.00	   16.94	 -395.35	   12.99
     65.5714	   16.00	   16.99	 -402.40	   12.99
     65.6049	   26.00	   17.05	 -392.45	   12.98
     65.6383	   17.00	   17.12	 -401.52	   12.98
     65.6717	   17.00	   17.19	 -401.60	   12.98
     65.7051	   21.00	   17.28	 -397.69	   12.97
     65.7385	   20.00	   17.38	 -398.79	   12.97
     65.7720	   16.00	   17.51	 -402.91	   12.97
     65.8054	   13.00	   17.65	 -406.06	   12.97
     65.8388	   28.00	   17.82	 -391.23	   12.96
     65.8722	   31.00	   18.03	 -388.44	   12.96
     65.9057	   23.00	   18.29	 -396.69	   12.96
     65.9391	   16.00	   18.61	 -404.01	   12.95
     65.9725	   23.00	   19.01	 -397.41	   12.95
     66.0059	   32.00	   19.53	 -388.94	   12.95
     66.0393	   23.00	   20.26	 -398.66	   12.94
     66.0728	   16.00	   21.35	 -406.76	   12.94
     66.1062	   22.00	   23.19	 -402.60	   12.94
     66.1396	   35.00	   26.49	 -392.90	   12.93
     66.1730	   45.00	   32.29	 -388.70	   12.93
     66.2065	   28.00	   41.56	 -414.97	   12.93
     66.2399	   46.00	   54.35	 -409.76	   12.92
     66.2733	   43.00	   68.43	 -426.83	   12.92
     66.3067	   61.00	   77.88	 -418.29	   12.92
     66.3401	   67.00	   76.81	 -411.22	   12.91
     66.3736	   55.00	   68.43	 -414.84	   12.91
     66.4070	   55.00	   60.41	 -406.81	   12.91
     66.4404	   27.00	   56.37	 -430.78	   12.90
     66.4738	   45.00	   55.22	 -411.62	   12.90
     66.5073	   67.00	   52.67	 -387.07	   12.90
     66.5407	   45.00	   46.33	 -402.73	   12.89
     66.5741	   31.00	   38.45	 -408.86	   12.89
     66.6075	   27.00	   31.59	 -405.99	   12.89
     66.6410	   20.00	   26.66	 -408.06	   12.88
     66.6744	   28.00	   23.56	 -396.96	   12.88
     66.7078	   26.00	   21.78	 -397.18	   12.88
     66.7412	   21.00	   20.77	 -401.18	   12.87
     66.7746	   26.00	   20.18	 -395.59	   12.87
     66.8081	   27.00	   19.81	 -394.21	   12.87
     66.8415	   25.00	   19.57	 -395.97	   12.86
     66.8749	   28.00	   19.41	 -392.81	   12.86
     66.9083	   17.00	   19.32	 -403.72	   12.86
     66.9418	   30.00	   19.28	 -390.68	   12.85
     66.9752	   18.00	   19.29	 -402.69	   12.85
     67.0086	   20.00	   19.34	 -400.74	   12.85
     67.0420	   23.00	   19.42	 -397.83	   12.84
     67.0754	   28.00	   19.55	 -392.96	   12.84
     67.1089	   17.00	   19.72	 -404.12	   12.84
     67.1423	   26.00	   19.92	 -395.33	   12.84
     67.1757	   21.00	   20.18	 -400.58	   12.83
     67.2091	   36.00	   20.48	 -385.88	   12.83
     67.2426	   21.00	   20.84	 -401.24	   12.83
     67.2760	   22.00	   21.27	 -400.67	   12.82
     67.3094	   23.00	   21.70	 -400.10	   12.82
     67.3428	   17.00	   22.31	 -406.71	   12.82
     67.3762	   23.00	   23.04	 -401.44	   12.81
     67.4097	   31.00	   23.92	 -394.33	   12.81
     67.4431	   25.00	   25.00	 -401.41	   12.81
     67.4765	   23.00	   26.33	 -404.73	   12.80
     67.5099	   27.00	   27.95	 -402.35	   12.80
     67.5434	   36.00	   30.06	 -395.46	   12.80
     67.5768	   37.00	   32.83	 -397.24	   12.79
     67.6102	   41.00	   36.68	 -397.09	   12.79
     67.6436	   47.00	   42.53	 -396.94	   12.79
     67.6770	   38.00	   52.39	 -415.80	   12.78
     67.7105	   33.00	   70.04	 -438.44	   12.78
     67.7439	   51.00	  100.97	 -451.38	   12.78
     67.7773	   80.00	  150.39	 -471.80	   12.77
     67.8107	  168.00	  218.60	 -452.00	   12.77
     67.8442	  221.00	  294.14	 -474.55	   12.77
     67.8776	  292.00	  346.12	 -455.52	   12.76
     67.9110	  251.00	  342.08	 -492.49	   12.76
     67.9444	  183.00	  296.71	 -515.11	   12.76
     67.9779	  123.00	  251.23	 -529.63	   12.75
     68.0113	  118.00	  227.26	 -510.67	   12.75
     68.0447	  158.00	  221.69	 -465.09	   12.75
     68.0781	  173.00	  213.05	 -441.45	   12.74
     68.1115	  141.00	  183.73	 -444.14	   12.74
     68.1450	  118.00	  142.03	 -425.44	   12.74
     68.1784	   81.00	  103.19	 -423.59	   12.73
     68.2118	   43.00	   74.02	 -432.42	   12.73
     68.2452	   42.00	   55.00	 -414.40	   12.73
     68.2787	   43.00	   43.70	 -402.10	   12.72
     68.3121	   32.00	   37.19	 -406.60	   12.72
     68.3455	   33.00	   33.29	 -401.69	   12.72
     68.3789	   36.00	   30.74	 -396.15	   12.71
     68.4123	   35.00	   28.96	 -395.36	   12.71
     68.4458	   31.00	   27.66	 -398.07	   12.71
     68.4792	   26.00	   26.73	 -402.14	   12.70
     68.5126	   28.00	   26.09	 -399.49	   12.70
     68.5460	   31.00	   25.70	 -396.10	   12.70
     68.5795	   17.00	   25.54	 -409.94	   12.70
     68.6129	   17.00	   25.61	 -410.02	   12.69
     68.6463	   17.00	   25.93	 -410.34	   12.69
     68.6797	   26.00	   26.55	 -401.95	   12.69
     68.7132	   28.00	   27.54	 -400.95	   12.68
     68.7466	   22.00	   29.11	 -408.52	   12.68
     68.7800	   31.00	   31.69	 -402.09	   12.68
     68.8134	   32.00	   36.23	 -405.64	   12.67
     68.8468	   35.00	   44.56	 -410.97	   12.67
     68.8803	   42.00	   59.37	 -418.77	   12.67
     68.9137	   61.00	   83.25	 -423.65	   12.66
     68.9471	   92.00	  116.64	 -426.05	   12.66
     68.9805	  121.00	  154.37	 -434.77	   12.66
     69.0140	  167.00	  181.81	 -416.22	   12.65
     69.0474	  170.00	  181.94	 -413.34	   12.65
     69.0808	  113.00	  159.69	 -448.10	   12.65
     69.1142	   81.00	  135.67	 -456.07	   12.64
     69.1476	   81.00	  122.04	 -442.45	   12.64
     69.1811	   80.00	  118.81	 -440.22	   12.64
     69.2145	  101.00	  116.39	 -416.79	   12.63
     69.2479	   94.00	  104.21	 -411.61	   12.63
     69.2813	   64.00	   84.02	 -421.43	   12.63
     69.3148	   43.00	   63.80	 -422.21	   12.62
     69.3482	   45.00	   47.94	 -404.35	   12.62
     69.3816	   32.00	   37.23	 -406.64	   12.62
     69.4150	   18.00	   30.70	 -414.10	   12.61
     69.4484	   30.00	   26.87	 -398.28	   12.61
     69.4819	   13.00	   24.55	 -412.95	   12.61
     69.5153	   25.00	   23.01	 -399.41	   12.60
     69.5487	   28.00	   21.89	 -395.29	   12.60
     69.5821	   22.00	   21.02	 -400.43	   12.60
     69.6156	   22.00	   20.33	 -399.73	   12.59
     69.6490	   22.00	   19.76	 -399.16	   12.59
     69.6824	   27.00	   19.29	 -393.69	   12.59
     69.7158	   13.00	   18.89	 -407.30	   12.58
     69.7492	   17.00	   18.55	 -402.96	   12.58
     69.7827	   28.00	   18.26	 -391.67	   12.58
     69.8161	   17.00	   18.01	 -402.42	   12.57
     69.8495	   25.00	   17.79	 -394.20	   12.57
     69.8829	   17.00	   17.60	 -402.00	   12.57
     69.9164	   17.00	   17.43	 -401.83	   12.57
     69.9498	   26.00	   17.27	 -392.68	   12.56
     69.9832	   18.00	   17.14	 -400.54	   12.56
     70.0166	   25.00	   17.01	 -393.42	   12.56
     70.0500	   21.00	   16.90	 -397.31	   12.55
     70.0835	   22.00	   16.80	 -396.20	   12.55
     70.1169	   22.00	   16.71	 -396.11	   12.55
     70.1503	   25.00	   16.62	 -393.03	   12.54
     70.1837	   22.00	   16.55	 -395.95	   12.54
     70.2172	   31.00	   16.47	 -386.88	   12.54
     70.2506	   11.00	   16.41	 -406.81	   12.53
     70.2840	   10.00	   16.35	 -407.75	   12.53
     70.3174	   17.00	   16.29	 -400.69	   12.53
     70.3509	   12.00	   16.24	 -405.64	   12.52
     70.3843	   16.00	   16.19	 -401.59	   12.52
     70.4177	   10.00	   16.14	 -407.55	   12.52
     70.4511	   13.00	   16.10	 -404.50	   12.51
     70.4845	   17.00	   16.06	 -400.46	   12.51
     70.5180	   26.00	   16.02	 -391.42	   12.51
     70.5514	   16.00	   15.98	 -401.39	   12.50
     70.5848	   23.00	   15.95	 -394.35	   12.50
     70.6182	    7.00	   15.92	 -410.32	   12.50
     70.6517	   26.00	   15.89	 -391.29	   12.49
     70.6851	   22.00	   15.86	 -395.26	   12.49
     70.7185	   16.00	   15.83	 -401.24	   12.49
     70.7519	   13.00	   15.81	 -404.21	   12.48
     70.7853	   13.00	   15.78	 -404.19	   12.48
     70.8188	   18.00	   15.76	 -399.17	   12.48
     70.8522	   11.00	   15.74	 -406.14	   12.47
     70.8856	   11.00	   15.72	 -406.12	   12.47
     70.9190	   25.00	   15.69	 -392.09	   12.47
     70.9525	   11.00	   15.67	 -406.08	   12.46
     70.9859	   22.00	   15.65	 -395.06	   12.46
     71.0193	   25.00	   15.64	 -392.04	   12.46
     71.0527	   22.00	   15.62	 -395.03	   12.45
     71.0862	   11.00	   15.61	 -406.01	   12.45
     71.1196	   17.00	   15.59	 -399.99	   12.45
     71.1530	   16.00	   15.58	 -400.98	   12.44
     71.1864	   33.00	   15.57	 -383.97	   12.44
     71.2198	   13.00	   15.55	 -403.96	   12.44
     71.2533	   16.00	   15.55	 -400.95	   12.44
     71.2867	   30.00	   15.54	 -386.94	   12.43
     71.3201	   18.00	   15.53	 -398.93	   12.43
     71.3535	   16.00	   15.52	 -400.93	   12.43
     71.3870	   20.00	   15.52	 -396.92	   12.42
     71.4204	   16.00	   15.51	 -400.92	   12.42
     71.4538	   22.00	   15.51	 -394.91	   12.42
     71.4872	   27.00	   15.50	 -389.91	   12.41
     71.5206	   26.00	   15.50	 -390.91	   12.41
     71.5541	   26.00	   15.50	 -390.91	   12.41
     71.5875	   12.00	   15.50	 -404.91	   12.40
     71.6209	   17.00	   15.51	 -399.91	   12.40
     71.6543	   17.00	   15.51	 -399.92	   12.40
     71.6878	   17.00	   15.52	 -399.92	   12.39
     71.7212	   22.00	   15.53	 -394.93	   12.39
     71.7546	   21.00	   15.54	 -395.95	   12.39
     71.7880	   18.00	   15.56	 -398.96	   12.38
     71.8214	   11.00	   15.58	 -405.98	   12.38
     71.8549	   13.00	   15.60	 -404.00	   12.38
     71.8883	   10.00	   15.63	 -407.03	   12.37
     71.9217	   20.00	   15.66	 -397.07	   12.37
     71.9551	   20.00	   15.70	 -397.11	   12.37
     71.9886	   12.00	   15.76	 -405.16	   12.36
     72.0220	   17.00	   15.82	 -400.23	   12.36
     72.0554	   23.00	   15.91	 -394.32	   12.36
     72.0888	   22.00	   16.01	 -395.42	   12.35
     72.1222	   15.00	   16.14	 -402.54	   12.35
     72.1557	   15.00	   16.30	 -402.70	   12.35
     72.1891	   25.00	   16.51	 -392.91	   12.34
     72.2225	   12.00	   16.80	 -406.21	   12.34
     72.2559	   12.00	   17.25	 -406.65	   12.34
     72.2894	   12.00	   18.00	 -407.40	   12.33
     72.3228	   17.00	   19.32	 -403.72	   12.33
     72.3562	   18.00	   21.61	 -405.02	   12.33
     72.3896	   20.00	   25.29	 -406.70	   12.32
     72.4230	   15.00	   30.46	 -416.87	   12.32
     72.4565	   31.00	   36.43	 -406.83	   12.32
     72.4899	   35.00	   41.11	 -407.51	   12.31
     72.5233	   36.00	   41.64	 -407.05	   12.31
     72.5567	   28.00	   38.32	 -411.73	   12.31
     72.5902	   28.00	   34.18	 -407.59	   12.30
     72.6236	   20.00	   31.48	 -412.88	   12.30
     72.6570	   25.00	   30.70	 -407.11	   12.30
     72.6904	   33.00	   30.87	 -399.28	   12.30
     72.7239	   20.00	   30.07	 -411.48	   12.29
     72.7573	   15.00	   27.54	 -413.95	   12.29
     72.7907	   21.00	   24.28	 -404.69	   12.29
     72.8241	   26.00	   21.37	 -396.77	   12.28
     72.8575	   15.00	   19.22	 -405.62	   12.28
     72.8910	   16.00	   17.82	 -403.22	   12.28
     72.9244	   18.00	   16.98	 -400.39	   12.27
     72.9578	   20.00	   16.49	 -397.89	   12.27
     72.9912	   15.00	   16.18	 -402.58	   12.27
     73.0247	   20.00	   15.96	 -397.37	   12.26
     73.0581	   13.00	   15.80	 -404.21	   12.26
     73.0915	   11.00	   15.68	 -406.08	   12.26
     73.1249	   22.00	   15.58	 -394.98	   12.25
     73.1583	   20.00	   15.49	 -396.90	   12.25
     73.1918	   15.00	   15.42	 -401.83	   12.25
     73.2252	   20.00	   15.37	 -396.77	   12.24
     73.2586	   18.00	   15.32	 -398.72	   12.24
     73.2920	   18.00	   15.27	 -398.68	   12.24
     73.3255	   23.00	   15.23	 -393.64	   12.23
     73.3589	   13.00	   15.20	 -403.60	   12.23
     73.3923	   21.00	   15.17	 -395.57	   12.23
     73.4257	   12.00	   15.14	 -404.55	   12.22
     73.4592	   15.00	   15.12	 -401.52	   12.22
     73.4926	   18.00	   15.10	 -398.50	   12.22
     73.5260	   18.00	   15.08	 -398.48	   12.21
     73.5594	   22.00	   15.06	 -394.46	   12.21
     73.5928	   15.00	   15.04	 -401.45	   12.21
     73.6263	   17.00	   15.03	 -399.43	   12.20
     73.6597	   15.00	   15.01	 -401.42	   12.20
     73.6931	   12.00	   14.97	 -404.37	   12.20
     73.7265	   15.00	   14.96	 -401.36	   12.19
     73.7599	   16.00	   14.95	 -400.35	   12.19
     73.7934	   15.00	   14.94	 -401.34	   12.19
     73.8268	    8.00	   14.93	 -408.33	   12.18
     73.8602	   13.00	   14.92	 -403.32	   12.18
     73.8936	   20.00	   14.89	 -396.30	   12.18
     73.9271	   15.00	   14.88	 -401.29	   12.17
     73.9605	   21.00	   14.88	 -395.28	   12.17
     73.9939	   18.00	   14.87	 -398.27	   12.17
     74.0273	   17.00	   14.86	 -399.27	   12.17
     74.0608	   15.00	   14.86	 -401.26	   12.16
     74.0942	   13.00	   14.85	 -403.26	   12.16
     74.1276	   15.00	   14.85	 -401.25	   12.16
     74.1610	   25.00	   14.84	 -391.24	   12.15
     74.1944	   13.00	   14.83	 -403.24	   12.15
     74.2279	   16.00	   14.83	 -400.23	   12.15
     74.2613	   13.00	   14.82	 -403.23	   12.14
     74.2947	   10.00	   14.82	 -406.22	   12.14
     74.3281	   18.00	   14.82	 -398.22	   12.14
     74.3616	   17.00	   14.81	 -399.22	   12.13
     74.3950	   21.00	   14.81	 -395.21	   12.13
     74.4284	   11.00	   14.80	 -405.21	   12.13
     74.4618	   33.00	   14.80	 -383.21	   12.12
     74.4952	   17.00	   14.80	 -399.20	   12.12
     74.5287	   25.00	   14.79	 -391.20	   12.12
     74.5621	   22.00	   14.79	 -394.20	   12.11
     74.5955	   13.00	   14.79	 -403.19	   12.11
     74.6289	   11.00	   14.78	 -405.19	   12.11
     74.6624	   16.00	   14.78	 -400.19	   12.10
     74.6958	   13.00	   14.78	 -403.18	   12.10
     74.7292	   21.00	   14.78	 -395.18	   12.10
     74.7626	   15.00	   14.78	 -401.18	   12.09
     74.7961	   13.00	   14.77	 -403.18	   12.09
     74.8295	   10.00	   14.77	 -406.18	   12.09
     74.8629	   26.00	   14.77	 -390.17	   12.08
     74.8963	   13.00	   14.77	 -403.17	   12.08
     74.9297	   13.00	   14.77	 -403.17	   12.08
     74.9632	   12.00	   14.77	 -404.17	   12.07
     74.9966	   10.00	   14.77	 -406.17	   12.07
     75.0300	   18.00	   14.76	 -398.17	   12.07
     75.0634	   17.00	   14.76	 -399.17	   12.06
     75.0969	   15.00	   14.76	 -401.17	   12.06
     75.1303	   15.00	   14.76	 -401.17	   12.06
     75.1637	   17.00	   14.76	 -399.17	   12.05
     75.1971	   15.00	   14.76	 -401.17	   12.05
     75.2305	   17.00	   14.77	 -399.17	   12.05
     75.2640	   16.00	   14.77	 -400.17	   12.04
     75.2974	   13.00	   14.77	 -403.17	   12.04
     75.3308	   11.00	   14.77	 -405.17	   12.04
     75.3642	    6.00	   14.77	 -410.18	   12.04
     75.3977	   16.00	   14.77	 -400.18	   12.03
     75.4311	   11.00	   14.78	 -405.18	   12.03
     75.4645	   21.00	   14.78	 -395.19	   12.03
     75.4979	   22.00	   14.78	 -394.19	   12.02
     75.5313	   17.00	   14.79	 -399.19	   12.02
     75.5648	   12.00	   14.79	 -404.20	   12.02
     75.5982	   18.00	   14.80	 -398.20	   12.01
     75.6316	   17.00	   14.81	 -399.21	   12.01
     75.6650	   13.00	   14.81	 -403.22	   12.01
     75.6985	   21.00	   14.82	 -395.23	   12.00
     75.7319	   12.00	   14.83	 -404.24	   12.00
     75.7653	   15.00	   14.84	 -401.25	   12.00
     75.7987	   16.00	   14.85	 -400.26	   11.99
     75.8321	   15.00	   14.87	 -401.27	   11.99
     75.8656	    8.00	   14.88	 -408.29	   11.99
     75.8990	   23.00	   14.90	 -393.30	   11.98
     75.9324	   15.00	   14.92	 -401.32	   11.98
     75.9658	   13.00	   14.94	 -403.34	   11.98
     75.9993	   12.00	   14.96	 -404.37	   11.97
     76.0327	   21.00	   14.99	 -395.39	   11.97
     76.0661	   15.00	   15.02	 -401.42	   11.97
     76.0995	   17.00	   15.05	 -399.46	   11.96
     76.1329	   16.00	   15.09	 -400.49	   11.96
     76.1664	   10.00	   15.13	 -406.54	   11.96
     76.1998	   25.00	   15.18	 -391.59	   11.95
     76.2332	   11.00	   15.24	 -405.65	   11.95
     76.2666	   22.00	   15.31	 -394.71	   11.95
     76.3001	   17.00	   15.39	 -399.79	   11.94
     76.3335	   15.00	   15.48	 -401.89	   11.94
     76.3669	   27.00	   15.60	 -390.00	   11.94
     76.4003	   16.00	   15.73	 -401.13	   11.93
     76.4338	   15.00	   15.88	 -402.29	   11.93
     76.4672	   15.00	   16.07	 -402.48	   11.93
     76.5006	    8.00	   16.31	 -409.72	   11.92
     76.5340	   23.00	   16.61	 -395.01	   11.92
     76.5674	   12.00	   16.99	 -406.39	   11.92
     76.6009	   18.00	   17.51	 -400.91	   11.91
     76.6343	   16.00	   18.25	 -403.65	   11.91
     76.6677	   12.00	   19.43	 -408.83	   11.91
     76.7011	   23.00	   21.46	 -399.86	   11.90
     76.7346	   21.00	   24.99	 -405.39	   11.90
     76.7680	   15.00	   30.80	 -417.21	   11.90
     76.8014	   27.00	   39.39	 -413.79	   11.90
     76.8348	   32.00	   50.26	 -419.67	   11.89
     76.8682	   46.00	   60.94	 -416.34	   11.89
     76.9017	   46.00	   66.40	 -421.80	   11.89
     76.9351	   38.00	   63.28	 -426.69	   11.88
     76.9685	   46.00	   55.16	 -410.56	   11.88
     77.0019	   36.00	   47.65	 -413.06	   11.88
     77.0354	   27.00	   43.62	 -418.02	   11.87
     77.0688	   21.00	   43.18	 -423.58	   11.87
     77.1022	   37.00	   44.24	 -408.65	   11.87
     77.1356	   43.00	   43.36	 -401.77	   11.86
     77.1691	   33.00	   38.98	 -407.38	   11.86
     77.2025	   23.00	   32.95	 -411.35	   11.86
     77.2359	   15.00	   27.37	 -413.78	   11.85
     77.2693	   23.00	   23.14	 -401.54	   11.85
     77.3027	   26.00	   20.32	 -395.72	   11.85
     77.3362	   21.00	   18.59	 -399.00	   11.84
     77.3696	   18.00	   17.57	 -400.97	   11.84
     77.4030	   18.00	   16.93	 -400.33	   11.84
     77.4364	   13.00	   16.50	 -404.90	   11.83
     77.4699	   15.00	   16.18	 -402.58	   11.83
     77.5033	   11.00	   15.94	 -406.34	   11.83
     77.5367	   22.00	   15.74	 -395.14	   11.82
     77.5701	    8.00	   15.58	 -408.98	   11.82
     77.6035	   20.00	   15.44	 -396.85	   11.82
     77.6370	   10.00	   15.33	 -406.73	   11.81
     77.6704	   12.00	   15.23	 -404.64	   11.81
     77.7038	   11.00	   15.15	 -405.55	   11.81
     77.7372	   15.00	   15.08	 -401.48	   11.80
     77.7707	   12.00	   15.02	 -404.42	   11.80
     77.8041	   21.00	   14.96	 -395.36	   11.80
     77.8375	   18.00	   14.91	 -398.32	   11.79
     77.8709	   15.00	   14.87	 -401.27	   11.79
     77.9043	   13.00	   14.83	 -403.23	   11.79
     77.9378	   13.00	   14.79	 -403.20	   11.78
     77.9712	   16.00	   14.76	 -400.17	   11.78
     78.0046	   12.00	   14.73	 -404.14	   11.78
     78.0380	   18.00	   14.71	 -398.11	   11.77
     78.0715	   10.00	   14.68	 -406.09	   11.77
     78.1049	   21.00	   14.66	 -395.06	   11.77
     78.1383	   15.00	   14.64	 -401.04	   11.77
     78.1717	    8.00	   14.62	 -408.02	   11.76
     78.2051	   20.00	   14.60	 -396.01	   11.76
     78.2386	   15.00	   14.58	 -400.99	   11.76
     78.2720	    8.00	   14.57	 -407.97	   11.75
     78.3054	   25.00	   14.56	 -390.96	   11.75
     78.3388	    8.00	   14.54	 -407.95	   11.75
     78.3723	   15.00	   14.53	 -400.93	   11.74
     78.4057	   21.00	   14.52	 -394.92	   11.74
     78.4391	   21.00	   14.51	 -394.91	   11.74
     78.4725	   21.00	   14.49	 -394.90	   11.73
     78.5060	   13.00	   14.48	 -402.89	   11.73
     78.5394	   18.00	   14.47	 -397.88	   11.73
     78.5728	   22.00	   14.47	 -393.87	   11.72
     78.6062	   11.00	   14.46	 -404.86	   11.72
     78.6396	   17.00	   14.45	 -398.85	   11.72
     78.6731	   16.00	   14.44	 -399.84	   11.71
     78.7065	   10.00	   14.43	 -405.84	   11.71
     78.7399	   25.00	   14.42	 -390.83	   11.71
     78.7733	   13.00	   14.42	 -402.82	   11.70
     78.8068	   17.00	   14.41	 -398.82	   11.70
     78.8402	   17.00	   14.40	 -398.81	   11.70
     78.8736	   12.00	   14.40	 -403.80	   11.69
     78.9070	   11.00	   14.39	 -404.80	   11.69
     78.9404	   16.00	   14.39	 -399.79	   11.69
     78.9739	   22.00	   14.38	 -393.78	   11.68
     79.0073	   18.00	   14.37	 -397.78	   11.68
     79.0407	   13.00	   14.37	 -402.77	   11.68
     79.0741	   17.00	   14.36	 -398.77	   11.67
     79.1076	   13.00	   14.36	 -402.76	   11.67
     79.1410	   12.00	   14.36	 -403.76	   11.67
     79.1744	   11.00	   14.35	 -404.76	   11.66
     79.2078	   12.00	   14.35	 -403.75	   11.66
     79.2412	   13.00	   14.34	 -402.75	   11.66
     79.2747	   16.00	   14.34	 -399.74	   11.65
     79.3081	   17.00	   14.33	 -398.74	   11.65
     79.3415	   16.00	   14.33	 -399.74	   11.65
     79.3749	   17.00	   14.33	 -398.73	   11.64
     79.4084	   12.00	   14.32	 -403.73	   11.64
     79.4418	    7.00	   14.32	 -408.73	   11.64
     79.4752	   20.00	   14.32	 -395.72	   11.64
     79.5086	   17.00	   14.31	 -398.72	   11.63
     79.5421	   20.00	   14.31	 -395.72	   11.63
     79.5755	   15.00	   14.31	 -400.71	   11.63
     79.6089	   16.00	   14.31	 -399.71	   11.62
     79.6423	   16.00	   14.31	 -399.71	   11.62
     79.6757	   10.00	   14.30	 -405.71	   11.62
     79.7092	   12.00	   14.30	 -403.71	   11.61
     79.7426	   13.00	   14.30	 -402.70	   11.61
     79.7760	   15.00	   14.30	 -400.70	   11.61
     79.8094	   16.00	   14.30	 -399.70	   11.60
     79.8428	   15.00	   14.30	 -400.70	   11.60
     79.8763	   10.00	   14.30	 -405.70	   11.60
     79.9097	   17.00	   14.30	 -398.70	   11.59
     79.9431	   10.00	   14.30	 -405.70	   11.59
     79.9765	   18.00	   14.30	 -397.70	   11.59
     80.0100	   12.00	   14.30	 -403.70	   11.58
     80.0434	   16.00	   14.30	 -399.70	   11.58
     80.0768	   17.00	   14.30	 -398.71	   11.58
     80.1102	   11.00	   14.30	 -404.71	   11.57
     80.1437	   12.00	   14.31	 -403.71	   11.57
     80.1771	   21.00	   14.31	 -394.71	   11.57
     80.2105	   16.00	   14.31	 -399.72	   11.56
     80.2439	   15.00	   14.32	 -400.72	   11.56
     80.2773	   11.00	   14.32	 -404.73	   11.56
     80.3108	   15.00	   14.33	 -400.73	   11.55
     80.3442	   15.00	   14.34	 -400.74	   11.55
     80.3776	   18.00	   14.35	 -397.75	   11.55
     80.4110	   13.00	   14.36	 -402.76	   11.54
     80.4445	   17.00	   14.37	 -398.77	   11.54
     80.4779	   11.00	   14.38	 -404.79	   11.54
     80.5113	   16.00	   14.40	 -399.80	   11.53
     80.5447	   21.00	   14.42	 -394.82	   11.53
     80.5781	   12.00	   14.44	 -403.84	   11.53
     80.6116	   18.00	   14.46	 -397.86	   11.52
     80.6450	   16.00	   14.49	 -399.89	   11.52
     80.6784	   15.00	   14.52	 -400.92	   11.52
     80.7118	   17.00	   14.56	 -398.96	   11.51
     80.7453	   11.00	   14.60	 -405.01	   11.51
     80.7787	   16.00	   14.66	 -400.06	   11.51
     80.8121	   11.00	   14.72	 -405.12	   11.50
     80.8455	   13.00	   14.80	 -403.20	   11.50
     80.8790	   13.00	   14.89	 -403.29	   11.50
     80.9124	   13.00	   15.00	 -403.41	   11.50
     80.9458	   28.00	   15.15	 -388.55	   11.49
     80.9792	   12.00	   15.33	 -404.73	   11.49
     81.0126	   26.00	   15.57	 -390.97	   11.49
     81.0461	   17.00	   15.91	 -400.32	   11.48
     81.0795	   17.00	   16.44	 -400.84	   11.48
     81.1129	   12.00	   17.31	 -406.72	   11.48
     81.1463	   20.00	   18.82	 -400.23	   11.47
     81.1798	   12.00	   21.34	 -410.74	   11.47
     81.2132	   11.00	   25.16	 -415.57	   11.47
     81.2466	   25.00	   30.28	 -406.69	   11.46
     81.2800	   30.00	   35.93	 -407.34	   11.46
     81.3134	   26.00	   40.15	 -415.55	   11.46
     81.3469	   27.00	   40.49	 -414.89	   11.45
     81.3803	   25.00	   37.09	 -413.49	   11.45
     81.4137	   23.00	   32.64	 -411.05	   11.45
     81.4471	   30.00	   29.32	 -400.72	   11.44
     81.4806	   26.00	   27.92	 -403.33	   11.44
     81.5140	   23.00	   28.22	 -406.62	   11.44
     81.5474	   21.00	   29.07	 -409.47	   11.43
     81.5808	   30.00	   28.82	 -400.22	   11.43
     81.6143	   23.00	   26.75	 -405.15	   11.43
     81.6477	   30.00	   23.76	 -395.16	   11.42
     81.6811	   18.00	   20.92	 -404.33	   11.42
     81.7145	   12.00	   18.72	 -408.12	   11.42
     81.7479	    7.00	   17.21	 -411.61	   11.41
     81.7814	   13.00	   16.25	 -404.66	   11.41
     81.8148	   13.00	   15.68	 -404.09	   11.41
     81.8482	   23.00	   15.33	 -393.73	   11.40
     81.8816	   12.00	   15.09	 -404.50	   11.40
     81.9151	   18.00	   14.92	 -398.32	   11.40
     81.9485	   18.00	   14.79	 -398.19	   11.39
     81.9819	   15.00	   14.68	 -401.08	   11.39
     82.0153	   17.00	   14.59	 -398.99	   11.39
     82.0487	   13.00	   14.51	 -402.92	   11.38
     82.0822	   13.00	   14.45	 -402.85	   11.38
     82.1156	   10.00	   14.40	 -405.80	   11.38
     82.1490	   12.00	   14.35	 -403.76	   11.37
     82.1824	    6.00	   14.31	 -409.72	   11.37
     82.2159	   17.00	   14.28	 -398.68	   11.37
     82.2493	   10.00	   14.24	 -405.65	   11.37
     82.2827	   15.00	   14.22	 -400.62	   11.36
     82.3161	   10.00	   14.19	 -405.60	   11.36
     82.3495	   15.00	   14.17	 -400.57	   11.36
     82.3830	   22.00	   14.15	 -393.55	   11.35
     82.4164	   15.00	   14.13	 -400.53	   11.35
     82.4498	   20.00	   14.11	 -395.52	   11.35
     82.4832	   10.00	   14.10	 -405.50	   11.34
     82.5167	   11.00	   14.08	 -404.48	   11.34
     82.5501	   12.00	   14.07	 -403.47	   11.34
     82.5835	   11.00	   14.05	 -404.46	   11.33
     82.6169	   12.00	   14.04	 -403.45	   11.33
     82.6503	   16.00	   14.03	 -399.44	   11.33
     82.6838	   12.00	   14.02	 -403.42	   11.32
     82.7172	   20.00	   14.01	 -395.41	   11.32
     82.7506	   20.00	   14.00	 -395.40	   11.32
     82.7840	   18.00	   13.99	 -397.40	   11.31
     82.8175	   13.00	   13.98	 -402.39	   11.31
     82.8509	   10.00	   13.97	 -405.38	   11.31
     82.8843	   16.00	   13.97	 -399.37	   11.30
     82.9177	   15.00	   13.96	 -400.36	   11.30
     82.9511	   16.00	   13.95	 -399.36	   11.30
     82.9846	   12.00	   13.94	 -403.35	   11.29
     83.0180	   22.00	   13.94	 -393.34	   11.29
     83.0514	   17.00	   13.93	 -398.34	   11.29
     83.0848	   15.00	   13.92	 -400.33	   11.28
     83.1183	    7.00	   13.92	 -408.32	   11.28
     83.1517	   15.00	   13.91	 -400.32	   11.28
     83.1851	   16.00	   13.91	 -399.31	   11.27
     83.2185	   22.00	   13.90	 -393.30	   11.27
     83.2520	   20.00	   13.89	 -395.30	   11.27
     83.2854	   10.00	   13.89	 -405.29	   11.26
     83.3188	   11.00	   13.88	 -404.29	   11.26
     83.3522	    7.00	   13.88	 -408.28	   11.26
     83.3856	   16.00	   13.87	 -399.28	   11.25
     83.4191	   16.00	   13.87	 -399.27	   11.25
     83.4525	   21.00	   13.86	 -394.27	   11.25
     83.4859	   16.00	   13.86	 -399.26	   11.24
     83.5193	   13.00	   13.85	 -402.26	   11.24
     83.5528	   15.00	   13.85	 -400.25	   11.24
     83.5862	   11.00	   13.84	 -404.25	   11.24
     83.6196	   22.00	   13.84	 -393.24	   11.23
     83.6530	   15.00	   13.84	 -400.24	   11.23
     83.6864	   13.00	   13.83	 -402.24	   11.23
     83.7199	   17.00	   13.83	 -398.23	   11.22
     83.7533	   21.00	   13.82	 -394.23	   11.22
     83.7867	    8.00	   13.82	 -407.22	   11.22
     83.8201	   13.00	   13.81	 -402.22	   11.21
     83.8536	   17.00	   13.81	 -398.21	   11.21
     83.8870	   10.00	   13.80	 -405.21	   11.21
     83.9204	   11.00	   13.80	 -404.21	   11.20
     83.9538	   11.00	   13.80	 -404.20	   11.20
     83.9873	   10.00	   13.79	 -405.20	   11.20
     84.0207	   20.00	   13.79	 -395.19	   11.19
     84.0541	   11.00	   13.78	 -404.19	   11.19
     84.0875	   11.00	   13.78	 -404.18	   11.19
     84.1209	   13.00	   13.78	 -402.18	   11.18
     84.1544	   18.00	   13.77	 -397.18	   11.18
     84.1878	   15.00	   13.77	 -400.17	   11.18
     84.2212	    8.00	   13.76	 -407.17	   11.17
     84.2546	   13.00	   13.76	 -402.17	   11.17
     84.2880	   21.00	   13.78	 -394.18	   11.17
     84.3215	    7.00	   13.78	 -408.18	   11.16
     84.3549	   11.00	   13.77	 -404.18	   11.16
     84.3883	   20.00	   13.77	 -395.17	   11.16
     84.4217	   20.00	   13.77	 -395.17	   11.15
     84.4552	   13.00	   13.76	 -402.17	   11.15
     84.4886	   15.00	   13.76	 -400.16	   11.15
     84.5220	   16.00	   13.76	 -399.16	   11.14
     84.5554	    6.00	   13.76	 -409.17	   11.14
     84.5889	   22.00	   13.76	 -393.17	   11.14
     84.6223	   21.00	   13.76	 -394.16	   11.13
     84.6557	   10.00	   13.76	 -405.16	   11.13
     84.6891	   11.00	   13.75	 -404.16	   11.13
     84.7225	   13.00	   13.75	 -402.15	   11.12
     84.7560	   16.00	   13.75	 -399.15	   11.12
     84.7894	   16.00	   13.74	 -399.15	   11.12
     84.8228	   18.00	   13.74	 -397.14	   11.11
     84.8562	    5.00	   13.74	 -410.14	   11.11
     84.8897	   12.00	   13.73	 -403.14	   11.11
     84.9231	   11.00	   13.73	 -404.14	   11.10
     84.9565	   18.00	   13.73	 -397.13	   11.10
     84.9899	   16.00	   13.72	 -399.13	   11.10
     85.0233	   21.00	   13.72	 -394.13	   11.10
     85.0568	   10.00	   13.72	 -405.12	   11.09
     85.0902	   17.00	   13.72	 -398.12	   11.09
     85.1236	   13.00	   13.71	 -402.12	   11.09
     85.1570	    8.00	   13.71	 -407.12	   11.08
     85.1905	   11.00	   13.71	 -404.11	   11.08
     85.2239	   13.00	   13.70	 -402.11	   11.08
     85.2573	   16.00	   13.70	 -399.11	   11.07
     85.2907	   17.00	   13.70	 -398.10	   11.07
     85.3242	   13.00	   13.70	 -402.10	   11.07
     85.3576	   13.00	   13.69	 -402.10	   11.06
     85.3910	   12.00	   13.69	 -403.10	   11.06
     85.4244	   17.00	   13.69	 -398.09	   11.06
     85.4578	   11.00	   13.69	 -404.09	   11.05
     85.4913	   15.00	   13.68	 -400.09	   11.05
     85.5247	    5.00	   13.68	 -410.09	   11.05
     85.5581	   16.00	   13.68	 -399.08	   11.04
     85.5915	   12.00	   13.68	 -403.08	   11.04
     85.6250	   16.00	   13.67	 -399.08	   11.04
     85.6584	   16.00	   13.67	 -399.08	   11.03
     85.6918	   11.00	   13.67	 -404.07	   11.03
     85.7252	   18.00	   13.67	 -397.07	   11.03
     85.7586	   11.00	   13.66	 -404.07	   11.02
     85.7921	   16.00	   13.66	 -399.07	   11.02
     85.8255	   18.00	   13.66	 -397.06	   11.02
     85.8589	   12.00	   13.66	 -403.06	   11.01
     85.8923	   17.00	   13.66	 -398.06	   11.01
     85.9258	   17.00	   13.65	 -398.06	   11.01
     85.9592	   13.00	   13.65	 -402.06	   11.00
     85.9926	   12.00	   13.65	 -403.05	   11.00
     86.0260	   18.00	   13.65	 -397.05	   11.00
     86.0594	   21.00	   13.65	 -394.05	   10.99
     86.0929	    8.00	   13.64	 -407.05	   10.99
     86.1263	   12.00	   13.64	 -403.05	   10.99
     86.1597	   15.00	   13.64	 -400.04	   10.98
     86.1931	   17.00	   13.64	 -398.04	   10.98
     86.2266	   12.00	   13.64	 -403.04	   10.98
     86.2600	   15.00	   13.63	 -400.04	   10.97
     86.2934	   13.00	   13.63	 -402.04	   10.97
     86.3268	   16.00	   13.63	 -399.03	   10.97
     86.3602	   22.00	   13.62	 -393.03	   10.97
     86.3937	   17.00	   13.62	 -398.03	   10.96
     86.4271	   12.00	   13.62	 -403.03	   10.96
     86.4605	   23.00	   13.62	 -392.02	   10.96
     86.4939	   15.00	   13.62	 -400.02	   10.95
     86.5274	    8.00	   13.62	 -407.02	   10.95
     86.5608	   18.00	   13.62	 -397.02	   10.95
     86.5942	   15.00	   13.61	 -400.02	   10.94
     86.6276	   21.00	   13.61	 -394.02	   10.94
     86.6610	   22.00	   13.61	 -393.02	   10.94
     86.6945	   16.00	   13.61	 -399.01	   10.93
     86.7279	   10.00	   13.61	 -405.01	   10.93
     86.7613	   11.00	   13.61	 -404.01	   10.93
     86.7947	   22.00	   13.61	 -393.01	   10.92
     86.8282	   18.00	   13.61	 -397.01	   10.92
     86.8616	    8.00	   13.61	 -407.01	   10.92
     86.8950	   17.00	   13.61	 -398.01	   10.91
     86.9284	   15.00	   13.61	 -400.01	   10.91
     86.9619	   20.00	   13.61	 -395.01	   10.91
     86.9953	   16.00	   13.61	 -399.01	   10.90
     87.0287	   12.00	   13.61	 -403.01	   10.90
     87.0621	    7.00	   13.61	 -408.01	   10.90
     87.0955	   12.00	   13.61	 -403.01	   10.89
     87.1290	   10.00	   13.61	 -405.01	   10.89
     87.1624	   18.00	   13.61	 -397.02	   10.89
     87.1958	   13.00	   13.61	 -402.02	   10.88
     87.2292	   11.00	   13.61	 -404.02	   10.88
     87.2627	   23.00	   13.62	 -392.02	   10.88
     87.2961	   20.00	   13.62	 -395.02	   10.87
     87.3295	   22.00	   13.63	 -393.03	   10.87
     87.3629	   18.00	   13.63	 -397.03	   10.87
     87.3963	   17.00	   13.63	 -398.04	   10.86
     87.4298	   16.00	   13.63	 -399.04	   10.86
     87.4632	   11.00	   13.64	 -404.04	   10.86
     87.4966	   12.00	   13.64	 -403.05	   10.85
     87.5300	   11.00	   13.64	 -404.05	   10.85
     87.5635	   21.00	   13.65	 -394.05	   10.85
     87.5969	    8.00	   13.66	 -407.06	   10.84
     87.6303	   11.00	   13.66	 -404.07	   10.84
     87.6637	    7.00	   13.67	 -408.07	   10.84
     87.6972	   16.00	   13.67	 -399.08	   10.83
     87.7306	    8.00	   13.68	 -407.08	   10.83
     87.7640	   16.00	   13.69	 -399.09	   10.83
     87.7974	   18.00	   13.69	 -397.10	   10.83
     87.8308	   20.00	   13.70	 -395.10	   10.82
     87.8643	   20.00	   13.71	 -395.11	   10.82
     87.8977	    5.00	   13.72	 -410.12	   10.82
     87.9311	   13.00	   13.73	 -402.13	   10.81
     87.9645	   13.00	   13.74	 -402.14	   10.81
     87.9979	   15.00	   13.75	 -400.15	   10.81
     88.0314	   12.00	   13.76	 -403.17	   10.80
     88.0648	   10.00	   13.77	 -405.18	   10.80
     88.0982	   10.00	   13.79	 -405.19	   10.80
     88.1316	    8.00	   13.80	 -407.21	   10.79
     88.1651	   15.00	   13.82	 -400.23	   10.79
     88.1985	   20.00	   13.84	 -395.24	   10.79
     88.2319	   18.00	   13.86	 -397.26	   10.78
     88.2653	   17.00	   13.88	 -398.29	   10.78
     88.2988	   15.00	   13.90	 -400.31	   10.78
     88.3322	   17.00	   13.93	 -398.33	   10.77
     88.3656	   10.00	   13.96	 -405.36	   10.77
     88.3990	   22.00	   13.99	 -393.39	   10.77
     88.4324	   13.00	   14.02	 -402.43	   10.76
     88.4659	   15.00	   14.06	 -400.46	   10.76
     88.4993	   18.00	   14.10	 -397.50	   10.76
     88.5327	   11.00	   14.14	 -404.55	   10.75
     88.5661	   17.00	   14.19	 -398.60	   10.75
     88.5996	   11.00	   14.24	 -404.65	   10.75
     88.6330	   22.00	   14.30	 -393.71	   10.74
     88.6664	   13.00	   14.37	 -402.77	   10.74
     88.6998	   20.00	   14.44	 -395.85	   10.74
     88.7332	   21.00	   14.53	 -394.93	   10.73
     88.7667	   25.00	   14.62	 -391.03	   10.73
     88.8001	   30.00	   14.73	 -386.13	   10.73
     88.8335	   28.00	   14.85	 -388.25	   10.72
     88.8669	   18.00	   14.98	 -398.39	   10.72
     88.9004	   15.00	   15.14	 -401.54	   10.72
     88.9338	   26.00	   15.32	 -390.72	   10.71
     88.9672	   15.00	   15.53	 -401.93	   10.71
     89.0006	   25.00	   15.77	 -392.18	   10.71
     89.0340	   26.00	   16.06	 -391.46	   10.70
     89.0675	   18.00	   16.40	 -399.81	   10.70
     89.1009	   18.00	   16.82	 -400.22	   10.70
     89.1343	   17.00	   17.32	 -401.72	   10.70
     89.1677	    7.00	   17.94	 -412.35	   10.69
     89.2012	   18.00	   18.74	 -402.14	   10.69
     89.2346	   15.00	   19.78	 -406.18	   10.69
     89.2680	   15.00	   21.25	 -407.65	   10.68
     89.3014	   20.00	   23.49	 -404.90	   10.68
     89.3349	   18.00	   27.16	 -410.56	   10.68
     89.3683	   22.00	   33.26	 -412.66	   10.67
     89.4017	   22.00	   43.08	 -422.49	   10.67
     89.4351	   46.00	   57.70	 -413.10	   10.67
     89.4685	   31.00	   77.11	 -447.52	   10.66
     89.5020	   62.00	   99.08	 -438.49	   10.66
     89.5354	   67.00	  117.40	 -451.80	   10.66
     89.5688	   82.00	  122.98	 -442.39	   10.65
     89.6022	   82.00	  112.89	 -432.29	   10.65
     89.6357	   45.00	   94.82	 -451.23	   10.65
     89.6691	   35.00	   77.88	 -444.28	   10.64
     89.7025	   27.00	   66.96	 -441.36	   10.64
     89.7359	   33.00	   63.45	 -431.85	   10.64
     89.7693	   41.00	   66.10	 -426.50	   10.63
     89.8028	   54.00	   71.44	 -418.84	   10.63
     89.8362	   56.00	   73.98	 -419.39	   10.63
     89.8696	   65.00	   69.48	 -405.89	   10.62
     89.9030	   28.00	   59.32	 -432.72	   10.62
     89.9365	   31.00	   47.79	 -418.19	   10.62
     89.9699	   26.00	   37.75	 -413.16	   10.61
     90.0033	   20.00	   30.22	 -411.62	   10.61
     90.0367	   25.00	   25.13	 -401.54	   10.61
     90.0701	   12.00	   21.91	 -411.31	   10.60
     90.1036	   22.00	   19.91	 -399.31	   10.60
     90.1370	   13.00	   18.63	 -407.04	   10.60
     90.1704	   12.00	   17.76	 -407.16	   10.59
     90.2038	    8.00	   17.11	 -410.52	   10.59
     90.2373	   21.00	   16.61	 -397.02	   10.59
     90.2707	   13.00	   16.21	 -404.61	   10.58
     90.3041	    8.00	   15.87	 -409.28	   10.58
     90.3375	   17.00	   15.59	 -400.00	   10.58
     90.3709	   16.00	   15.36	 -400.76	   10.57
     90.4044	   16.00	   15.15	 -400.56	   10.57
     90.4378	   15.00	   14.98	 -401.38	   10.57
     90.4712	   23.00	   14.83	 -393.23	   10.57
     90.5046	   17.00	   14.70	 -399.10	   10.56
     90.5381	   18.00	   14.58	 -397.98	   10.56
     90.5715	    3.00	   14.48	 -412.88	   10.56
     90.6049	   21.00	   14.39	 -394.79	   10.55
     90.6383	   15.00	   14.31	 -400.71	   10.55
     90.6718	   12.00	   14.23	 -403.64	   10.55
     90.7052	   17.00	   14.17	 -398.57	   10.54
     90.7386	   23.00	   14.11	 -392.51	   10.54
     90.7720	   10.00	   14.05	 -405.46	   10.54
     90.8054	   17.00	   14.01	 -398.41	   10.53
     90.8389	   13.00	   13.96	 -402.37	   10.53
     90.8723	   17.00	   13.92	 -398.33	   10.53
     90.9057	   13.00	   13.89	 -402.29	   10.52
     90.9391	   12.00	   13.85	 -403.26	   10.52
     90.9726	   12.00	   13.82	 -403.23	   10.52
     91.0060	   16.00	   13.79	 -399.20	   10.51
     91.0394	   11.00	   13.77	 -404.17	   10.51
     91.0728	   13.00	   13.74	 -402.15	   10.51
     91.1062	   15.00	   13.72	 -400.13	   10.50
     91.1397	   11.00	   13.70	 -404.11	   10.50
     91.1731	   12.00	   13.69	 -403.09	   10.50
     91.2065	   12.00	   13.67	 -403.07	   10.49
     91.2399	   17.00	   13.66	 -398.06	   10.49
     91.2734	   17.00	   13.64	 -398.05	   10.49
     91.3068	   11.00	   13.63	 -404.04	   10.48
     91.3402	    6.00	   13.62	 -409.03	   10.48
     91.3736	   15.00	   13.61	 -400.02	   10.48
     91.4071	   20.00	   13.61	 -395.01	   10.47
     91.4405	   10.00	   13.60	 -405.00	   10.47
     91.4739	    8.00	   13.60	 -407.00	   10.47
     91.5073	   13.00	   13.59	 -402.00	   10.46
     91.5407	   16.00	   13.59	 -398.99	   10.46
     91.5742	   13.00	   13.59	 -401.99	   10.46
     91.6076	   11.00	   13.59	 -404.00	   10.45
     91.6410	   16.00	   13.59	 -399.00	   10.45
     91.6744	    8.00	   13.60	 -407.00	   10.45
     91.7079	   13.00	   13.60	 -402.01	   10.44
     91.7413	   18.00	   13.61	 -397.02	   10.44
     91.7747	   18.00	   13.62	 -397.03	   10.44
     91.8081	   12.00	   13.64	 -403.04	   10.43
     91.8415	    8.00	   13.65	 -407.05	   10.43
     91.8750	   17.00	   13.67	 -398.07	   10.43
     91.9084	   16.00	   13.69	 -399.09	   10.43
     91.9418	   15.00	   13.72	 -400.12	   10.42
     91.9752	   17.00	   13.74	 -398.15	   10.42
     92.0087	   12.00	   13.78	 -403.18	   10.42
     92.0421	   13.00	   13.82	 -402.22	   10.41
     92.0755	   17.00	   13.87	 -398.27	   10.41
     92.1089	   13.00	   13.92	 -402.33	   10.41
     92.1423	   18.00	   13.99	 -397.39	   10.40
     92.1758	   12.00	   14.07	 -403.47	   10.40
     92.2092	    6.00	   14.16	 -409.56	   10.40
     92.2426	   16.00	   14.27	 -399.67	   10.39
     92.2760	   18.00	   14.40	 -397.81	   10.39
     92.3095	   21.00	   14.56	 -394.97	   10.39
     92.3429	   17.00	   14.77	 -399.17	   10.38
     92.3763	   12.00	   15.02	 -404.43	   10.38
     92.4097	   16.00	   15.36	 -400.77	   10.38
     92.4431	   17.00	   15.84	 -400.24	   10.37
     92.4766	   12.00	   16.56	 -405.97	   10.37
     92.5100	   16.00	   17.73	 -403.14	   10.37
     92.5434	   25.00	   19.66	 -396.06	   10.36
     92.5768	   16.00	   22.72	 -408.13	   10.36
     92.6103	   23.00	   27.27	 -405.68	   10.36
     92.6437	   15.00	   33.35	 -419.75	   10.35
     92.6771	   27.00	   40.36	 -414.76	   10.35
     92.7105	   48.00	   46.59	 -400.00	   10.35
     92.7439	   46.00	   49.28	 -404.69	   10.34
     92.7774	   43.00	   46.90	 -405.31	   10.34
     92.8108	   23.00	   41.31	 -419.71	   10.34
     92.8442	   26.00	   35.44	 -410.84	   10.33
     92.8776	   23.00	   31.14	 -409.54	   10.33
     92.9111	   16.00	   29.09	 -414.49	   10.33
     92.9445	   21.00	   29.22	 -409.62	   10.32
     92.9779	   26.00	   30.83	 -406.24	   10.32
     93.0113	   28.00	   32.60	 -406.01	   10.32
     93.0448	   22.00	   32.83	 -412.24	   10.31
     93.0782	   17.00	   30.74	 -415.15	   10.31
     93.1116	   18.00	   27.25	 -410.65	   10.31
     93.1450	   16.00	   23.63	 -409.04	   10.30
     93.1784	   12.00	   20.61	 -410.01	   10.30
     93.2119	   12.00	   18.38	 -407.78	   10.30
     93.2453	   10.00	   16.88	 -408.28	   10.30
     93.2787	   13.00	   15.93	 -404.33	   10.29
     93.3121	   15.00	   15.33	 -401.74	   10.29
     93.3456	   12.00	   14.95	 -404.35	   10.29
     93.3790	   16.00	   14.68	 -400.09	   10.28
     93.4124	    8.00	   14.49	 -407.89	   10.28
     93.4458	   20.00	   14.34	 -395.74	   10.28
     93.4792	   13.00	   14.21	 -402.62	   10.27
     93.5127	   18.00	   14.12	 -397.52	   10.27
     93.5461	   28.00	   14.03	 -387.44	   10.27
     93.5795	   23.00	   13.97	 -392.37	   10.26
     93.6129	   15.00	   13.91	 -400.32	   10.26
     93.6464	    8.00	   13.87	 -407.27	   10.26
     93.6798	   12.00	   13.83	 -403.23	   10.25
     93.7132	   18.00	   13.80	 -397.20	   10.25
     93.7466	   11.00	   13.78	 -404.18	   10.25
     93.7801	   16.00	   13.76	 -399.16	   10.24
     93.8135	   20.00	   13.74	 -395.15	   10.24
     93.8469	   12.00	   13.74	 -403.14	   10.24
     93.8803	   16.00	   13.73	 -399.14	   10.23
     93.9137	   21.00	   13.73	 -394.14	   10.23
     93.9472	   15.00	   13.73	 -400.14	   10.23
     93.9806	   11.00	   13.74	 -404.15	   10.22
     94.0140	   20.00	   13.75	 -395.16	   10.22
     94.0474	   15.00	   13.77	 -400.17	   10.22
     94.0808	   13.00	   13.79	 -402.19	   10.21
     94.1143	   15.00	   13.81	 -400.21	   10.21
     94.1477	   18.00	   13.84	 -397.24	   10.21
     94.1811	   21.00	   13.87	 -394.27	   10.20
     94.2145	   21.00	   13.90	 -394.31	   10.20
     94.2480	   16.00	   13.95	 -399.35	   10.20
     94.2814	   18.00	   13.99	 -397.40	   10.19
     94.3148	    8.00	   14.05	 -407.45	   10.19
     94.3482	   17.00	   14.11	 -398.52	   10.19
     94.3817	   13.00	   14.18	 -402.59	   10.18
     94.4151	   20.00	   14.26	 -395.67	   10.18
     94.4485	   10.00	   14.36	 -405.76	   10.18
     94.4819	   15.00	   14.46	 -400.86	   10.17
     94.5153	   20.00	   14.58	 -395.98	   10.17
     94.5488	   13.00	   14.72	 -403.12	   10.17
     94.5822	   18.00	   14.87	 -398.28	   10.17
     94.6156	   11.00	   15.06	 -405.46	   10.16
     94.6490	   15.00	   15.27	 -401.67	   10.16
     94.6825	   17.00	   15.51	 -399.92	   10.16
     94.7159	   17.00	   15.81	 -400.21	   10.15
     94.7493	   22.00	   16.15	 -395.56	   10.15
     94.7827	   23.00	   16.57	 -394.97	   10.15
     94.8161	   20.00	   17.07	 -398.47	   10.14
     94.8496	   16.00	   17.69	 -403.09	   10.14
     94.8830	   20.00	   18.44	 -399.85	   10.14
     94.9164	   11.00	   19.46	 -409.87	   10.13
     94.9498	   31.00	   20.88	 -391.28	   10.13
     94.9833	   21.00	   22.99	 -403.40	   10.13
     95.0167	   18.00	   26.35	 -409.75	   10.12
     95.0501	   27.00	   31.81	 -406.22	   10.12
     95.0835	   27.00	   40.50	 -414.91	   10.12
     95.1170	   37.00	   53.46	 -417.87	   10.11
     95.1504	   36.00	   71.03	 -436.43	   10.11
     95.1838	   57.00	   91.97	 -436.37	   10.11
     95.2172	   74.00	  112.12	 -439.53	   10.10
     95.2506	   95.00	  123.81	 -430.22	   10.10
     95.2841	   84.00	  120.65	 -438.05	   10.10
     95.3175	   59.00	  105.45	 -447.86	   10.09
     95.3509	   47.00	   86.85	 -441.25	   10.09
     95.3843	   41.00	   71.39	 -431.79	   10.09
     95.4178	   30.00	   62.13	 -433.53	   10.08
     95.4512	   23.00	   59.67	 -438.07	   10.08
     95.4846	   41.00	   62.86	 -423.27	   10.08
     95.5180	   42.00	   68.96	 -428.36	   10.07
     95.5514	   72.00	   73.53	 -402.94	   10.07
     95.5849	   48.00	   72.05	 -425.46	   10.07
     95.6183	   43.00	   64.03	 -422.43	   10.06
     95.6517	   36.00	   53.02	 -418.43	   10.06
     95.6851	   17.00	   42.41	 -426.81	   10.06
     95.7186	   18.00	   33.80	 -417.20	   10.05
     95.7520	   26.00	   27.56	 -402.96	   10.05
     95.7854	   17.00	   23.39	 -407.79	   10.05
     95.8188	   10.00	   20.73	 -412.13	   10.04
     95.8522	   15.00	   19.04	 -405.45	   10.04
     95.8857	   22.00	   17.93	 -397.33	   10.04
     95.9191	   21.00	   17.14	 -397.54	   10.03
     95.9525	   20.00	   16.54	 -397.95	   10.03
     95.9859	   13.00	   16.07	 -404.48	   10.03
     96.0194	   22.00	   15.69	 -395.09	   10.03
     96.0528	   20.00	   15.37	 -396.77	   10.02
     96.0862	   13.00	   15.10	 -403.50	   10.02
     96.1196	   22.00	   14.87	 -394.27	   10.02
     96.1531	   16.00	   14.67	 -400.07	   10.01
     96.1865	   13.00	   14.50	 -402.90	   10.01
     96.2199	   17.00	   14.35	 -398.75	   10.01
     96.2533	   17.00	   14.21	 -398.62	   10.00
     96.2867	   17.00	   14.10	 -398.50	   10.00
     96.3202	   17.00	   14.00	 -398.40	   10.00
     96.3536	   12.00	   13.90	 -403.31	    9.99
     96.3870	   12.00	   13.82	 -403.23	    9.99
     96.4204	   18.00	   13.75	 -397.15	    9.99
     96.4538	   18.00	   13.68	 -397.09	    9.98
     96.4873	   16.00	   13.62	 -399.03	    9.98
     96.5207	   12.00	   13.57	 -402.97	    9.98
     96.5541	   16.00	   13.52	 -398.92	    9.97
     96.5875	   18.00	   13.47	 -396.88	    9.97
     96.6210	   15.00	   13.43	 -399.84	    9.97
     96.6544	   13.00	   13.40	 -401.80	    9.96
     96.6878	   12.00	   13.36	 -402.77	    9.96
     96.7212	   13.00	   13.33	 -401.74	    9.96
     96.7547	   16.00	   13.30	 -398.71	    9.95
     96.7881	    7.00	   13.28	 -407.68	    9.95
     96.8215	   15.00	   13.26	 -399.66	    9.95
     96.8549	   15.00	   13.23	 -399.64	    9.94
     96.8883	   21.00	   13.22	 -393.62	    9.94
     96.9218	   12.00	   13.20	 -402.60	    9.94
     96.9552	   20.00	   13.19	 -394.60	    9.93
     96.9886	   10.00	   13.18	 -404.58	    9.93
     97.0220	   12.00	   13.17	 -402.57	    9.93
     97.0555	   16.00	   13.16	 -398.56	    9.92
     97.0889	   22.00	   13.15	 -392.55	    9.92
     97.1223	   21.00	   13.14	 -393.55	    9.92
     97.1557	   17.00	   13.14	 -397.54	    9.91
     97.1891	   17.00	   13.13	 -397.54	    9.91
     97.2226	   17.00	   13.13	 -397.54	    9.91
     97.2560	   21.00	   13.13	 -393.54	    9.90
     97.2894	   21.00	   13.14	 -393.54	    9.90
     97.3228	   16.00	   13.14	 -398.55	    9.90
     97.3563	   13.00	   13.15	 -401.55	    9.90
     97.3897	   10.00	   13.15	 -404.56	    9.89
     97.4231	   12.00	   13.16	 -402.57	    9.89
     97.4565	   20.00	   13.17	 -394.58	    9.89
     97.4900	   11.00	   13.19	 -403.59	    9.88
     97.5234	   12.00	   13.21	 -402.61	    9.88
     97.5568	   20.00	   13.23	 -394.63	    9.88
     97.5902	   10.00	   13.25	 -404.65	    9.87
     97.6236	   10.00	   13.28	 -404.68	    9.87
     97.6571	   15.00	   13.31	 -399.71	    9.87
     97.6905	   13.00	   13.34	 -401.75	    9.86
     97.7239	   16.00	   13.38	 -398.79	    9.86
     97.7573	   12.00	   13.43	 -402.84	    9.86
     97.7908	   10.00	   13.49	 -404.89	    9.85
     97.8242	   11.00	   13.55	 -403.95	    9.85
     97.8576	   17.00	   13.62	 -398.03	    9.85
     97.8910	   17.00	   13.70	 -398.11	    9.84
     97.9244	   17.00	   13.80	 -398.21	    9.84
     97.9579	   13.00	   13.92	 -402.32	    9.84
     97.9913	   12.00	   14.05	 -403.45	    9.83
     98.0247	   20.00	   14.21	 -395.61	    9.83
     98.0581	   17.00	   14.41	 -398.81	    9.83
     98.0916	   11.00	   14.64	 -405.04	    9.82
     98.1250	   18.00	   14.91	 -398.31	    9.82
     98.1584	   20.00	   15.25	 -396.65	    9.82
     98.1918	   15.00	   15.67	 -402.07	    9.81
     98.2253	   17.00	   16.23	 -400.63	    9.81
     98.2587	   10.00	   17.01	 -408.41	    9.81
     98.2921	   22.00	   18.17	 -397.58	    9.80
     98.3255	   22.00	   20.02	 -399.42	    9.80
     98.3589	   16.00	   22.98	 -408.38	    9.80
     98.3924	   28.00	   27.61	 -401.01	    9.79
     98.4258	   22.00	   34.41	 -413.81	    9.79
     98.4592	   31.00	   43.53	 -413.93	    9.79
     98.4926	   27.00	   54.35	 -428.75	    9.78
     98.5260	   43.00	   64.90	 -423.30	    9.78
     98.5595	   46.00	   71.47	 -426.87	    9.78
     98.5929	   43.00	   70.66	 -429.06	    9.77
     98.6263	   40.00	   63.29	 -424.70	    9.77
     98.6597	   38.00	   53.50	 -416.91	    9.77
     98.6932	   27.00	   44.77	 -419.17	    9.77
     98.7266	   20.00	   38.88	 -420.29	    9.76
     98.7600	   30.00	   36.40	 -407.81	    9.76
     98.7934	   20.00	   37.07	 -418.47	    9.76
     98.8269	   26.00	   39.93	 -415.33	    9.75
     98.8603	   36.00	   43.32	 -408.73	    9.75
     98.8937	   36.00	   44.91	 -410.31	    9.75
     98.9271	   23.00	   42.99	 -421.39	    9.74
     98.9605	   33.00	   38.17	 -406.57	    9.74
     98.9940	   31.00	   32.40	 -402.80	    9.74
     99.0274	   15.00	   27.11	 -413.51	    9.73
     99.0608	   17.00	   22.91	 -407.32	    9.73
     99.0942	   18.00	   19.89	 -403.30	    9.73
     99.1277	   18.00	   17.87	 -401.27	    9.72
     99.1611	   13.00	   16.57	 -404.97	    9.72
     99.1945	   15.00	   15.73	 -402.13	    9.72
     99.2279	   13.00	   15.17	 -403.57	    9.71
     99.2613	   22.00	   14.76	 -394.16	    9.71
     99.2948	   18.00	   14.45	 -397.86	    9.71
     99.3282	   15.00	   14.20	 -400.61	    9.70
     99.3616	   15.00	   14.00	 -400.41	    9.70
     99.3950	   15.00	   13.83	 -400.24	    9.70
     99.4285	   11.00	   13.69	 -404.09	    9.69
     99.4619	   10.00	   13.56	 -404.97	    9.69
     99.4953	   13.00	   13.46	 -401.86	    9.69
     99.5287	   13.00	   13.36	 -401.77	    9.68
     99.5621	   13.00	   13.28	 -401.69	    9.68
     99.5956	   17.00	   13.21	 -397.61	    9.68
     99.6290	   15.00	   13.14	 -399.55	    9.67
     99.6624	   12.00	   13.09	 -402.49	    9.67
     99.6958	   13.00	   13.04	 -401.44	    9.67
     99.7293	   17.00	   12.99	 -397.39	    9.66
     99.7627	   11.00	   12.95	 -403.35	    9.66
     99.7961	   17.00	   12.91	 -397.31	    9.66
     99.8295	   15.00	   12.87	 -399.28	    9.65
     99.8630	   15.00	   12.84	 -399.25	    9.65
     99.8964	   13.00	   12.81	 -401.22	    9.65
     99.9298	   13.00	   12.79	 -401.19	    9.64
     99.9632	    7.00	   12.76	 -407.17	    9.64
     99.9966	   15.00	   12.74	 -399.14	    9.64
    100.0301	   13.00	   12.72	 -401.12	    9.63
    100.0635	   11.00	   12.70	 -403.10	    9.63
    100.0969	   12.00	   12.68	 -402.08	    9.63
    100.1303	   11.00	   12.66	 -403.07	    9.63
    100.1638	   18.00	   12.65	 -396.05	    9.62
    100.1972	   13.00	   12.63	 -401.04	    9.62
    100.2306	   17.00	   12.62	 -397.02	    9.62
    100.2640	   22.00	   12.60	 -392.01	    9.61
    100.2974	    5.00	   12.59	 -409.00	    9.61
    100.3309	   15.00	   12.58	 -398.99	    9.61
    100.3643	   12.00	   12.57	 -401.97	    9.60
    100.3977	   15.00	   12.56	 -398.96	    9.60
    100.4311	   18.00	   12.55	 -395.96	    9.60
    100.4646	   16.00	   12.54	 -397.95	    9.59
    100.4980	   16.00	   12.53	 -397.94	    9.59
    100.5314	   11.00	   12.53	 -402.93	    9.59
    100.5648	   15.00	   12.52	 -398.92	    9.58
    100.5982	   13.00	   12.51	 -400.92	    9.58
    100.6317	   21.00	   12.51	 -392.91	    9.58
    100.6651	   13.00	   12.50	 -400.91	    9.57
    100.6985	   16.00	   12.50	 -397.90	    9.57
    100.7319	    7.00	   12.49	 -406.90	    9.57
    100.7654	   15.00	   12.49	 -398.89	    9.56
    100.7988	   11.00	   12.48	 -402.89	    9.56
    100.8322	   12.00	   12.46	 -401.86	    9.56
    100.8656	   12.00	   12.45	 -401.86	    9.55
    100.8990	    7.00	   12.45	 -406.85	    9.55
    100.9325	   10.00	   12.45	 -403.85	    9.55
    100.9659	   15.00	   12.45	 -398.85	    9.54
    100.9993	   21.00	   12.45	 -392.85	    9.54
    101.0327	   17.00	   12.44	 -396.85	    9.54
    101.0662	   16.00	   12.44	 -397.85	    9.53
    101.0996	   17.00	   12.44	 -396.85	    9.53
    101.1330	   16.00	   12.44	 -397.85	    9.53
    101.1664	   12.00	   12.44	 -401.84	    9.52
    101.1999	   11.00	   12.44	 -402.84	    9.52
    101.2333	   23.00	   12.44	 -390.85	    9.52
    101.2667	   13.00	   12.44	 -400.85	    9.51
    101.3001	   11.00	   12.45	 -402.85	    9.51
    101.3335	   25.00	   12.45	 -388.86	    9.51
    101.3670	   17.00	   12.46	 -396.86	    9.50
    101.4004	   10.00	   12.46	 -403.86	    9.50
    101.4338	   15.00	   12.47	 -398.87	    9.50
    101.4672	   21.00	   12.47	 -392.88	    9.50
    101.5007	   23.00	   12.48	 -390.89	    9.49
    101.5341	   13.00	   12.49	 -400.89	    9.49
    101.5675	   18.00	   12.50	 -395.90	    9.49
    101.6009	   13.00	   12.51	 -400.91	    9.48
    101.6343	   17.00	   12.52	 -396.92	    9.48
    101.6678	   18.00	   12.53	 -395.94	    9.48
    101.7012	   23.00	   12.55	 -390.95	    9.47
    101.7346	   10.00	   12.56	 -403.97	    9.47
    101.7680	   20.00	   12.58	 -393.98	    9.47
    101.8015	   18.00	   12.60	 -396.00	    9.46
    101.8349	   18.00	   12.62	 -396.02	    9.46
    101.8683	    6.00	   12.64	 -408.04	    9.46
    101.9017	   12.00	   12.67	 -402.07	    9.45
    101.9352	   21.00	   12.69	 -393.10	    9.45
    101.9686	    8.00	   12.72	 -406.13	    9.45
    102.0020	   16.00	   12.76	 -398.16	    9.44
    102.0354	   18.00	   12.80	 -396.20	    9.44
    102.0688	   11.00	   12.84	 -403.24	    9.44
    102.1023	   17.00	   12.89	 -397.29	    9.43
    102.1357	   10.00	   12.94	 -404.35	    9.43
    102.1691	   25.00	   13.00	 -389.41	    9.43
    102.2025	   15.00	   13.07	 -399.48	    9.42
    102.2360	   20.00	   13.16	 -394.56	    9.42
    102.2694	   11.00	   13.25	 -403.65	    9.42
    102.3028	   16.00	   13.35	 -398.76	    9.41
    102.3362	   20.00	   13.48	 -394.88	    9.41
    102.3696	   22.00	   13.62	 -393.03	    9.41
    102.4031	   18.00	   13.80	 -397.20	    9.40
    102.4365	   15.00	   14.01	 -400.41	    9.40
    102.4699	   15.00	   14.26	 -400.66	    9.40
    102.5033	   21.00	   14.58	 -394.98	    9.39
    102.5368	   22.00	   15.00	 -394.40	    9.39
    102.5702	   18.00	   15.58	 -398.98	    9.39
    102.6036	   12.00	   16.43	 -405.84	    9.38
    102.6370	   11.00	   17.76	 -408.16	    9.38
    102.6704	   18.00	   19.83	 -403.23	    9.38
    102.7039	   26.00	   23.00	 -398.40	    9.37
    102.7373	   12.00	   27.56	 -416.96	    9.37
    102.7707	   23.00	   33.60	 -412.01	    9.37
    102.8041	   23.00	   40.78	 -419.19	    9.37
    102.8376	   46.00	   47.95	 -403.36	    9.36
    102.8710	   42.00	   52.93	 -412.33	    9.36
    102.9044	   36.00	   53.39	 -418.80	    9.36
    102.9378	   32.00	   49.26	 -418.66	    9.35
    102.9712	   26.00	   42.83	 -418.24	    9.35
    103.0047	   16.00	   36.51	 -421.92	    9.35
    103.0381	   17.00	   31.68	 -416.08	    9.34
    103.0715	   23.00	   28.91	 -407.32	    9.34
    103.1049	   23.00	   28.27	 -406.68	    9.34
    103.1384	   31.00	   29.44	 -399.84	    9.33
    103.1718	   26.00	   31.77	 -407.17	    9.33
    103.2052	   20.00	   34.21	 -415.61	    9.33
    103.2386	   32.00	   35.33	 -404.73	    9.32
    103.2720	   27.00	   34.15	 -408.56	    9.32
    103.3055	   25.00	   31.10	 -407.50	    9.32
    103.3389	   26.00	   27.38	 -402.78	    9.31
    103.3723	   23.00	   23.91	 -402.31	    9.31
    103.4057	   12.00	   21.12	 -410.52	    9.31
    103.4392	   12.00	   19.11	 -408.51	    9.30
    103.4726	   25.00	   17.79	 -394.19	    9.30
    103.5060	   16.00	   17.00	 -402.40	    9.30
    103.5394	   13.00	   16.58	 -404.99	    9.29
    103.5729	   15.00	   16.42	 -402.82	    9.29
    103.6063	   23.00	   16.43	 -394.83	    9.29
    103.6397	   13.00	   16.58	 -404.98	    9.28
    103.6731	   18.00	   16.87	 -400.27	    9.28
    103.7065	   16.00	   17.31	 -402.71	    9.28
    103.7400	   21.00	   17.97	 -398.37	    9.27
    103.7734	   20.00	   18.97	 -400.37	    9.27
    103.8068	   26.00	   20.52	 -395.93	    9.27
    103.8402	   18.00	   23.01	 -406.41	    9.26
    103.8737	   28.00	   26.93	 -400.34	    9.26
    103.9071	   18.00	   32.91	 -416.32	    9.26
    103.9405	   23.00	   41.42	 -419.82	    9.25
    103.9739	   33.00	   52.55	 -420.95	    9.25
    104.0073	   41.00	   65.54	 -425.94	    9.25
    104.0408	   48.00	   78.18	 -431.58	    9.24
    104.0742	   56.00	   86.45	 -431.86	    9.24
    104.1076	   56.00	   86.46	 -431.87	    9.24
    104.1410	   43.00	   78.47	 -436.88	    9.23
    104.1745	   28.00	   66.69	 -440.09	    9.23
    104.2079	   25.00	   55.24	 -431.64	    9.23
    104.2413	   28.00	   46.47	 -419.87	    9.23
    104.2747	   26.00	   41.36	 -416.76	    9.22
    104.3082	   25.00	   39.99	 -416.39	    9.22
    104.3416	   33.00	   41.86	 -410.27	    9.22
    104.3750	   36.00	   45.90	 -411.30	    9.21
    104.4084	   38.00	   50.35	 -413.75	    9.21
    104.4418	   33.00	   52.76	 -421.17	    9.21
    104.4753	   48.00	   51.18	 -404.58	    9.20
    104.5087	   41.00	   45.95	 -406.35	    9.20
    104.5421	   36.00	   39.14	 -404.54	    9.20
    104.5755	   20.00	   32.53	 -413.93	    9.19
    104.6089	   22.00	   27.01	 -406.41	    9.19
    104.6424	   22.00	   22.83	 -402.24	    9.19
    104.6758	   11.00	   19.90	 -410.31	    9.18
    104.7092	   20.00	   17.95	 -399.35	    9.18
    104.7426	   17.00	   16.66	 -401.07	    9.18
    104.7761	   25.00	   15.80	 -392.21	    9.17
    104.8095	   12.00	   15.20	 -404.61	    9.17
    104.8429	   17.00	   14.75	 -399.16	    9.17
    104.8763	   11.00	   14.40	 -404.81	    9.16
    104.9098	   22.00	   14.12	 -393.52	    9.16
    104.9432	   12.00	   13.88	 -403.28	    9.16
    104.9766	   12.00	   13.67	 -403.08	    9.15
    105.0100	   17.00	   13.50	 -397.90	    9.15
    105.0434	   17.00	   13.35	 -397.75	    9.15
    105.0769	   17.00	   13.22	 -397.62	    9.14
    105.1103	   17.00	   13.10	 -397.51	    9.14
    105.1437	   12.00	   13.00	 -402.40	    9.14
    105.1771	   16.00	   12.91	 -398.31	    9.13
    105.2106	   13.00	   12.83	 -401.23	    9.13
    105.2440	   15.00	   12.76	 -399.16	    9.13
    105.2774	   12.00	   12.69	 -402.09	    9.12
    105.3108	   15.00	   12.63	 -399.04	    9.12
    105.3442	   13.00	   12.58	 -400.98	    9.12
    105.3777	   12.00	   12.53	 -401.93	    9.11
    105.4111	   12.00	   12.48	 -401.89	    9.11
    105.4445	   13.00	   12.44	 -400.85	    9.11
    105.4779	   18.00	   12.40	 -395.81	    9.10
    105.5114	    7.00	   12.37	 -406.77	    9.10
    105.5448	   13.00	   12.33	 -400.74	    9.10
    105.5782	   17.00	   12.30	 -396.71	    9.10
    105.6116	   11.00	   12.28	 -402.68	    9.09
    105.6451	   21.00	   12.25	 -392.66	    9.09
    105.6785	   15.00	   12.23	 -398.63	    9.09
    105.7119	   17.00	   12.20	 -396.61	    9.08
    105.7453	   12.00	   12.18	 -401.59	    9.08
    105.7787	    8.00	   12.16	 -405.57	    9.08
    105.8122	   11.00	   12.14	 -402.55	    9.07
    105.8456	   18.00	   12.13	 -395.53	    9.07
    105.8790	   17.00	   12.11	 -396.52	    9.07
    105.9124	    3.00	   12.10	 -410.50	    9.06
    105.9459	   11.00	   12.08	 -402.49	    9.06
    105.9793	    8.00	   12.07	 -405.47	    9.06
    106.0127	   17.00	   12.06	 -396.46	    9.05
    106.0461	   15.00	   12.05	 -398.45	    9.05
    106.0795	   16.00	   12.04	 -397.44	    9.05
    106.1130	   13.00	   12.03	 -400.43	    9.04
    106.1464	   11.00	   12.02	 -402.42	    9.04
    106.1798	   15.00	   12.01	 -398.42	    9.04
    106.2132	    7.00	   12.00	 -406.41	    9.03
    106.2467	   15.00	   12.00	 -398.40	    9.03
    106.2801	   16.00	   11.99	 -397.40	    9.03
    106.3135	   12.00	   11.99	 -401.39	    9.02
    106.3469	   16.00	   11.99	 -397.39	    9.02
    106.3803	   11.00	   11.98	 -402.39	    9.02
    106.4138	   11.00	   11.98	 -402.39	    9.01
    106.4472	   11.00	   11.98	 -402.39	    9.01
    106.4806	   18.00	   11.98	 -395.39	    9.01
    106.5140	   16.00	   11.99	 -397.39	    9.00
    106.5475	   11.00	   11.99	 -402.39	    9.00
    106.5809	   11.00	   12.00	 -402.40	    9.00
    106.6143	   18.00	   12.00	 -395.41	    8.99
    106.6477	   10.00	   12.01	 -403.42	    8.99
    106.6812	   13.00	   12.02	 -400.43	    8.99
    106.7146	   12.00	   12.04	 -401.44	    8.98
    106.7480	   12.00	   12.06	 -401.46	    8.98
    106.7814	   10.00	   12.08	 -403.48	    8.98
    106.8148	    7.00	   12.11	 -406.51	    8.97
    106.8483	   20.00	   12.14	 -393.54	    8.97
    106.8817	   25.00	   12.18	 -388.58	    8.97
    106.9151	   22.00	   12.23	 -391.63	    8.96
    106.9485	   12.00	   12.29	 -401.70	    8.96
    106.9819	   20.00	   12.37	 -393.77	    8.96
    107.0154	    8.00	   12.47	 -405.87	    8.96
    107.0488	   15.00	   12.61	 -399.01	    8.95
    107.0822	   15.00	   12.81	 -399.21	    8.95
    107.1156	   23.00	   13.11	 -391.51	    8.95
    107.1491	   15.00	   13.58	 -399.98	    8.94
    107.1825	   21.00	   14.29	 -394.70	    8.94
    107.2159	   11.00	   15.34	 -405.75	    8.94
    107.2493	   15.00	   16.79	 -403.20	    8.93
    107.2828	    7.00	   18.62	 -413.03	    8.93
    107.3162	   11.00	   20.69	 -411.09	    8.93
    107.3496	   20.00	   22.61	 -404.02	    8.92
    107.3830	   13.00	   23.78	 -412.18	    8.92
    107.4164	   21.00	   23.65	 -404.06	    8.92
    107.4499	   26.00	   22.34	 -397.74	    8.91
    107.4833	   16.00	   20.47	 -405.88	    8.91
    107.5167	   15.00	   18.65	 -405.05	    8.91
    107.5501	   13.00	   17.21	 -405.61	    8.90
    107.5836	   10.00	   16.30	 -407.71	    8.90
    107.6170	   18.00	   15.97	 -399.37	    8.90
    107.6504	   11.00	   16.14	 -406.54	    8.89
    107.6838	   27.00	   16.70	 -391.10	    8.89
    107.7172	   11.00	   17.44	 -407.84	    8.89
    107.7507	   11.00	   18.06	 -408.46	    8.88
    107.7841	   16.00	   18.20	 -403.60	    8.88
    107.8175	   16.00	   17.70	 -403.11	    8.88
    107.8509	   13.00	   16.75	 -405.16	    8.87
    107.8844	   21.00	   15.67	 -396.08	    8.87
    107.9178	   22.00	   14.68	 -394.08	    8.87
    107.9512	   12.00	   13.87	 -403.27	    8.86
    107.9846	   12.00	   13.26	 -402.67	    8.86
    108.0181	   15.00	   12.84	 -399.24	    8.86
    108.0515	   13.00	   12.55	 -400.95	    8.85
    108.0849	   17.00	   12.36	 -396.76	    8.85
    108.1183	   17.00	   12.23	 -396.63	    8.85
    108.1517	   12.00	   12.13	 -401.54	    8.84
    108.1852	    8.00	   12.06	 -405.47	    8.84
    108.2186	   11.00	   12.01	 -402.41	    8.84
    108.2520	   21.00	   11.97	 -392.37	    8.83
    108.2854	   10.00	   11.93	 -403.33	    8.83
    108.3189	    8.00	   11.90	 -405.30	    8.83
    108.3523	   13.00	   11.87	 -400.28	    8.83
    108.3857	   11.00	   11.85	 -402.25	    8.82
    108.4191	   11.00	   11.83	 -402.23	    8.82
    108.4525	   10.00	   11.81	 -403.22	    8.82
    108.4860	   16.00	   11.80	 -397.20	    8.81
    108.5194	   15.00	   11.79	 -398.19	    8.81
    108.5528	   12.00	   11.77	 -401.18	    8.81
    108.5862	   15.00	   11.77	 -398.17	    8.80
    108.6197	   27.00	   11.76	 -386.16	    8.80
    108.6531	   10.00	   11.75	 -403.16	    8.80
    108.6865	   17.00	   11.75	 -396.15	    8.79
    108.7199	   13.00	   11.74	 -400.15	    8.79
    108.7533	   16.00	   11.74	 -397.15	    8.79
    108.7868	   12.00	   11.74	 -401.15	    8.78
    108.8202	   13.00	   11.74	 -400.15	    8.78
    108.8536	   12.00	   11.73	 -401.14	    8.78
    108.8870	   20.00	   11.74	 -393.14	    8.77
    108.9205	    6.00	   11.74	 -407.14	    8.77
    108.9539	    8.00	   11.74	 -405.15	    8.77
    108.9873	   20.00	   11.75	 -393.15	    8.76
    109.0207	   15.00	   11.76	 -398.16	    8.76
    109.0541	   10.00	   11.76	 -403.17	    8.76
    109.0876	   17.00	   11.77	 -396.18	    8.75
    109.1210	   13.00	   11.79	 -400.19	    8.75
    109.1544	   16.00	   11.80	 -397.20	    8.75
    109.1878	    8.00	   11.81	 -405.22	    8.74
    109.2213	   18.00	   11.83	 -395.23	    8.74
    109.2547	   20.00	   11.84	 -393.25	    8.74
    109.2881	   15.00	   11.89	 -398.30	    8.73
    109.3215	   16.00	   11.91	 -397.32	    8.73
    109.3549	   10.00	   11.94	 -403.35	    8.73
    109.3884	    6.00	   11.97	 -407.38	    8.72
    109.4218	   11.00	   12.01	 -402.41	    8.72
    109.4552	   15.00	   12.04	 -398.45	    8.72
    109.4886	   10.00	   12.09	 -403.49	    8.71
    109.5221	   15.00	   12.14	 -398.54	    8.71
    109.5555	   10.00	   12.19	 -403.60	    8.71
    109.5889	   11.00	   12.25	 -402.66	    8.70
    109.6223	   17.00	   12.32	 -396.73	    8.70
    109.6558	   13.00	   12.41	 -400.81	    8.70
    109.6892	   10.00	   12.51	 -403.92	    8.70
    109.7226	   10.00	   12.62	 -404.03	    8.69
    109.7560	   12.00	   12.75	 -402.15	    8.69
    109.7894	   13.00	   12.90	 -401.30	    8.69
    109.8229	   16.00	   13.07	 -398.48	    8.68
    109.8563	   16.00	   13.28	 -398.69	    8.68
    109.8897	   13.00	   13.54	 -401.94	    8.68
    109.9231	   11.00	   13.85	 -404.26	    8.67
    109.9566	   17.00	   14.25	 -398.66	    8.67
    109.9900	   16.00	   14.80	 -400.20	    8.67
    110.0234	   16.00	   15.56	 -400.97	    8.66
    110.0568	   10.00	   16.70	 -408.10	    8.66
    110.0902	   28.00	   18.43	 -391.83	    8.66
    110.1237	   21.00	   21.03	 -401.43	    8.65
    110.1571	   16.00	   24.79	 -410.19	    8.65
    110.1905	   22.00	   29.97	 -409.38	    8.65
    110.2239	   16.00	   36.56	 -421.97	    8.64
    110.2574	   18.00	   44.14	 -427.55	    8.64
    110.2908	   37.00	   51.60	 -416.00	    8.64
    110.3242	   54.00	   56.93	 -404.33	    8.63
    110.3576	   35.00	   57.97	 -424.38	    8.63
    110.3911	   33.00	   54.33	 -422.73	    8.63
    110.4245	   32.00	   47.81	 -417.21	    8.62
    110.4579	   26.00	   40.72	 -416.12	    8.62
    110.4913	   27.00	   34.58	 -408.99	    8.62
    110.5247	   27.00	   30.15	 -404.56	    8.61
    110.5582	   23.00	   27.72	 -406.13	    8.61
    110.5916	   16.00	   27.23	 -412.64	    8.61
    110.6250	   16.00	   28.42	 -413.82	    8.60
    110.6584	   13.00	   30.81	 -419.21	    8.60
    110.6919	   11.00	   33.68	 -424.09	    8.60
    110.7253	   27.00	   35.94	 -410.34	    8.59
    110.7587	   31.00	   36.36	 -406.76	    8.59
    110.7921	   23.00	   34.47	 -412.87	    8.59
    110.8255	   22.00	   30.98	 -410.38	    8.58
    110.8590	   32.00	   26.98	 -396.39	    8.58
    110.8924	   18.00	   23.26	 -406.67	    8.58
    110.9258	   16.00	   20.19	 -405.59	    8.57
    110.9592	   11.00	   17.84	 -408.24	    8.57
    110.9927	    7.00	   16.16	 -410.56	    8.57
    111.0261	   11.00	   15.00	 -405.41	    8.56
    111.0595	   15.00	   14.23	 -400.63	    8.56
    111.0929	   13.00	   13.70	 -402.10	    8.56
    111.1263	   16.00	   13.32	 -398.72	    8.56
    111.1598	   11.00	   13.04	 -403.44	    8.55
    111.1932	   12.00	   12.82	 -402.22	    8.55
    111.2266	   15.00	   12.64	 -399.04	    8.55
    111.2600	   21.00	   12.49	 -392.89	    8.54
    111.2935	   11.00	   12.36	 -402.77	    8.54
    111.3269	   12.00	   12.25	 -401.66	    8.54
    111.3603	   13.00	   12.16	 -400.56	    8.53
    111.3937	   12.00	   12.08	 -401.48	    8.53
    111.4271	   12.00	   12.00	 -401.41	    8.53
    111.4606	   12.00	   11.94	 -401.34	    8.52
    111.4940	   16.00	   11.88	 -397.29	    8.52
    111.5274	   15.00	   11.83	 -398.23	    8.52
    111.5608	   18.00	   11.78	 -395.19	    8.51
    111.5943	   11.00	   11.74	 -402.14	    8.51
    111.6277	   16.00	   11.70	 -397.11	    8.51
    111.6611	   20.00	   11.67	 -393.07	    8.50
    111.6945	   11.00	   11.64	 -402.04	    8.50
    111.7280	   10.00	   11.61	 -403.01	    8.50
    111.7614	   17.00	   11.58	 -395.98	    8.49
    111.7948	    7.00	   11.55	 -405.96	    8.49
    111.8282	   12.00	   11.53	 -400.94	    8.49
    111.8616	   17.00	   11.51	 -395.91	    8.48
    111.8951	   18.00	   11.49	 -394.89	    8.48
    111.9285	   21.00	   11.47	 -391.88	    8.48
    111.9619	   13.00	   11.45	 -399.86	    8.47
    111.9953	   15.00	   11.44	 -397.84	    8.47
    112.0288	   17.00	   11.42	 -395.83	    8.47
    112.0622	   18.00	   11.41	 -394.81	    8.46
    112.0956	   16.00	   11.40	 -396.80	    8.46
    112.1290	   11.00	   11.38	 -401.79	    8.46
    112.1624	    6.00	   11.37	 -406.78	    8.45
    112.1959	   13.00	   11.36	 -399.76	    8.45
    112.2293	   10.00	   11.35	 -402.75	    8.45
    112.2627	    8.00	   11.34	 -404.74	    8.44
    112.2961	   12.00	   11.33	 -400.73	    8.44
    112.3296	   21.00	   11.32	 -391.73	    8.44
    112.3630	   16.00	   11.31	 -396.72	    8.43
    112.3964	   11.00	   11.30	 -401.71	    8.43
    112.4298	   22.00	   11.30	 -390.70	    8.43
    112.4632	    6.00	   11.29	 -406.69	    8.43
    112.4967	   11.00	   11.28	 -401.69	    8.42
    112.5301	   12.00	   11.28	 -400.68	    8.42
    112.5635	   21.00	   11.27	 -391.67	    8.42
    112.5969	   15.00	   11.26	 -397.67	    8.41
    112.6304	   16.00	   11.26	 -396.66	    8.41
    112.6638	    8.00	   11.25	 -404.66	    8.41
    112.6972	   11.00	   11.25	 -401.65	    8.40
    112.7306	   12.00	   11.24	 -400.65	    8.40
    112.7641	    6.00	   11.24	 -406.64	    8.40
    112.7975	    5.00	   11.23	 -407.64	    8.39
    112.8309	   11.00	   11.23	 -401.63	    8.39
    112.8643	    7.00	   11.23	 -405.63	    8.39
    112.8977	   13.00	   11.22	 -399.63	    8.38
    112.9312	   13.00	   11.22	 -399.62	    8.38
    112.9646	   10.00	   11.22	 -402.62	    8.38
    112.9980	   13.00	   11.21	 -399.62	    8.37
    113.0314	   13.00	   11.21	 -399.61	    8.37
    113.0648	   13.00	   11.21	 -399.61	    8.37
    113.0983	   18.00	   11.21	 -394.61	    8.36
    113.1317	   21.00	   11.20	 -391.61	    8.36
    113.1651	   18.00	   11.20	 -394.61	    8.36
    113.1985	    8.00	   11.20	 -404.60	    8.35
    113.2320	   17.00	   11.20	 -395.60	    8.35
    113.2654	   10.00	   11.20	 -402.60	    8.35
    113.2988	   11.00	   11.20	 -401.60	    8.34
    113.3322	   18.00	   11.20	 -394.60	    8.34
    113.3657	    8.00	   11.19	 -404.60	    8.34
    113.3991	    7.00	   11.19	 -405.60	    8.33
    113.4325	   21.00	   11.19	 -391.60	    8.33
    113.4659	   13.00	   11.19	 -399.60	    8.33
    113.4993	   16.00	   11.19	 -396.60	    8.32
    113.5328	   13.00	   11.20	 -399.60	    8.32
    113.5662	   13.00	   11.20	 -399.60	    8.32
    113.5996	   15.00	   11.20	 -397.60	    8.31
    113.6330	   10.00	   11.20	 -402.60	    8.31
    113.6665	   12.00	   11.20	 -400.60	    8.31
    113.6999	    8.00	   11.20	 -404.60	    8.30
    113.7333	   10.00	   11.20	 -402.61	    8.30
    113.7667	   18.00	   11.20	 -394.61	    8.30
    113.8001	   13.00	   11.21	 -399.61	    8.30
    113.8336	   13.00	   11.21	 -399.61	    8.29
    113.8670	   12.00	   11.21	 -400.62	    8.29
    113.9004	    8.00	   11.22	 -404.62	    8.29
    113.9338	   12.00	   11.22	 -400.63	    8.28
    113.9673	   12.00	   11.23	 -400.63	    8.28
    114.0007	   18.00	   11.23	 -394.64	    8.28
    114.0341	   22.00	   11.25	 -390.66	    8.27
    114.0675	   20.00	   11.26	 -392.66	    8.27
    114.1010	   12.00	   11.26	 -400.67	    8.27
    114.1344	   17.00	   11.27	 -395.67	    8.26
    114.1678	   16.00	   11.28	 -396.68	    8.26
    114.2012	   10.00	   11.29	 -402.69	    8.26
    114.2346	   13.00	   11.29	 -399.70	    8.25
    114.2681	    7.00	   11.30	 -405.71	    8.25
    114.3015	   10.00	   11.31	 -402.72	    8.25
    114.3349	   10.00	   11.33	 -402.73	    8.24
    114.3683	    8.00	   11.34	 -404.74	    8.24
    114.4018	   12.00	   11.35	 -400.75	    8.24
    114.4352	   12.00	   11.36	 -400.77	    8.23
    114.4686	   17.00	   11.38	 -395.78	    8.23
    114.5020	   11.00	   11.40	 -401.80	    8.23
    114.5354	   17.00	   11.42	 -395.82	    8.22
    114.5689	   21.00	   11.43	 -391.84	    8.22
    114.6023	   15.00	   11.45	 -397.86	    8.22
    114.6357	   15.00	   11.47	 -397.88	    8.21
    114.6691	   17.00	   11.50	 -395.90	    8.21
    114.7026	   20.00	   11.52	 -392.92	    8.21
    114.7360	   10.00	   11.55	 -402.95	    8.20
    114.7694	   10.00	   11.57	 -402.98	    8.20
    114.8028	   18.00	   11.60	 -395.01	    8.20
    114.8363	   17.00	   11.63	 -396.04	    8.19
    114.8697	   13.00	   11.67	 -400.07	    8.19
    114.9031	   12.00	   11.70	 -401.11	    8.19
    114.9365	   15.00	   11.74	 -398.15	    8.18
    114.9699	   13.00	   11.79	 -400.19	    8.18
    115.0034	    7.00	   11.83	 -406.24	    8.18
    115.0368	    8.00	   11.88	 -405.29	    8.17
    115.0702	    8.00	   11.94	 -405.34	    8.17
    115.1036	   17.00	   12.00	 -396.40	    8.17
    115.1371	   16.00	   12.07	 -397.47	    8.16
    115.1705	   21.00	   12.14	 -392.54	    8.16
    115.2039	   12.00	   12.22	 -401.62	    8.16
    115.2373	   17.00	   12.30	 -396.71	    8.16
    115.2707	   25.00	   12.40	 -388.80	    8.15
    115.3042	   15.00	   12.50	 -398.91	    8.15
    115.3376	   17.00	   12.62	 -397.02	    8.15
    115.3710	   18.00	   12.75	 -396.15	    8.14
    115.4044	   18.00	   12.89	 -396.30	    8.14
    115.4379	   15.00	   13.05	 -399.46	    8.14
    115.4713	   13.00	   13.24	 -401.64	    8.13
    115.5047	   16.00	   13.44	 -398.85	    8.13
    115.5381	   26.00	   13.67	 -389.08	    8.13
    115.5715	   20.00	   13.94	 -395.35	    8.12
    115.6050	   11.00	   14.25	 -404.65	    8.12
    115.6384	    8.00	   14.60	 -408.00	    8.12
    115.6718	    2.00	   15.01	 -414.42	    8.11
    115.7052	   21.00	   15.49	 -395.90	    8.11
    115.7387	   11.00	   16.07	 -406.47	    8.11
    115.7721	   11.00	   16.76	 -407.17	    8.10
    115.8055	   18.00	   17.63	 -401.03	    8.10
    115.8389	   16.00	   18.74	 -404.14	    8.10
    115.8723	   15.00	   20.24	 -406.65	    8.09
    115.9058	   15.00	   22.36	 -408.76	    8.09
    115.9392	   16.00	   25.45	 -410.86	    8.09
    115.9726	   18.00	   30.00	 -413.41	    8.08
    116.0060	   25.00	   36.62	 -413.03	    8.08
    116.0395	   27.00	   45.90	 -420.30	    8.08
    116.0729	   28.00	   58.24	 -431.65	    8.07
    116.1063	   41.00	   73.61	 -434.02	    8.07
    116.1397	   51.00	   91.17	 -441.57	    8.07
    116.1731	   75.00	  108.77	 -435.18	    8.06
    116.2066	   81.00	  122.59	 -443.00	    8.06
    116.2400	   87.00	  128.01	 -442.42	    8.06
    116.2734	   86.00	  122.88	 -438.28	    8.05
    116.3068	   42.00	  109.63	 -469.03	    8.05
    116.3403	   35.00	   93.01	 -459.41	    8.05
    116.3737	   52.00	   76.92	 -426.33	    8.04
    116.4071	   32.00	   63.64	 -433.04	    8.04
    116.4405	   31.00	   54.21	 -424.61	    8.04
    116.4740	   27.00	   48.95	 -423.36	    8.03
    116.5074	   22.00	   47.72	 -427.12	    8.03
    116.5408	   25.00	   50.04	 -426.44	    8.03
    116.5742	   40.00	   55.15	 -416.56	    8.03
    116.6076	   40.00	   61.94	 -423.35	    8.02
    116.6411	   31.00	   68.69	 -439.10	    8.02
    116.6745	   51.00	   73.01	 -423.42	    8.02
    116.7079	   61.00	   72.73	 -413.14	    8.01
    116.7413	   46.00	   67.54	 -422.95	    8.01
    116.7748	   31.00	   59.21	 -429.61	    8.01
    116.8082	   30.00	   49.95	 -421.36	    8.00
    116.8416	   31.00	   41.29	 -411.69	    8.00
    116.8750	   22.00	   33.98	 -413.38	    8.00
    116.9084	   20.00	   28.24	 -409.65	    7.99
    116.9419	   18.00	   23.99	 -407.40	    7.99
    116.9753	   23.00	   20.97	 -399.37	    7.99
    117.0087	   16.00	   18.87	 -404.27	    7.98
    117.0421	   10.00	   17.41	 -408.81	    7.98
    117.0756	   21.00	   16.37	 -396.78	    7.98
    117.1090	   13.00	   15.60	 -404.01	    7.97
    117.1424	   16.00	   15.01	 -400.41	    7.97
    117.1758	   18.00	   14.53	 -397.94	    7.97
    117.2093	   12.00	   14.14	 -403.54	    7.96
    117.2427	   11.00	   13.80	 -404.21	    7.96
    117.2761	   17.00	   13.51	 -397.91	    7.96
    117.3095	   11.00	   13.26	 -403.66	    7.95
    117.3429	   16.00	   13.04	 -398.44	    7.95
    117.3764	   11.00	   12.85	 -403.25	    7.95
    117.4098	   15.00	   12.68	 -399.08	    7.94
    117.4432	   16.00	   12.52	 -397.93	    7.94
    117.4766	   17.00	   12.39	 -396.79	    7.94
    117.5100	   15.00	   12.27	 -398.67	    7.93
    117.5435	   23.00	   12.15	 -390.56	    7.93
    117.5769	   15.00	   12.05	 -398.46	    7.93
    117.6103	   15.00	   11.96	 -398.37	    7.92
    117.6437	    8.00	   11.88	 -405.29	    7.92
    117.6772	   15.00	   11.81	 -398.21	    7.92
    117.7106	   12.00	   11.74	 -401.14	    7.91
    117.7440	   10.00	   11.67	 -403.08	    7.91
    117.7774	   11.00	   11.61	 -402.02	    7.91
    117.8109	   16.00	   11.56	 -396.96	    7.90
    117.8443	   11.00	   11.51	 -401.91	    7.90
    117.8777	   21.00	   11.46	 -391.86	    7.90
    117.9111	   12.00	   11.42	 -400.82	    7.90
    117.9445	   16.00	   11.37	 -396.78	    7.89
    117.9780	   17.00	   11.34	 -395.74	    7.89
    118.0114	   20.00	   11.30	 -392.70	    7.89
    118.0448	   10.00	   11.27	 -402.67	    7.88
    118.0782	   16.00	   11.23	 -396.64	    7.88
    118.1117	   15.00	   11.20	 -397.61	    7.88
    118.1451	   13.00	   11.18	 -399.58	    7.87
    118.1785	   15.00	   11.15	 -397.56	    7.87
    118.2119	   15.00	   11.13	 -397.53	    7.87
    118.2453	   13.00	   11.10	 -399.51	    7.86
    118.2788	   13.00	   11.08	 -399.48	    7.86
    118.3122	    7.00	   11.06	 -405.46	    7.86
    118.3456	   18.00	   11.04	 -394.44	    7.85
    118.3790	   17.00	   11.02	 -395.42	    7.85
    118.4125	   10.00	   11.00	 -402.41	    7.85
    118.4459	   11.00	   10.99	 -401.39	    7.84
    118.4793	   22.00	   10.97	 -390.37	    7.84
    118.5127	   17.00	   10.95	 -395.36	    7.84
    118.5462	   16.00	   10.94	 -396.34	    7.83
    118.5796	   15.00	   10.93	 -397.33	    7.83
    118.6130	   20.00	   10.91	 -392.32	    7.83
    118.6464	   20.00	   10.90	 -392.31	    7.82
    118.6798	   20.00	   10.89	 -392.29	    7.82
    118.7133	    7.00	   10.88	 -405.28	    7.82
    118.7467	   15.00	   10.87	 -397.27	    7.81
    118.7801	   11.00	   10.86	 -401.26	    7.81
    118.8135	   13.00	   10.85	 -399.25	    7.81
    118.8470	   13.00	   10.84	 -399.24	    7.80
    118.8804	   13.00	   10.83	 -399.23	    7.80
    118.9138	   17.00	   10.82	 -395.23	    7.80
    118.9472	   25.00	   10.81	 -387.22	    7.79
    118.9806	   22.00	   10.81	 -390.21	    7.79
    119.0141	   13.00	   10.80	 -399.21	    7.79
    119.0475	   12.00	   10.79	 -400.20	    7.78
    119.0809	   13.00	   10.79	 -399.19	    7.78
    119.1143	   23.00	   10.78	 -389.19	    7.78
    119.1478	   16.00	   10.78	 -396.18	    7.77
    119.1812	    3.00	   10.77	 -409.18	    7.77
    119.2146	   18.00	   10.77	 -394.18	    7.77
    119.2480	   10.00	   10.77	 -402.17	    7.76
    119.2814	   13.00	   10.76	 -399.17	    7.76
    119.3149	   12.00	   10.76	 -400.17	    7.76
    119.3483	   10.00	   10.76	 -402.16	    7.76
    119.3817	   18.00	   10.76	 -394.16	    7.75
    119.4151	   12.00	   10.76	 -400.16	    7.75
    119.4486	    8.00	   10.76	 -404.16	    7.75
    119.4820	   11.00	   10.75	 -401.16	    7.74
    119.5154	   11.00	   10.75	 -401.16	    7.74
    119.5488	   11.00	   10.76	 -401.16	    7.74
    119.5822	   13.00	   10.76	 -399.16	    7.73
    119.6157	   13.00	   10.76	 -399.16	    7.73
    119.6491	   20.00	   10.76	 -392.16	    7.73
    119.6825	   17.00	   10.76	 -395.17	    7.72
    119.7159	   11.00	   10.77	 -401.17	    7.72
    119.7494	   10.00	   10.77	 -402.18	    7.72
    119.7828	   13.00	   10.78	 -399.18	    7.71
    119.8162	   12.00	   10.78	 -400.19	    7.71
    119.8496	    7.00	   10.79	 -405.19	    7.71
    119.8830	   21.00	   10.80	 -391.20	    7.70
    119.9165	   12.00	   10.80	 -400.21	    7.70
    119.9499	   16.00	   10.81	 -396.22	    7.70
    119.9833	   10.00	   10.82	 -402.23	    7.69
     31.6970	        	        	        	        	       0	(  1  0  0)	  0  1
     31.7773	        	        	        	        	       0	(  1  0  0)	  0  2
     34.3505	        	        	        	        	       0	(  0  0  2)	  0  1
     34.4379	        	        	        	        	       0	(  0  0  2)	  0  2
     36.1830	        	        	        	        	       0	(  1  0  1)	  0  1
     36.2753	        	        	        	        	       0	(  1  0  1)	  0  2
     47.4716	        	        	        	        	       0	(  1  0  2)	  0  1
     47.5958	        	        	        	        	       0	(  1  0  2)	  0  2
     56.5305	        	        	        	        	       0	(  1  1  0)	  0  1
     56.6824	        	        	        	        	       0	(  1  1  0)	  0  2
     62.7943	        	        	        	        	       0	(  1  0  3)	  0  1
     62.9667	        	        	        	        	       0	(  1  0  3)	  0  2
     66.3147	        	        	        	        	       0	(  2  0  0)	  0  1
     66.4993	        	        	        	        	       0	(  2  0  0)	  0  2
     67.8870	        	        	        	        	       0	(  1  1  2)	  0  1
     68.0772	        	        	        	        	       0	(  1  1  2)	  0  2
     69.0262	        	        	        	        	       0	(  2  0  1)	  0  1
     69.2205	        	        	        	        	       0	(  2  0  1)	  0  2
     72.5069	        	        	        	        	       0	(  0  0  4)	  0  1
     72.7141	        	        	        	        	       0	(  0  0  4)	  0  2
     76.9028	        	        	        	        	       0	(  2  0  2)	  0  1
     77.1271	        	        	        	        	       0	(  2  0  2)	  0  2
     81.3300	        	        	        	        	       0	(  1  0  4)	  0  1
     81.5727	        	        	        	        	       0	(  1  0  4)	  0  2
     89.5614	        	        	        	        	       0	(  2  0  3)	  0  1
     89.8419	        	        	        	        	       0	(  2  0  3)	  0  2
     92.7429	        	        	        	        	       0	(  2  1  0)	  0  1
     93.0395	        	        	        	        	       0	(  2  1  0)	  0  2
     95.2588	        	        	        	        	       0	(  2  1  1)	  0  1
     95.5687	        	        	        	        	       0	(  2  1  1)	  0  2
     98.5712	        	        	        	        	       0	(  1  1  4)	  0  1
     98.8998	        	        	        	        	       0	(  1  1  4)	  0  2
    102.8891	        	        	        	        	       0	(  2  1  2)	  0  1
    103.2440	        	        	        	        	       0	(  2  1  2)	  0  2
    104.0896	        	        	        	        	       0	(  1  0  5)	  0  1
    104.4523	        	        	        	        	       0	(  1  0  5)	  0  2
    107.3954	        	        	        	        	       0	(  2  0  4)	  0  1
    107.7806	        	        	        	        	       0	(  2  0  4)	  0  2
    110.3467	        	        	        	        	       0	(  3  0  0)	  0  1
    110.7535	        	        	        	        	       0	(  3  0  0)	  0  2
    113.0486	        	        	        	        	       0	(  3  0  1)	  0  1
    113.4767	        	        	        	        	       0	(  3  0  1)	  0  2
    116.2391	        	        	        	        	       0	(  2  1  3)	  0  1
    116.6945	        	        	        	        	       0	(  2  1  3)	  0  2
    121.5309	        	        	        	        	       0	(  3  0  2)	  0  1
    122.0373	        	        	        	        	       0	(  3  0  2)	  0  2
    125.1304	        	        	        	        	       0	(  0  0  6)	  0  1
    125.6766	        	        	        	        	       0	(  0  0  6)	  0  2
    133.8932	        	        	        	        	       0	(  2  0  5)	  0  1
