 Nd hydroxide   Chi2:  3.7099  CELL:    6.42529   6.42529   3.74145   90.0000   90.0000  120.0000   SPGR: P 63/m                 TEMP:      0.00
  1   2693     1.54060     1.54439     0.00000    -0.03630     0.00000    0
   201     0     1
       0.00000      14.00000
 2Theta	Yobs	Ycal	Yobs-Ycal	Backg	Posr	(hkl)	K
     10.0098	 276.000	 104.591	-248.750	 101.122
     10.0432	 242.000	 104.461	-248.750	 100.992
     10.0767	 270.000	 104.331	-248.750	 100.862
     10.1101	 278.000	 104.201	-248.750	 100.732
     10.1435	 251.000	 104.071	-248.750	 100.602
     10.1769	 235.000	 103.942	-248.750	 100.473
     10.2103	 232.000	 103.812	-248.750	 100.343
     10.2438	 251.000	 103.683	-248.750	 100.214
     10.2772	 237.000	 103.554	-248.750	 100.085
     10.3106	 249.000	 103.425	-248.750	  99.956
     10.3440	 251.000	 103.296	-248.750	  99.827
     10.3775	 240.000	 103.167	-248.750	  99.698
     10.4109	 236.000	 103.038	-248.750	  99.569
     10.4443	 242.000	 102.910	-248.750	  99.441
     10.4777	 230.000	 102.781	-248.750	  99.312
     10.5111	 256.000	 102.653	-248.750	  99.184
     10.5446	 225.000	 102.525	-248.750	  99.056
     10.5780	 234.000	 102.397	-248.750	  98.928
     10.6114	 222.000	 102.269	-248.750	  98.800
     10.6448	 226.000	 102.141	-248.750	  98.672
     10.6783	 233.000	 102.014	-248.750	  98.545
     10.7117	 224.000	 101.886	-248.750	  98.417
     10.7451	 224.000	 101.759	-248.750	  98.290
     10.7785	 222.000	 101.631	-248.750	  98.163
     10.8120	 234.000	 101.504	-248.750	  98.035
     10.8454	 225.000	 101.377	-248.750	  97.909
     10.8788	 259.000	 101.250	-248.750	  97.782
     10.9122	 252.000	 101.124	-248.750	  97.655
     10.9456	 244.000	 100.997	-248.750	  97.528
     10.9791	 213.000	 100.871	-248.750	  97.402
     11.0125	 211.000	 100.744	-248.750	  97.276
     11.0459	 246.000	 100.618	-248.750	  97.149
     11.0793	 226.000	 100.492	-248.750	  97.023
     11.1128	 248.000	 100.366	-248.750	  96.897
     11.1462	 210.000	 100.240	-248.750	  96.771
     11.1796	 229.000	 100.115	-248.750	  96.646
     11.2130	 226.000	  99.989	-248.750	  96.520
     11.2464	 203.000	  99.864	-248.750	  96.395
     11.2799	 246.000	  99.738	-248.750	  96.269
     11.3133	 215.000	  99.613	-248.750	  96.144
     11.3467	 233.000	  99.488	-248.750	  96.019
     11.3801	 226.000	  99.363	-248.750	  95.894
     11.4136	 221.000	  99.238	-248.750	  95.770
     11.4470	 223.000	  99.114	-248.750	  95.645
     11.4804	 205.000	  98.989	-248.750	  95.520
     11.5138	 194.000	  98.865	-248.750	  95.396
     11.5472	 205.000	  98.740	-248.750	  95.272
     11.5807	 212.000	  98.616	-248.750	  95.147
     11.6141	 223.000	  98.492	-248.750	  95.023
     11.6475	 225.000	  98.368	-248.750	  94.900
     11.6809	 238.000	  98.245	-248.750	  94.776
     11.7144	 211.000	  98.121	-248.750	  94.652
     11.7478	 217.000	  97.997	-248.750	  94.529
     11.7812	 248.000	  97.874	-248.750	  94.405
     11.8146	 177.000	  97.751	-248.750	  94.282
     11.8481	 210.000	  97.628	-248.750	  94.159
     11.8815	 202.000	  97.505	-248.750	  94.036
     11.9149	 211.000	  97.382	-248.750	  93.913
     11.9483	 197.000	  97.259	-248.750	  93.790
     11.9817	 217.000	  97.136	-248.750	  93.668
     12.0152	 204.000	  97.014	-248.750	  93.545
     12.0486	 216.000	  96.892	-248.750	  93.423
     12.0820	 209.000	  96.769	-248.750	  93.301
     12.1154	 215.000	  96.647	-248.750	  93.178
     12.1489	 207.000	  96.525	-248.750	  93.056
     12.1823	 194.000	  96.403	-248.750	  92.935
     12.2157	 161.000	  96.282	-248.750	  92.813
     12.2491	 231.000	  96.160	-248.750	  92.691
     12.2825	 202.000	  96.038	-248.750	  92.570
     12.3160	 217.000	  95.917	-248.750	  92.448
     12.3494	 188.000	  95.796	-248.750	  92.327
     12.3828	 195.000	  95.675	-248.750	  92.206
     12.4162	 196.000	  95.554	-248.750	  92.085
     12.4497	 183.000	  95.433	-248.750	  91.964
     12.4831	 173.000	  95.312	-248.750	  91.844
     12.5165	 182.000	  95.192	-248.750	  91.723
     12.5499	 216.000	  95.071	-248.750	  91.602
     12.5833	 176.000	  94.951	-248.750	  91.482
     12.6168	 232.000	  94.831	-248.750	  91.362
     12.6502	 197.000	  94.711	-248.750	  91.242
     12.6836	 183.000	  94.591	-248.750	  91.122
     12.7170	 195.000	  94.471	-248.750	  91.002
     12.7505	 163.000	  94.351	-248.750	  90.882
     12.7839	 208.000	  94.231	-248.750	  90.763
     12.8173	 168.000	  94.112	-248.750	  90.643
     12.8507	 167.000	  93.993	-248.750	  90.524
     12.8841	 158.000	  93.873	-248.750	  90.405
     12.9176	 185.000	  93.754	-248.750	  90.286
     12.9510	 204.000	  93.635	-248.750	  90.167
     12.9844	 190.000	  93.517	-248.750	  90.048
     13.0178	 206.000	  93.398	-248.750	  89.929
     13.0513	 199.000	  93.279	-248.750	  89.810
     13.0847	 162.000	  93.161	-248.750	  89.692
     13.1181	 203.000	  93.042	-248.750	  89.574
     13.1515	 172.000	  92.924	-248.750	  89.456
     13.1850	 181.000	  92.806	-248.750	  89.337
     13.2184	 170.000	  92.688	-248.750	  89.219
     13.2518	 184.000	  92.570	-248.750	  89.102
     13.2852	 186.000	  92.453	-248.750	  88.984
     13.3186	 185.000	  92.335	-248.750	  88.866
     13.3521	 180.000	  92.218	-248.750	  88.749
     13.3855	 185.000	  92.100	-248.750	  88.632
     13.4189	 172.000	  91.983	-248.750	  88.514
     13.4523	 178.000	  91.866	-248.750	  88.397
     13.4858	 175.000	  91.749	-248.750	  88.280
     13.5192	 184.000	  91.632	-248.750	  88.163
     13.5526	 161.000	  91.515	-248.750	  88.047
     13.5860	 172.000	  91.399	-248.750	  87.930
     13.6194	 175.000	  91.282	-248.750	  87.814
     13.6529	 167.000	  91.166	-248.750	  87.697
     13.6863	 193.000	  91.050	-248.750	  87.581
     13.7197	 171.000	  90.934	-248.750	  87.465
     13.7531	 146.000	  90.818	-248.750	  87.349
     13.7866	 178.000	  90.702	-248.750	  87.233
     13.8200	 161.000	  90.586	-248.750	  87.117
     13.8534	 175.000	  90.471	-248.750	  87.002
     13.8868	 179.000	  90.355	-248.750	  86.886
     13.9202	 175.000	  90.240	-248.750	  86.771
     13.9537	 138.000	  90.125	-248.750	  86.656
     13.9871	 176.000	  90.009	-248.750	  86.541
     14.0205	 164.000	 102.150	-186.900	  86.426
     14.0539	 169.000	 102.474	-182.224	  86.311
     14.0874	 144.000	 102.822	-207.572	  86.196
     14.1208	 167.000	 103.195	-184.945	  86.081
     14.1542	 146.000	 103.596	-206.346	  85.967
     14.1876	 159.000	 104.158	-193.908	  85.853
     14.2211	 182.000	 104.621	-171.371	  85.738
     14.2545	 153.000	 105.184	-200.934	  85.624
     14.2879	 151.000	 105.719	-203.469	  85.510
     14.3213	 133.000	 106.294	-222.044	  85.396
     14.3547	 152.000	 106.913	-203.663	  85.283
     14.3882	 180.000	 107.578	-176.328	  85.169
     14.4216	 176.000	 108.295	-181.045	  85.055
     14.4550	 193.000	 109.068	-164.818	  84.942
     14.4884	 151.000	 109.901	-207.651	  84.829
     14.5219	 169.000	 110.800	-190.550	  84.716
     14.5553	 162.000	 111.772	-198.522	  84.603
     14.5887	 161.000	 112.822	-200.572	  84.490
     14.6221	 154.000	 113.960	-208.710	  84.377
     14.6555	 167.000	 115.194	-196.944	  84.264
     14.6890	 188.000	 116.533	-177.283	  84.152
     14.7224	 171.000	 117.989	-195.739	  84.039
     14.7558	 157.000	 119.574	-211.324	  83.927
     14.7892	 158.000	 121.302	-212.052	  83.815
     14.8227	 162.000	 123.190	-209.940	  83.703
     14.8561	 164.000	 125.256	-210.006	  83.591
     14.8895	 159.000	 127.521	-217.271	  83.479
     14.9229	 186.000	 130.009	-192.759	  83.367
     14.9563	 171.000	 132.749	-210.499	  83.256
     14.9898	 173.000	 135.773	-211.523	  83.144
     15.0232	 185.000	 139.119	-202.869	  83.033
     15.0566	 164.000	 142.830	-227.580	  82.922
     15.0900	 155.000	 146.958	-240.708	  82.811
     15.1235	 165.000	 151.563	-235.313	  82.700
     15.1569	 176.000	 156.929	-229.679	  82.589
     15.1903	 165.000	 162.713	-246.463	  82.478
     15.2237	 196.000	 169.331	-222.081	  82.368
     15.2571	 170.000	 176.686	-255.436	  82.257
     15.2906	 191.000	 185.019	-242.769	  82.147
     15.3240	 193.000	 194.485	-250.235	  82.037
     15.3574	 196.000	 205.270	-258.020	  81.927
     15.3908	 212.000	 217.583	-254.333	  81.817
     15.4243	 203.000	 231.669	-277.419	  81.707
     15.4577	 220.000	 247.797	-276.547	  81.597
     15.4911	 230.000	 266.266	-285.016	  81.487
     15.5245	 240.000	 287.385	-296.135	  81.378
     15.5580	 264.000	 311.451	-296.201	  81.268
     15.5914	 243.000	 338.702	-344.452	  81.159
     15.6248	 275.000	 369.246	-342.996	  81.050
     15.6582	 316.000	 402.938	-335.688	  80.941
     15.6916	 333.000	 439.229	-354.979	  80.832
     15.7251	 329.000	 476.971	-396.721	  80.723
     15.7585	 396.000	 514.264	-367.014	  80.615
     15.7919	 413.000	 548.412	-384.162	  80.506
     15.8253	 486.000	 576.162	-338.912	  80.398
     15.8588	 607.000	 594.266	-236.016	  80.289
     15.8922	 639.000	 600.299	-210.049	  80.181
     15.9256	 606.000	 593.391	-236.141	  80.073
     15.9590	 528.000	 574.519	-295.269	  79.965
     15.9924	 460.000	 546.179	-334.929	  79.857
     16.0259	 390.000	 511.625	-370.375	  79.750
     16.0593	 336.000	 474.083	-386.833	  79.642
     16.0927	 331.000	 436.196	-353.946	  79.534
     16.1261	 311.000	 399.821	-337.571	  79.427
     16.1596	 249.000	 366.078	-365.828	  79.320
     16.1930	 244.000	 335.486	-340.236	  79.213
     16.2264	 242.000	 308.183	-314.933	  79.106
     16.2598	 209.000	 284.051	-323.801	  78.999
     16.2932	 224.000	 262.854	-287.604	  78.892
     16.3267	 218.000	 244.288	-275.038	  78.785
     16.3601	 182.000	 228.050	-294.800	  78.679
     16.3935	 180.000	 213.841	-282.591	  78.573
     16.4269	 171.000	 201.391	-279.141	  78.466
     16.4604	 171.000	 190.462	-268.212	  78.360
     16.4938	 171.000	 180.841	-258.591	  78.254
     16.5272	 165.000	 172.346	-256.096	  78.148
     16.5606	 154.000	 164.822	-259.572	  78.042
     16.5941	 169.000	 158.134	-237.884	  77.937
     16.6275	 144.000	 152.171	-256.921	  77.831
     16.6609	 149.000	 146.833	-246.583	  77.726
     16.6943	 151.000	 142.040	-239.790	  77.620
     16.7277	 138.000	 137.721	-248.471	  77.515
     16.7612	 143.000	 133.816	-239.566	  77.410
     16.7946	 143.000	 130.275	-236.025	  77.305
     16.8280	 136.000	 127.053	-239.803	  77.200
     16.8614	 151.000	 124.114	-221.864	  77.095
     16.8949	 132.000	 121.426	-238.176	  76.991
     16.9283	 127.000	 118.959	-240.709	  76.886
     16.9617	 114.000	 116.691	-251.441	  76.782
     16.9951	 109.000	 114.600	-254.350	  76.677
     17.0285	 131.000	 112.667	-230.417	  76.573
     17.0620	 119.000	 110.878	-240.628	  76.469
     17.0954	 127.000	 109.217	-230.967	  76.365
     17.1288	 148.000	 107.672	-208.422	  76.261
     17.1622	 119.000	 106.232	-235.982	  76.158
     17.1957	 133.000	 104.887	-220.637	  76.054
     17.2291	 129.000	 103.630	-223.380	  75.951
     17.2625	 129.000	 102.451	-222.201	  75.847
     17.2959	 115.000	 101.344	-235.094	  75.744
     17.3293	 115.000	 100.303	-234.053	  75.641
     17.3628	 111.000	  99.323	-237.073	  75.538
     17.3962	 124.000	  98.398	-223.148	  75.435
     17.4296	  97.000	  97.524	-249.274	  75.332
     17.4630	 124.000	  96.697	-221.447	  75.230
     17.4965	 130.000	  95.913	-214.663	  75.127
     17.5299	  99.000	  95.170	-244.920	  75.025
     17.5633	 110.000	  94.463	-233.213	  74.922
     17.5967	 121.000	  93.791	-221.541	  74.820
     17.6301	 114.000	  93.150	-227.900	  74.718
     17.6636	 108.000	  92.539	-233.289	  74.616
     17.6970	  99.000	  91.955	-241.705	  74.514
     17.7304	  99.000	  91.398	-241.148	  74.413
     17.7638	  91.000	  90.863	-248.613	  74.311
     17.7973	 111.000	  90.352	-228.102	  74.210
     17.8307	 102.000	  89.861	-236.611	  74.108
     17.8641	 114.000	  89.389	-224.139	  74.007
     17.8975	 101.000	  88.936	-236.686	  73.906
     17.9310	 100.000	  88.500	-237.250	  73.805
     17.9644	  98.000	  88.080	-238.830	  73.704
     17.9978	 103.000	  87.676	-233.426	  73.603
     18.0312	 114.000	  87.285	-222.035	  73.502
     18.0646	  94.000	  86.908	-241.658	  73.402
     18.0981	  92.000	  86.543	-243.293	  73.301
     18.1315	 100.000	  86.191	-234.941	  73.201
     18.1649	  90.000	  85.849	-244.599	  73.101
     18.1983	 110.000	  85.518	-224.268	  73.001
     18.2318	 104.000	  85.198	-229.948	  72.901
     18.2652	  86.000	  84.886	-247.636	  72.801
     18.2986	  86.000	  84.584	-247.334	  72.701
     18.3320	 112.000	  84.290	-221.040	  72.602
     18.3654	  81.000	  84.005	-251.755	  72.502
     18.3989	 104.000	  83.727	-228.477	  72.403
     18.4323	 101.000	  83.456	-231.206	  72.303
     18.4657	  96.000	  83.236	-235.986	  72.204
     18.4991	  96.000	  82.979	-235.729	  72.105
     18.5326	 112.000	  82.750	-219.500	  72.006
     18.5660	  79.000	  82.505	-252.255	  71.907
     18.5994	 102.000	  82.267	-229.017	  71.808
     18.6328	  83.000	  82.033	-247.783	  71.710
     18.6662	  79.000	  81.805	-251.555	  71.611
     18.6997	  95.000	  81.582	-235.332	  71.513
     18.7331	  96.000	  81.364	-234.114	  71.415
     18.7665	  82.000	  81.150	-247.900	  71.316
     18.7999	 112.000	  80.941	-217.691	  71.218
     18.8334	 101.000	  80.735	-228.485	  71.121
     18.8668	 102.000	  80.534	-227.284	  71.023
     18.9002	  86.000	  80.337	-243.087	  70.925
     18.9336	  97.000	  80.143	-231.893	  70.827
     18.9671	 105.000	  79.953	-223.703	  70.730
     19.0005	  82.000	  79.766	-246.516	  70.633
     19.0339	  85.000	  79.582	-243.332	  70.535
     19.0673	  81.000	  79.402	-247.152	  70.438
     19.1007	  94.000	  79.225	-233.975	  70.341
     19.1342	  89.000	  79.050	-238.800	  70.244
     19.1676	  97.000	  78.878	-230.628	  70.147
     19.2010	  91.000	  78.709	-236.460	  70.051
     19.2344	  90.000	  78.543	-237.293	  69.954
     19.2679	  77.000	  78.379	-250.129	  69.858
     19.3013	  96.000	  78.218	-230.968	  69.761
     19.3347	  89.000	  78.059	-237.809	  69.665
     19.3681	  71.000	  77.902	-255.652	  69.569
     19.4015	  77.000	  77.747	-249.497	  69.473
     19.4350	  76.000	  77.595	-250.345	  69.377
     19.4684	  77.000	  77.444	-249.194	  69.281
     19.5018	  90.000	  77.296	-236.046	  69.186
     19.5352	 102.000	  77.149	-223.899	  69.090
     19.5687	  75.000	  77.004	-250.754	  68.995
     19.6021	  88.000	  76.861	-237.611	  68.899
     19.6355	  86.000	  76.720	-239.470	  68.804
     19.6689	  98.000	  76.581	-227.331	  68.709
     19.7023	  97.000	  76.443	-228.193	  68.614
     19.7358	  86.000	  76.307	-239.057	  68.519
     19.7692	  87.000	  76.172	-237.922	  68.424
     19.8026	  78.000	  76.039	-246.789	  68.330
     19.8360	  82.000	  75.907	-242.657	  68.235
     19.8695	  77.000	  75.777	-247.527	  68.141
     19.9029	  85.000	  75.648	-239.398	  68.046
     19.9363	  82.000	  75.520	-242.270	  67.952
     19.9697	  88.000	  75.394	-236.144	  67.858
     20.0032	  86.000	  75.269	-238.019	  67.764
     20.0366	  96.000	  75.146	-227.896	  67.670
     20.0700	  79.000	  75.023	-244.773	  67.576
     20.1034	  64.000	  74.902	-259.652	  67.483
     20.1368	  84.000	  74.782	-239.532	  67.389
     20.1703	  89.000	  74.663	-234.413	  67.296
     20.2037	  77.000	  74.546	-246.296	  67.202
     20.2371	  81.000	  74.429	-242.179	  67.109
     20.2705	  75.000	  74.313	-248.063	  67.016
     20.3040	  69.000	  74.199	-253.949	  66.923
     20.3374	  91.000	  74.085	-231.835	  66.830
     20.3708	 102.000	  73.973	-220.723	  66.737
     20.4042	  89.000	  73.862	-233.612	  66.645
     20.4376	  66.000	  73.751	-256.501	  66.552
     20.4711	  82.000	  73.642	-240.392	  66.460
     20.5045	  69.000	  73.533	-253.283	  66.367
     20.5379	  82.000	  73.425	-240.175	  66.275
     20.5713	  79.000	  73.319	-243.069	  66.183
     20.6048	  75.000	  73.213	-246.963	  66.091
     20.6382	  57.000	  73.108	-264.858	  65.999
     20.6716	  68.000	  73.004	-253.754	  65.907
     20.7050	  89.000	  72.901	-232.651	  65.816
     20.7384	  85.000	  72.798	-236.548	  65.724
     20.7719	  70.000	  72.697	-251.447	  65.633
     20.8053	  72.000	  72.596	-249.346	  65.541
     20.8387	  75.000	  72.496	-246.246	  65.450
     20.8721	  71.000	  72.397	-250.147	  65.359
     20.9056	  74.000	  72.299	-247.049	  65.268
     20.9390	  89.000	  72.202	-231.952	  65.177
     20.9724	  59.000	  72.105	-261.855	  65.086
     21.0058	  55.000	  72.009	-265.759	  64.995
     21.0392	  76.000	  71.914	-244.664	  64.905
     21.0727	  81.000	  71.819	-239.569	  64.814
     21.1061	  73.000	  71.726	-247.476	  64.724
     21.1395	  86.000	  71.633	-234.383	  64.634
     21.1729	  71.000	  71.541	-249.291	  64.544
     21.2064	  64.000	  71.449	-256.199	  64.454
     21.2398	  61.000	  71.359	-259.109	  64.364
     21.2732	  79.000	  71.269	-241.019	  64.274
     21.3066	  59.000	  71.180	-260.930	  64.184
     21.3401	  70.000	  71.091	-249.841	  64.095
     21.3735	  81.000	  71.003	-238.753	  64.005
     21.4069	  76.000	  70.916	-243.666	  63.916
     21.4403	  78.000	  70.830	-241.580	  63.826
     21.4737	  72.000	  70.744	-247.494	  63.737
     21.5072	  63.000	  70.660	-256.410	  63.648
     21.5406	  66.000	  70.575	-253.325	  63.559
     21.5740	  73.000	  70.492	-246.242	  63.470
     21.6074	  71.000	  70.409	-248.159	  63.382
     21.6409	  77.000	  70.327	-242.077	  63.293
     21.6743	  71.000	  70.246	-247.996	  63.205
     21.7077	  81.000	  70.165	-237.915	  63.116
     21.7411	  68.000	  70.085	-250.835	  63.028
     21.7745	  79.000	  70.006	-239.756	  62.940
     21.8080	  65.000	  69.927	-253.677	  62.852
     21.8414	  71.000	  69.850	-247.600	  62.764
     21.8748	  59.000	  69.773	-259.523	  62.676
     21.9082	  60.000	  69.696	-258.446	  62.588
     21.9417	  66.000	  69.621	-252.371	  62.500
     21.9751	  72.000	  69.546	-246.296	  62.413
     22.0085	  60.000	  69.472	-258.222	  62.325
     22.0419	  66.000	  69.398	-252.148	  62.238
     22.0753	  57.000	  69.326	-261.076	  62.151
     22.1088	  63.000	  69.254	-255.004	  62.064
     22.1422	  75.000	  69.183	-242.933	  61.977
     22.1756	  74.000	  69.112	-243.862	  61.890
     22.2090	  72.000	  69.042	-245.792	  61.803
     22.2425	  78.000	  68.974	-239.724	  61.716
     22.2759	  87.000	  68.906	-230.656	  61.630
     22.3093	  66.000	  68.838	-251.588	  61.543
     22.3427	  56.000	  68.772	-261.522	  61.457
     22.3762	  64.000	  68.706	-253.456	  61.371
     22.4096	  75.000	  68.641	-242.391	  61.284
     22.4430	  84.000	  68.577	-233.327	  61.198
     22.4764	  65.000	  68.514	-252.264	  61.112
     22.5098	  65.000	  68.451	-252.201	  61.027
     22.5433	  76.000	  68.390	-241.140	  60.941
     22.5767	  64.000	  68.329	-253.079	  60.855
     22.6101	  66.000	  68.269	-251.019	  60.770
     22.6435	  73.000	  68.210	-243.960	  60.684
     22.6770	  77.000	  68.152	-239.902	  60.599
     22.7104	  63.000	  68.095	-253.845	  60.514
     22.7438	  57.000	  68.039	-259.789	  60.429
     22.7772	  71.000	  67.984	-245.734	  60.344
     22.8106	  76.000	  67.929	-240.679	  60.259
     22.8441	  65.000	  67.876	-251.626	  60.174
     22.8775	  55.000	  67.824	-261.574	  60.089
     22.9109	  52.000	  67.772	-264.522	  60.005
     22.9443	  86.000	  67.722	-230.472	  59.920
     22.9778	  64.000	  67.684	-252.434	  59.836
     23.0112	  73.000	  67.636	-243.386	  59.752
     23.0446	  72.000	  67.589	-244.339	  59.668
     23.0780	  57.000	  67.548	-259.298	  59.584
     23.1114	  63.000	  67.503	-253.253	  59.500
     23.1449	  62.000	  67.460	-254.210	  59.416
     23.1783	  68.000	  67.417	-248.167	  59.332
     23.2117	  84.000	  67.376	-232.126	  59.249
     23.2451	  74.000	  67.335	-242.085	  59.165
     23.2786	  61.000	  67.297	-255.047	  59.082
     23.3120	  75.000	  67.259	-241.009	  58.998
     23.3454	  71.000	  67.222	-244.972	  58.915
     23.3788	  60.000	  67.187	-255.937	  58.832
     23.4122	  52.000	  67.154	-263.904	  58.749
     23.4457	  70.000	  67.121	-245.871	  58.666
     23.4791	  70.000	  67.090	-245.840	  58.583
     23.5125	  89.000	  67.061	-226.811	  58.501
     23.5459	  74.000	  67.033	-241.783	  58.418
     23.5794	  64.000	  67.006	-251.756	  58.336
     23.6128	  77.000	  66.981	-238.731	  58.253
     23.6462	  69.000	  66.958	-246.708	  58.171
     23.6796	  69.000	  66.936	-246.686	  58.089
     23.7131	  56.000	  66.916	-259.666	  58.007
     23.7465	  73.000	  66.898	-242.648	  57.925
     23.7799	  79.000	  66.881	-236.631	  57.843
     23.8133	  65.000	  66.866	-250.616	  57.761
     23.8467	  63.000	  66.853	-252.603	  57.680
     23.8802	  58.000	  66.842	-257.592	  57.598
     23.9136	  60.000	  66.833	-255.583	  57.517
     23.9470	  81.000	  66.826	-234.576	  57.435
     23.9804	  68.000	  66.822	-247.572	  57.354
     24.0139	  72.000	  66.819	-243.569	  57.273
     24.0473	  82.000	  66.818	-233.568	  57.192
     24.0807	  62.000	  66.820	-253.570	  57.111
     24.1141	  61.000	  66.824	-254.574	  57.030
     24.1475	  60.000	  66.831	-255.581	  56.950
     24.1810	  75.000	  66.840	-240.590	  56.869
     24.2144	  74.000	  66.851	-241.601	  56.789
     24.2478	  75.000	  66.865	-240.615	  56.708
     24.2812	  63.000	  66.882	-252.632	  56.628
     24.3147	  77.000	  66.902	-238.652	  56.548
     24.3481	  69.000	  66.925	-246.675	  56.468
     24.3815	  66.000	  66.951	-249.701	  56.388
     24.4149	  58.000	  66.979	-257.729	  56.308
     24.4483	  59.000	  67.012	-256.762	  56.228
     24.4818	  61.000	  67.047	-254.797	  56.148
     24.5152	  72.000	  67.086	-243.836	  56.069
     24.5486	  63.000	  67.129	-252.879	  55.989
     24.5820	  69.000	  67.175	-246.925	  55.910
     24.6155	  61.000	  67.225	-254.975	  55.831
     24.6489	  58.000	  67.279	-258.029	  55.752
     24.6823	  52.000	  67.337	-264.087	  55.672
     24.7157	  57.000	  67.400	-259.150	  55.593
     24.7491	  55.000	  67.467	-261.217	  55.515
     24.7826	  59.000	  67.539	-257.289	  55.436
     24.8160	  57.000	  67.615	-259.365	  55.357
     24.8494	  60.000	  67.697	-256.447	  55.279
     24.8828	  63.000	  67.784	-253.534	  55.200
     24.9163	  68.000	  67.876	-248.626	  55.122
     24.9497	  65.000	  67.974	-251.724	  55.044
     24.9831	  69.000	  68.078	-247.828	  54.965
     25.0165	  69.000	  68.189	-247.939	  54.887
     25.0500	  64.000	  68.305	-253.055	  54.809
     25.0834	  61.000	  68.429	-256.179	  54.732
     25.1168	  66.000	  68.559	-251.309	  54.654
     25.1502	  61.000	  68.697	-256.447	  54.576
     25.1836	  71.000	  68.843	-246.593	  54.499
     25.2171	  70.000	  68.996	-247.746	  54.421
     25.2505	  70.000	  69.158	-247.908	  54.344
     25.2839	  71.000	  69.329	-247.079	  54.267
     25.3173	  58.000	  69.509	-260.259	  54.190
     25.3508	  51.000	  69.699	-267.449	  54.113
     25.3842	  66.000	  69.900	-252.650	  54.036
     25.4176	  42.000	  70.111	-276.861	  53.959
     25.4510	  61.000	  70.333	-258.083	  53.882
     25.4844	  65.000	  70.567	-254.317	  53.805
     25.5179	  63.000	  70.814	-256.564	  53.729
     25.5513	  59.000	  71.074	-260.824	  53.652
     25.5847	  73.000	  71.348	-247.098	  53.576
     25.6181	  60.000	  71.636	-260.386	  53.500
     25.6516	  74.000	  71.941	-246.691	  53.424
     25.6850	  72.000	  72.261	-249.011	  53.348
     25.7184	  75.000	  72.599	-246.349	  53.272
     25.7518	  59.000	  72.956	-262.706	  53.196
     25.7852	  49.000	  73.332	-273.082	  53.120
     25.8187	  68.000	  73.729	-254.479	  53.045
     25.8521	  63.000	  74.148	-259.898	  52.969
     25.8855	  83.000	  74.590	-240.340	  52.894
     25.9189	  60.000	  75.058	-263.808	  52.818
     25.9524	  56.000	  75.552	-268.302	  52.743
     25.9858	  77.000	  76.074	-247.824	  52.668
     26.0192	  57.000	  76.627	-268.377	  52.593
     26.0526	  63.000	  77.213	-262.963	  52.518
     26.0861	  75.000	  77.833	-251.583	  52.443
     26.1195	  68.000	  78.491	-259.241	  52.368
     26.1529	  82.000	  79.189	-245.939	  52.294
     26.1863	  60.000	  79.930	-268.680	  52.219
     26.2197	  75.000	  80.718	-254.468	  52.145
     26.2532	  74.000	  81.556	-256.306	  52.071
     26.2866	  84.000	  82.449	-247.199	  51.996
     26.3200	  75.000	  83.400	-257.150	  51.922
     26.3534	  73.000	  84.552	-260.302	  51.848
     26.3869	  79.000	  85.637	-255.387	  51.774
     26.4203	  73.000	  86.797	-262.547	  51.700
     26.4537	  73.000	  88.108	-263.858	  51.627
     26.4871	  78.000	  89.440	-260.190	  51.553
     26.5205	  79.000	  90.870	-260.620	  51.479
     26.5540	  74.000	  92.408	-267.158	  51.406
     26.5874	  92.000	  94.065	-250.815	  51.333
     26.6208	  82.000	  95.852	-262.602	  51.259
     26.6542	  68.000	  97.784	-278.534	  51.186
     26.6877	  87.000	  99.875	-261.625	  51.113
     26.7211	  70.000	 102.144	-280.894	  51.040
     26.7545	  98.000	 104.610	-255.360	  50.967
     26.7879	  98.000	 107.298	-258.048	  50.895
     26.8213	 101.000	 110.233	-257.983	  50.822
     26.8548	 101.000	 113.448	-261.198	  50.749
     26.8882	  97.000	 116.976	-268.726	  50.677
     26.9216	  98.000	 120.860	-271.610	  50.604
     26.9550	 112.000	 125.149	-261.899	  50.532
     26.9885	 103.000	 129.897	-275.647	  50.460
     27.0219	 121.000	 135.172	-262.922	  50.388
     27.0553	 111.000	 141.051	-278.801	  50.316
     27.0887	 104.000	 147.623	-292.373	  50.244
     27.1222	 137.000	 154.992	-266.742	  50.172
     27.1556	 135.000	 163.280	-277.030	  50.101
     27.1890	 133.000	 172.631	-288.380	  50.029
     27.2224	 163.000	 183.204	-268.954	  49.958
     27.2558	 164.000	 195.183	-279.933	  49.886
     27.2893	 183.000	 208.775	-274.525	  49.815
     27.3227	 170.000	 224.203	-302.953	  49.744
     27.3561	 219.000	 241.699	-271.449	  49.672
     27.3895	 240.000	 261.483	-270.233	  49.601
     27.4230	 253.000	 283.734	-279.484	  49.531
     27.4564	 263.000	 308.538	-294.288	  49.460
     27.4898	 304.000	 335.805	-280.555	  49.389
     27.5232	 328.000	 365.159	-285.909	  49.318
     27.5566	 368.000	 395.821	-276.571	  49.248
     27.5901	 472.000	 426.504	-203.254	  49.177
     27.6235	 515.000	 455.378	-189.128	  49.107
     27.6569	 566.000	 480.222	-162.972	  49.037
     27.6903	 664.000	 498.767	 -83.517	  48.967
     27.7238	 673.000	 509.208	 -84.958	  48.897
     27.7572	 664.000	 510.680	 -95.430	  48.827
     27.7906	 652.000	 503.509	-100.259	  48.757
     27.8240	 554.000	 489.115	-183.865	  48.687
     27.8574	 452.000	 469.622	-266.372	  48.617
     27.8909	 450.000	 447.365	-246.115	  48.548
     27.9243	 383.000	 424.475	-290.225	  48.478
     27.9577	 386.000	 402.641	-265.391	  48.409
     27.9911	 342.000	 383.040	-289.790	  48.340
     28.0246	 331.000	 366.397	-284.147	  48.271
     28.0580	 312.000	 353.112	-289.862	  48.201
     28.0914	 270.000	 343.371	-322.121	  48.132
     28.1248	 311.000	 337.238	-274.988	  48.064
     28.1582	 275.000	 334.731	-308.481	  47.995
     28.1917	 272.000	 335.872	-312.622	  47.926
     28.2251	 291.000	 340.718	-298.468	  47.857
     28.2585	 294.000	 349.365	-304.115	  47.789
     28.2919	 291.000	 361.958	-319.708	  47.720
     28.3254	 297.000	 378.686	-330.436	  47.652
     28.3588	 355.000	 399.758	-293.508	  47.584
     28.3922	 357.000	 425.356	-317.106	  47.516
     28.4256	 358.000	 455.561	-346.311	  47.448
     28.4591	 392.000	 490.252	-347.002	  47.380
     28.4925	 426.000	 528.950	-351.700	  47.312
     28.5259	 486.000	 570.611	-333.361	  47.244
     28.5593	 551.000	 613.444	-311.194	  47.176
     28.5927	 640.000	 654.794	-263.544	  47.109
     28.6262	 771.000	 691.251	-169.001	  47.041
     28.6596	 833.000	 719.050	-134.800	  46.974
     28.6930	 908.000	 734.791	 -75.541	  46.907
     28.7264	 995.000	 736.256	   9.994	  46.840
     28.7599	 958.000	 723.014	 -13.764	  46.772
     28.7933	 922.000	 696.497	 -23.247	  46.705
     28.8267	 746.000	 659.603	-162.353	  46.639
     28.8601	 715.000	 615.853	-149.603	  46.572
     28.8935	 623.000	 568.788	-194.538	  46.505
     28.9270	 497.000	 521.353	-273.103	  46.438
     28.9604	 425.000	 475.652	-299.402	  46.372
     28.9938	 363.000	 433.031	-318.781	  46.305
     29.0272	 302.000	 394.161	-340.911	  46.239
     29.0607	 298.000	 359.249	-309.999	  46.173
     29.0941	 271.000	 328.206	-305.956	  46.107
     29.1275	 253.000	 300.778	-296.528	  46.041
     29.1609	 210.000	 276.627	-315.377	  45.975
     29.1943	 196.000	 255.142	-307.892	  45.909
     29.2278	 180.000	 236.470	-305.220	  45.843
     29.2612	 178.000	 220.036	-290.786	  45.777
     29.2946	 159.000	 205.546	-295.296	  45.712
     29.3280	 167.000	 192.739	-274.489	  45.646
     29.3615	 118.000	 181.390	-312.140	  45.581
     29.3949	 119.000	 171.302	-301.052	  45.515
     29.4283	 127.000	 162.309	-284.059	  45.450
     29.4617	 116.000	 154.265	-287.015	  45.385
     29.4951	 124.000	 147.046	-271.796	  45.320
     29.5286	 102.000	 140.549	-287.299	  45.255
     29.5620	 106.000	 134.682	-277.432	  45.190
     29.5954	 106.000	 129.370	-272.120	  45.125
     29.6288	  89.000	 124.545	-284.295	  45.061
     29.6623	  87.000	 120.151	-281.901	  44.996
     29.6957	  98.000	 116.140	-266.890	  44.931
     29.7291	  95.000	 112.469	-266.219	  44.867
     29.7625	  86.000	 109.101	-271.851	  44.803
     29.7960	  94.000	 106.005	-260.755	  44.739
     29.8294	  62.000	 103.153	-289.903	  44.674
     29.8628	  94.000	 100.521	-255.271	  44.610
     29.8962	  64.000	  98.088	-282.838	  44.546
     29.9296	  79.000	  95.834	-265.584	  44.483
     29.9631	  65.000	  93.745	-277.495	  44.419
     29.9965	  64.000	  91.804	-276.554	  44.355
     30.0299	  81.000	  90.000	-257.750	  44.292
     30.0633	  72.000	  88.320	-265.070	  44.228
     30.0968	  60.000	  86.755	-275.505	  44.165
     30.1302	  61.000	  85.295	-273.045	  44.101
     30.1636	  70.000	  83.933	-262.683	  44.038
     30.1970	  63.000	  82.661	-268.411	  43.975
     30.2304	  70.000	  81.472	-260.222	  43.912
     30.2639	  69.000	  80.362	-260.112	  43.849
     30.2973	  83.000	  79.325	-245.075	  43.786
     30.3307	  46.000	  78.355	-281.105	  43.723
     30.3641	  86.000	  77.450	-240.200	  43.661
     30.3976	  69.000	  76.606	-256.356	  43.598
     30.4310	  64.000	  75.819	-260.569	  43.536
     30.4644	  63.000	  75.086	-260.836	  43.473
     30.4978	  73.000	  74.406	-250.156	  43.411
     30.5312	  51.000	  73.775	-271.525	  43.349
     30.5647	  69.000	  73.193	-252.943	  43.287
     30.5981	  56.000	  72.657	-265.407	  43.225
     30.6315	  55.000	  72.166	-265.916	  43.163
     30.6649	  59.000	  71.720	-261.470	  43.101
     30.6984	  47.000	  71.318	-273.068	  43.039
     30.7318	  60.000	  70.959	-259.709	  42.977
     30.7652	  54.000	  70.643	-265.393	  42.916
     30.7986	  65.000	  70.370	-254.120	  42.854
     30.8321	  47.000	  70.142	-271.892	  42.793
     30.8655	  70.000	  69.958	-248.708	  42.732
     30.8989	  42.000	  69.820	-276.570	  42.670
     30.9323	  78.000	  69.729	-240.479	  42.609
     30.9657	  42.000	  69.688	-276.438	  42.548
     30.9992	  54.000	  69.698	-264.448	  42.487
     31.0326	  59.000	  69.763	-259.513	  42.426
     31.0660	  50.000	  69.886	-268.636	  42.366
     31.0994	  65.000	  70.072	-253.822	  42.305
     31.1329	  56.000	  70.325	-263.075	  42.244
     31.1663	  79.000	  70.651	-240.401	  42.184
     31.1997	  57.000	  71.057	-262.807	  42.123
     31.2331	  78.000	  71.551	-242.301	  42.063
     31.2665	  79.000	  72.142	-241.892	  42.003
     31.3000	  46.000	  72.843	-275.593	  41.943
     31.3334	  65.000	  73.665	-257.415	  41.883
     31.3668	  58.000	  74.625	-265.375	  41.823
     31.4002	  62.000	  75.740	-262.490	  41.763
     31.4337	  54.000	  77.033	-271.783	  41.703
     31.4671	  71.000	  78.527	-256.277	  41.643
     31.5005	  59.000	  80.252	-270.002	  41.584
     31.5339	  68.000	  82.243	-262.993	  41.524
     31.5673	  66.000	  84.540	-267.290	  41.465
     31.6008	  65.000	  87.188	-270.938	  41.405
     31.6342	  85.000	  90.241	-253.991	  41.346
     31.6676	  72.000	  93.757	-270.507	  41.287
     31.7010	  81.000	  97.803	-265.553	  41.228
     31.7345	  89.000	 102.449	-262.199	  41.169
     31.7679	  98.000	 107.765	-258.515	  41.110
     31.8013	  88.000	 113.813	-274.563	  41.051
     31.8347	 112.000	 120.638	-257.388	  40.992
     31.8682	 113.000	 128.246	-263.996	  40.934
     31.9016	 111.000	 136.572	-274.322	  40.875
     31.9350	 115.000	 145.451	-279.201	  40.817
     31.9684	 133.000	 154.579	-270.329	  40.758
     32.0018	 143.000	 163.483	-269.233	  40.700
     32.0353	 154.000	 171.534	-266.284	  40.642
     32.0687	 196.000	 178.015	-230.765	  40.584
     32.1021	 204.000	 182.235	-226.985	  40.526
     32.1355	 206.000	 183.699	-226.449	  40.468
     32.1690	 170.000	 182.220	-260.970	  40.410
     32.2024	 188.000	 177.974	-238.724	  40.352
     32.2358	 150.000	 171.436	-270.186	  40.294
     32.2692	 141.000	 163.267	-271.017	  40.237
     32.3026	 146.000	 154.166	-256.916	  40.179
     32.3361	 123.000	 144.751	-270.501	  40.122
     32.3695	 123.000	 135.511	-261.261	  40.064
     32.4029	  85.000	 126.767	-290.517	  40.007
     32.4363	 102.000	 118.705	-265.455	  39.950
     32.4698	  94.000	 111.406	-266.156	  39.893
     32.5032	  74.000	 104.875	-279.625	  39.836
     32.5366	  55.000	  99.080	-292.830	  39.779
     32.5700	  65.000	  93.959	-277.709	  39.722
     32.6034	  78.000	  89.443	-260.193	  39.665
     32.6369	  49.000	  85.464	-285.214	  39.609
     32.6703	  58.000	  81.955	-272.705	  39.552
     32.7037	  62.000	  78.855	-265.605	  39.496
     32.7371	  41.000	  76.111	-283.861	  39.439
     32.7706	  61.000	  73.674	-261.424	  39.383
     32.8040	  51.000	  71.505	-269.255	  39.327
     32.8374	  46.000	  69.566	-272.316	  39.271
     32.8708	  39.000	  67.827	-277.577	  39.215
     32.9043	  52.000	  66.263	-263.013	  39.159
     32.9377	  43.000	  64.850	-270.600	  39.103
     32.9711	  49.000	  63.571	-263.321	  39.047
     33.0045	  57.000	  62.407	-254.157	  38.991
     33.0379	  42.000	  61.346	-268.096	  38.936
     33.0714	  43.000	  60.375	-266.125	  38.880
     33.1048	  49.000	  59.483	-259.233	  38.825
     33.1382	  41.000	  58.662	-266.412	  38.769
     33.1716	  43.000	  57.905	-263.655	  38.714
     33.2051	  42.000	  57.204	-263.954	  38.659
     33.2385	  44.000	  56.553	-261.303	  38.604
     33.2719	  43.000	  55.948	-261.698	  38.549
     33.3053	  31.000	  55.384	-273.134	  38.494
     33.3387	  51.000	  54.857	-252.607	  38.439
     33.3722	  42.000	  54.363	-261.113	  38.384
     33.4056	  47.000	  53.900	-255.650	  38.330
     33.4390	  28.000	  53.464	-274.214	  38.275
     33.4724	  37.000	  53.054	-264.804	  38.220
     33.5059	  44.000	  52.667	-257.417	  38.166
     33.5393	  38.000	  52.301	-263.051	  38.112
     33.5727	  50.000	  51.955	-250.705	  38.057
     33.6061	  34.000	  51.627	-266.377	  38.003
     33.6395	  35.000	  51.315	-265.065	  37.949
     33.6730	  48.000	  51.019	-251.769	  37.895
     33.7064	  58.000	  50.737	-241.487	  37.841
     33.7398	  44.000	  50.468	-255.218	  37.787
     33.7732	  35.000	  50.212	-263.962	  37.734
     33.8067	  36.000	  49.967	-262.717	  37.680
     33.8401	  45.000	  49.732	-253.482	  37.626
     33.8735	  60.000	  49.508	-238.258	  37.573
     33.9069	  42.000	  49.293	-256.043	  37.520
     33.9403	  32.000	  49.087	-265.837	  37.466
     33.9738	  36.000	  48.889	-261.639	  37.413
     34.0072	  31.000	  48.699	-266.449	  37.360
     34.0406	  30.000	  48.516	-267.266	  37.307
     34.0740	  37.000	  48.340	-260.090	  37.254
     34.1075	  45.000	  48.171	-251.921	  37.201
     34.1409	  47.000	  48.008	-249.758	  37.148
     34.1743	  50.000	  47.851	-246.601	  37.095
     34.2077	  34.000	  47.720	-262.470	  37.043
     34.2411	  27.000	  47.574	-269.324	  36.990
     34.2746	  39.000	  47.434	-257.184	  36.937
     34.3080	  44.000	  47.308	-252.058	  36.885
     34.3414	  28.000	  47.177	-267.927	  36.833
     34.3748	  31.000	  47.051	-264.801	  36.780
     34.4083	  18.000	  46.929	-277.679	  36.728
     34.4417	  41.000	  46.812	-254.562	  36.676
     34.4751	  31.000	  46.698	-264.448	  36.624
     34.5085	  46.000	  46.589	-249.339	  36.572
     34.5420	  35.000	  46.484	-260.234	  36.520
     34.5754	  29.000	  46.382	-266.132	  36.469
     34.6088	  52.000	  46.331	-243.081	  36.417
     34.6422	  34.000	  46.237	-260.987	  36.365
     34.6756	  46.000	  46.147	-248.897	  36.314
     34.7091	  45.000	  46.060	-249.810	  36.263
     34.7425	  39.000	  46.000	-255.750	  36.211
     34.7759	  36.000	  45.921	-258.671	  36.160
     34.8093	  31.000	  45.844	-263.594	  36.109
     34.8428	  35.000	  45.772	-259.522	  36.058
     34.8762	  36.000	  45.703	-258.453	  36.007
     34.9096	  44.000	  45.637	-250.387	  35.956
     34.9430	  38.000	  45.575	-256.325	  35.905
     34.9764	  34.000	  45.517	-260.267	  35.854
     35.0099	  28.000	  45.462	-266.212	  35.803
     35.0433	  32.000	  45.411	-262.161	  35.753
     35.0767	  32.000	  45.363	-262.113	  35.702
     35.1101	  33.000	  45.320	-261.070	  35.652
     35.1436	  37.000	  45.280	-257.030	  35.601
     35.1770	  38.000	  45.343	-256.093	  35.551
     35.2104	  39.000	  45.312	-255.062	  35.501
     35.2438	  43.000	  45.286	-251.036	  35.451
     35.2773	  23.000	  45.264	-271.014	  35.401
     35.3107	  27.000	  45.296	-267.046	  35.351
     35.3441	  29.000	  45.285	-265.035	  35.301
     35.3775	  36.000	  45.279	-258.029	  35.251
     35.4109	  41.000	  45.279	-253.029	  35.202
     35.4444	  33.000	  45.284	-261.034	  35.152
     35.4778	  39.000	  45.297	-255.047	  35.102
     35.5112	  34.000	  45.316	-260.066	  35.053
     35.5446	  31.000	  45.342	-263.092	  35.003
     35.5781	  30.000	  45.377	-264.127	  34.954
     35.6115	  41.000	  45.420	-253.170	  34.905
     35.6449	  37.000	  45.473	-257.223	  34.856
     35.6783	  35.000	  45.535	-259.285	  34.807
     35.7117	  38.000	  45.609	-256.359	  34.758
     35.7452	  28.000	  45.695	-266.445	  34.709
     35.7786	  46.000	  45.795	-248.545	  34.660
     35.8120	  34.000	  45.909	-260.659	  34.611
     35.8454	  36.000	  46.039	-258.789	  34.563
     35.8789	  43.000	  46.188	-251.938	  34.514
     35.9123	  38.000	  46.357	-257.107	  34.465
     35.9457	  35.000	  46.548	-260.298	  34.417
     35.9791	  37.000	  46.765	-258.515	  34.369
     36.0125	  41.000	  47.011	-254.761	  34.320
     36.0460	  44.000	  47.290	-252.040	  34.272
     36.0794	  51.000	  47.606	-245.356	  34.224
     36.1128	  41.000	  47.963	-255.713	  34.176
     36.1462	  43.000	  48.370	-254.120	  34.128
     36.1797	  50.000	  48.831	-247.581	  34.080
     36.2131	  51.000	  49.357	-247.107	  34.033
     36.2465	  32.000	  49.955	-266.705	  33.985
     36.2799	  51.000	  50.638	-248.388	  33.937
     36.3133	  51.000	  51.418	-249.168	  33.890
     36.3468	  51.000	  52.309	-250.059	  33.842
     36.3802	  44.000	  53.327	-258.077	  33.795
     36.4136	  57.000	  54.490	-246.240	  33.747
     36.4470	  47.000	  55.815	-257.565	  33.700
     36.4805	  54.000	  57.321	-252.071	  33.653
     36.5139	  55.000	  59.020	-252.770	  33.606
     36.5473	  50.000	  60.921	-259.671	  33.559
     36.5807	  44.000	  63.019	-267.769	  33.512
     36.6142	  68.000	  65.288	-246.038	  33.465
     36.6476	  72.000	  67.675	-244.425	  33.418
     36.6810	  83.000	  70.085	-235.835	  33.372
     36.7144	  69.000	  72.385	-252.135	  33.325
     36.7478	  79.000	  74.410	-244.160	  33.279
     36.7813	  77.000	  75.978	-247.728	  33.232
     36.8147	  86.000	  76.930	-239.680	  33.186
     36.8481	  90.000	  77.167	-235.917	  33.139
     36.8815	 103.000	  76.679	-222.429	  33.093
     36.9150	  92.000	  75.503	-232.253	  33.047
     36.9484	  99.000	  73.779	-223.529	  33.001
     36.9818	  84.000	  71.671	-236.421	  32.955
     37.0152	  71.000	  69.356	-247.106	  32.909
     37.0486	  76.000	  66.970	-239.720	  32.863
     37.0821	  61.000	  64.635	-252.385	  32.818
     37.1155	  58.000	  62.432	-253.182	  32.772
     37.1489	  47.000	  60.405	-262.155	  32.726
     37.1823	  44.000	  58.574	-263.324	  32.681
     37.2158	  56.000	  56.942	-249.692	  32.635
     37.2492	  39.000	  55.499	-265.249	  32.590
     37.2826	  45.000	  54.233	-257.983	  32.545
     37.3160	  48.000	  53.124	-253.874	  32.499
     37.3494	  42.000	  52.157	-258.907	  32.454
     37.3829	  35.000	  51.314	-265.064	  32.409
     37.4163	  39.000	  50.580	-260.330	  32.364
     37.4497	  52.000	  49.942	-246.692	  32.319
     37.4831	  37.000	  49.387	-261.137	  32.274
     37.5166	  33.000	  48.906	-264.656	  32.230
     37.5500	  35.000	  48.488	-262.238	  32.185
     37.5834	  31.000	  48.127	-265.877	  32.140
     37.6168	  39.000	  47.816	-257.566	  32.096
     37.6502	  42.000	  47.549	-254.299	  32.051
     37.6837	  41.000	  47.322	-255.072	  32.007
     37.7171	  37.000	  47.130	-258.880	  31.963
     37.7505	  41.000	  46.970	-254.720	  31.919
     37.7839	  39.000	  46.839	-256.589	  31.874
     37.8174	  34.000	  46.736	-261.486	  31.830
     37.8508	  28.000	  46.657	-267.407	  31.786
     37.8842	  30.000	  46.601	-265.351	  31.742
     37.9176	  48.000	  46.566	-247.316	  31.699
     37.9510	  47.000	  46.552	-248.302	  31.655
     37.9845	  38.000	  46.558	-257.308	  31.611
     38.0179	  39.000	  46.582	-256.332	  31.568
     38.0513	  37.000	  46.625	-258.375	  31.524
     38.0847	  35.000	  46.685	-260.435	  31.481
     38.1182	  45.000	  46.763	-250.513	  31.437
     38.1516	  38.000	  46.858	-257.608	  31.394
     38.1850	  42.000	  46.971	-253.721	  31.351
     38.2184	  34.000	  47.101	-261.851	  31.308
     38.2519	  64.000	  47.248	-231.998	  31.264
     38.2853	  35.000	  47.413	-261.163	  31.221
     38.3187	  41.000	  47.597	-255.347	  31.178
     38.3521	  46.000	  47.799	-250.549	  31.136
     38.3855	  43.000	  48.021	-253.771	  31.093
     38.4190	  48.000	  48.262	-249.012	  31.050
     38.4524	  37.000	  48.525	-260.275	  31.007
     38.4858	  50.000	  48.810	-247.560	  30.965
     38.5192	  46.000	  49.117	-251.867	  30.922
     38.5527	  35.000	  49.449	-263.199	  30.880
     38.5861	  39.000	  49.806	-259.556	  30.838
     38.6195	  57.000	  50.190	-241.940	  30.795
     38.6529	  39.000	  50.603	-260.353	  30.753
     38.6863	  52.000	  51.047	-247.797	  30.711
     38.7198	  48.000	  51.523	-252.273	  30.669
     38.7532	  41.000	  52.035	-259.785	  30.627
     38.7866	  48.000	  52.583	-253.333	  30.585
     38.8200	  59.000	  53.173	-242.923	  30.543
     38.8535	  47.000	  53.806	-255.556	  30.502
     38.8869	  56.000	  54.486	-247.236	  30.460
     38.9203	  51.000	  55.216	-252.966	  30.418
     38.9537	  47.000	  56.003	-257.753	  30.377
     38.9872	  52.000	  56.849	-253.599	  30.335
     39.0206	  56.000	  57.760	-250.510	  30.294
     39.0540	  57.000	  58.743	-250.493	  30.253
     39.0874	  63.000	  59.805	-245.555	  30.212
     39.1208	  63.000	  60.952	-246.702	  30.170
     39.1543	  64.000	  62.193	-246.943	  30.129
     39.1877	  62.000	  63.538	-250.288	  30.088
     39.2211	  57.000	  64.998	-256.748	  30.047
     39.2545	  64.000	  66.585	-251.335	  30.007
     39.2880	  73.000	  68.313	-244.063	  29.966
     39.3214	  62.000	  70.198	-256.948	  29.925
     39.3548	  78.000	  72.259	-243.009	  29.884
     39.3882	  74.000	  74.516	-249.266	  29.844
     39.4216	  66.000	  76.993	-259.743	  29.803
     39.4551	  76.000	  79.719	-252.469	  29.763
     39.4885	  68.000	  82.724	-263.474	  29.723
     39.5219	  83.000	  86.048	-251.798	  29.682
     39.5553	  85.000	  89.733	-253.483	  29.642
     39.5888	  78.000	  93.829	-264.579	  29.602
     39.6222	 102.000	  98.397	-245.147	  29.562
     39.6556	 106.000	 103.503	-246.253	  29.522
     39.6890	 111.000	 109.229	-246.979	  29.482
     39.7224	 111.000	 115.667	-253.417	  29.442
     39.7559	 118.000	 122.923	-253.673	  29.402
     39.7893	 125.000	 131.125	-254.875	  29.363
     39.8227	 128.000	 140.413	-261.163	  29.323
     39.8561	 165.000	 150.948	-234.698	  29.284
     39.8896	 148.000	 162.913	-263.663	  29.244
     39.9230	 170.000	 176.504	-255.254	  29.205
     39.9564	 172.000	 191.927	-268.677	  29.165
     39.9898	 207.000	 209.385	-251.135	  29.126
     40.0233	 222.000	 229.049	-255.799	  29.087
     40.0567	 267.000	 251.034	-232.784	  29.048
     40.0901	 306.000	 275.325	-218.075	  29.009
     40.1235	 322.000	 301.699	-228.449	  28.970
     40.1569	 353.000	 329.627	-225.377	  28.931
     40.1904	 466.000	 358.179	-140.929	  28.892
     40.2238	 478.000	 385.971	-156.721	  28.853
     40.2572	 570.000	 411.190	 -89.940	  28.815
     40.2906	 631.000	 431.801	 -49.551	  28.776
     40.3241	 605.000	 445.890	 -89.640	  28.737
     40.3575	 666.000	 452.053	 -34.803	  28.699
     40.3909	 645.000	 449.706	 -53.456	  28.660
     40.4243	 615.000	 439.188	 -72.938	  28.622
     40.4577	 580.000	 421.651	 -90.401	  28.584
     40.4912	 547.000	 398.767	-100.517	  28.546
     40.5246	 498.000	 372.436	-123.186	  28.508
     40.5580	 457.000	 344.478	-136.228	  28.470
     40.5914	 364.000	 316.407	-201.157	  28.432
     40.6249	 328.000	 289.350	-210.100	  28.394
     40.6583	 271.000	 264.036	-241.786	  28.356
     40.6917	 283.000	 240.858	-206.608	  28.318
     40.7251	 240.000	 219.952	-228.702	  28.280
     40.7585	 195.000	 201.286	-255.036	  28.243
     40.7920	 196.000	 184.734	-237.484	  28.205
     40.8254	 172.000	 170.117	-246.867	  28.168
     40.8588	 172.000	 157.234	-233.984	  28.130
     40.8922	 132.000	 145.885	-262.635	  28.093
     40.9257	 129.000	 135.883	-255.633	  28.056
     40.9591	 143.000	 127.059	-232.809	  28.018
     40.9925	 112.000	 119.262	-256.012	  27.981
     41.0259	 103.000	 112.355	-258.105	  27.944
     41.0593	 105.000	 106.222	-249.972	  27.907
     41.0928	 104.000	 100.763	-245.513	  27.870
     41.1262	  94.000	  95.891	-250.641	  27.833
     41.1596	 101.000	  91.532	-239.282	  27.797
     41.1930	  88.000	  87.621	-248.371	  27.760
     41.2265	  90.000	  84.103	-242.853	  27.723
     41.2599	  55.000	  80.802	-274.552	  27.687
     41.2933	  72.000	  77.938	-254.688	  27.650
     41.3267	  70.000	  75.279	-254.029	  27.614
     41.3602	  52.000	  72.928	-269.678	  27.577
     41.3936	  57.000	  70.793	-262.543	  27.541
     41.4270	  70.000	  68.851	-247.601	  27.505
     41.4604	  66.000	  67.083	-249.833	  27.469
     41.4938	  51.000	  65.474	-263.224	  27.432
     41.5273	  56.000	  64.007	-256.757	  27.396
     41.5607	  57.000	  62.672	-254.422	  27.360
     41.5941	  71.000	  61.457	-239.207	  27.325
     41.6275	  58.000	  60.352	-251.102	  27.289
     41.6610	  50.000	  59.351	-258.101	  27.253
     41.6944	  68.000	  58.445	-239.195	  27.217
     41.7278	  54.000	  57.629	-252.379	  27.182
     41.7612	  60.000	  56.899	-245.649	  27.146
     41.7946	  46.000	  56.249	-258.999	  27.111
     41.8281	  54.000	  55.678	-250.428	  27.075
     41.8615	  62.000	  55.183	-241.933	  27.040
     41.8949	  50.000	  54.762	-253.512	  27.005
     41.9283	  46.000	  54.414	-257.164	  26.969
     41.9618	  54.000	  54.170	-248.920	  26.934
     41.9952	  57.000	  53.971	-245.721	  26.899
     42.0286	  47.000	  53.847	-255.597	  26.864
     42.0620	  45.000	  53.801	-257.551	  26.829
     42.0954	  68.000	  53.854	-234.604	  26.794
     42.1289	  47.000	  53.978	-255.728	  26.759
     42.1623	  28.000	  54.197	-274.947	  26.725
     42.1957	  60.000	  54.516	-243.266	  26.690
     42.2291	  58.000	  54.946	-245.696	  26.655
     42.2626	  73.000	  55.285	-231.035	  26.621
     42.2960	  61.000	  55.973	-243.723	  26.586
     42.3294	  52.000	  56.832	-253.582	  26.552
     42.3628	  43.000	  57.738	-263.488	  26.518
     42.3963	  56.000	  58.941	-251.691	  26.483
     42.4297	  55.000	  60.361	-254.111	  26.449
     42.4631	  71.000	  62.038	-239.788	  26.415
     42.4965	  56.000	  63.983	-256.733	  26.381
     42.5299	  85.000	  66.243	-229.993	  26.347
     42.5634	  60.000	  68.851	-257.601	  26.313
     42.5968	  74.000	  71.845	-246.595	  26.279
     42.6302	  66.000	  75.253	-258.003	  26.245
     42.6636	  97.000	  79.090	-230.840	  26.212
     42.6971	  87.000	  83.350	-245.100	  26.178
     42.7305	  92.000	  87.983	-244.733	  26.144
     42.7639	 115.000	  92.887	-226.637	  26.111
     42.7973	 124.000	  97.884	-222.634	  26.077
     42.8307	 119.000	 102.715	-232.465	  26.044
     42.8642	 131.000	 107.053	-224.803	  26.011
     42.8976	 156.000	 110.534	-203.284	  25.977
     42.9310	 164.000	 112.828	-197.578	  25.944
     42.9644	 135.000	 113.699	-227.449	  25.911
     42.9979	 146.000	 113.056	-215.806	  25.878
     43.0313	 136.000	 110.966	-223.716	  25.845
     43.0647	 125.000	 107.632	-231.382	  25.812
     43.0981	 112.000	 103.348	-240.098	  25.779
     43.1315	 115.000	  98.440	-232.190	  25.746
     43.1650	 110.000	  93.230	-231.980	  25.714
     43.1984	  89.000	  87.986	-247.736	  25.681
     43.2318	  99.000	  82.913	-232.663	  25.648
     43.2652	  78.000	  78.147	-248.897	  25.616
     43.2987	  69.000	  73.761	-253.511	  25.583
     43.3321	  59.000	  69.787	-259.537	  25.551
     43.3655	  69.000	  66.221	-245.971	  25.518
     43.3989	  56.000	  63.042	-255.792	  25.486
     43.4324	  56.000	  60.220	-252.970	  25.454
     43.4658	  64.000	  57.719	-242.469	  25.422
     43.4992	  50.000	  55.503	-254.253	  25.390
     43.5326	  54.000	  53.538	-248.288	  25.358
     43.5660	  47.000	  51.793	-253.543	  25.326
     43.5995	  39.000	  50.241	-259.991	  25.294
     43.6329	  48.000	  48.856	-249.606	  25.262
     43.6663	  55.000	  47.617	-241.367	  25.230
     43.6997	  49.000	  46.506	-246.256	  25.198
     43.7332	  41.000	  45.505	-253.255	  25.167
     43.7666	  45.000	  44.602	-248.352	  25.135
     43.8000	  37.000	  43.784	-255.534	  25.104
     43.8334	  41.000	  43.040	-250.790	  25.072
     43.8668	  36.000	  42.363	-255.113	  25.041
     43.9003	  52.000	  41.744	-238.494	  25.010
     43.9337	  45.000	  41.177	-244.927	  24.978
     43.9671	  36.000	  40.655	-253.405	  24.947
     44.0005	  35.000	  40.175	-253.925	  24.916
     44.0340	  34.000	  39.732	-254.482	  24.885
     44.0674	  42.000	  39.322	-246.072	  24.854
     44.1008	  33.000	  38.942	-254.692	  24.823
     44.1342	  33.000	  38.588	-254.338	  24.792
     44.1676	  49.000	  38.259	-238.009	  24.761
     44.2011	  41.000	  37.953	-245.703	  24.730
     44.2345	  35.000	  37.666	-251.416	  24.700
     44.2679	  32.000	  37.398	-254.148	  24.669
     44.3013	  35.000	  37.147	-250.897	  24.639
     44.3348	  50.000	  36.923	-235.673	  24.608
     44.3682	  45.000	  36.702	-240.452	  24.578
     44.4016	  31.000	  36.495	-254.245	  24.547
     44.4350	  38.000	  36.299	-247.049	  24.517
     44.4684	  31.000	  36.115	-253.865	  24.487
     44.5019	  34.000	  35.947	-250.697	  24.457
     44.5353	  32.000	  35.783	-252.533	  24.426
     44.5687	  23.000	  35.629	-261.379	  24.396
     44.6021	  33.000	  35.483	-251.233	  24.366
     44.6356	  34.000	  35.345	-250.095	  24.336
     44.6690	  39.000	  35.215	-244.965	  24.307
     44.7024	  32.000	  35.101	-251.851	  24.277
     44.7358	  28.000	  34.984	-255.734	  24.247
     44.7692	  36.000	  34.875	-247.625	  24.217
     44.8027	  39.000	  34.771	-244.521	  24.188
     44.8361	  35.000	  34.673	-248.423	  24.158
     44.8695	  34.000	  34.585	-249.335	  24.129
     44.9029	  37.000	  34.497	-246.247	  24.099
     44.9364	  41.000	  34.415	-242.165	  24.070
     44.9698	  31.000	  34.338	-252.088	  24.041
     45.0032	  34.000	  34.265	-249.015	  24.011
     45.0366	  20.000	  34.197	-262.947	  23.982
     45.0701	  34.000	  34.133	-248.883	  23.953
     45.1035	  23.000	  34.073	-259.823	  23.924
     45.1369	  34.000	  34.018	-248.768	  23.895
     45.1703	  36.000	  33.966	-246.716	  23.866
     45.2037	  29.000	  33.918	-253.668	  23.837
     45.2372	  27.000	  33.874	-255.624	  23.808
     45.2706	  25.000	  33.833	-257.583	  23.780
     45.3040	  42.000	  33.796	-240.546	  23.751
     45.3374	  30.000	  33.763	-252.513	  23.722
     45.3709	  34.000	  33.733	-248.483	  23.694
     45.4043	  33.000	  33.706	-249.456	  23.665
     45.4377	  44.000	  33.683	-238.433	  23.637
     45.4711	  31.000	  33.663	-251.413	  23.608
     45.5045	  33.000	  33.647	-249.397	  23.580
     45.5380	  28.000	  33.634	-254.384	  23.552
     45.5714	  39.000	  33.624	-243.374	  23.523
     45.6048	  28.000	  33.617	-254.367	  23.495
     45.6382	  36.000	  33.614	-246.364	  23.467
     45.6717	  23.000	  33.615	-259.365	  23.439
     45.7051	  35.000	  33.618	-247.368	  23.411
     45.7385	  37.000	  33.625	-245.375	  23.383
     45.7719	  19.000	  33.636	-263.386	  23.356
     45.8053	  36.000	  33.606	-246.356	  23.328
     45.8388	  33.000	  33.624	-249.374	  23.300
     45.8722	  44.000	  33.624	-238.374	  23.272
     45.9056	  32.000	  33.649	-250.399	  23.245
     45.9390	  20.000	  33.677	-262.427	  23.217
     45.9725	  33.000	  33.710	-249.460	  23.190
     46.0059	  24.000	  33.746	-258.496	  23.162
     46.0393	  24.000	  33.786	-258.536	  23.135
     46.0727	  29.000	  33.830	-253.580	  23.108
     46.1062	  48.000	  33.878	-234.628	  23.080
     46.1396	  32.000	  33.931	-250.681	  23.053
     46.1730	  30.000	  33.988	-252.738	  23.026
     46.2064	  34.000	  34.050	-248.800	  22.999
     46.2398	  43.000	  34.116	-239.866	  22.972
     46.2733	  32.000	  34.187	-250.937	  22.945
     46.3067	  28.000	  34.263	-255.013	  22.918
     46.3401	  32.000	  34.344	-251.094	  22.891
     46.3735	  38.000	  34.431	-245.181	  22.865
     46.4070	  34.000	  34.523	-249.273	  22.838
     46.4404	  28.000	  34.621	-255.371	  22.811
     46.4738	  25.000	  34.726	-258.476	  22.785
     46.5072	  45.000	  34.836	-238.586	  22.758
     46.5406	  33.000	  34.953	-250.703	  22.732
     46.5741	  48.000	  35.077	-235.827	  22.705
     46.6075	  29.000	  35.209	-254.959	  22.679
     46.6409	  39.000	  35.348	-245.098	  22.653
     46.6743	  39.000	  35.494	-245.244	  22.626
     46.7078	  35.000	  35.650	-249.400	  22.600
     46.7412	  42.000	  35.814	-242.564	  22.574
     46.7746	  44.000	  35.987	-240.737	  22.548
     46.8080	  32.000	  36.170	-252.920	  22.522
     46.8414	  29.000	  36.363	-256.113	  22.496
     46.8749	  33.000	  36.567	-252.317	  22.470
     46.9083	  33.000	  36.783	-252.533	  22.444
     46.9417	  49.000	  37.011	-236.761	  22.418
     46.9751	  44.000	  37.251	-242.001	  22.393
     47.0086	  43.000	  37.506	-243.256	  22.367
     47.0420	  55.000	  37.775	-231.525	  22.341
     47.0754	  41.000	  38.059	-245.809	  22.316
     47.1088	  41.000	  38.360	-246.110	  22.290
     47.1423	  37.000	  38.679	-250.429	  22.265
     47.1757	  56.000	  39.017	-231.767	  22.240
     47.2091	  43.000	  39.374	-245.124	  22.214
     47.2425	  57.000	  39.754	-231.504	  22.189
     47.2759	  46.000	  40.156	-242.906	  22.164
     47.3094	  39.000	  40.584	-250.334	  22.139
     47.3428	  47.000	  41.039	-242.789	  22.114
     47.3762	  51.000	  41.522	-239.272	  22.089
     47.4096	  56.000	  42.037	-234.787	  22.064
     47.4431	  54.000	  42.586	-237.336	  22.039
     47.4765	  45.000	  43.172	-246.922	  22.014
     47.5099	  47.000	  43.799	-245.549	  21.989
     47.5433	  57.000	  44.469	-236.219	  21.964
     47.5767	  60.000	  45.187	-233.937	  21.940
     47.6102	  47.000	  45.957	-247.707	  21.915
     47.6436	  65.000	  46.785	-230.535	  21.890
     47.6770	  63.000	  47.675	-233.425	  21.866
     47.7104	  52.000	  48.636	-245.386	  21.841
     47.7439	  70.000	  49.673	-228.423	  21.817
     47.7773	  61.000	  50.796	-238.546	  21.793
     47.8107	  75.000	  52.014	-225.764	  21.768
     47.8441	  63.000	  53.338	-239.089	  21.744
     47.8775	  64.000	  54.781	-239.531	  21.720
     47.9110	  64.000	  56.357	-241.107	  21.696
     47.9444	  70.000	  58.082	-236.832	  21.672
     47.9778	  55.000	  59.975	-253.725	  21.648
     48.0112	  91.000	  62.058	-219.808	  21.624
     48.0447	  64.000	  64.355	-249.105	  21.600
     48.0781	  78.000	  66.896	-237.646	  21.576
     48.1115	 100.000	  69.710	-218.460	  21.552
     48.1449	  94.000	  72.834	-227.584	  21.529
     48.1783	 103.000	  76.308	-222.058	  21.505
     48.2118	 112.000	  80.172	-216.922	  21.481
     48.2452	  89.000	  84.471	-244.221	  21.458
     48.2786	  94.000	  89.249	-243.999	  21.434
     48.3120	 112.000	  94.540	-231.290	  21.411
     48.3455	 110.000	 100.372	-239.122	  21.387
     48.3789	 129.000	 106.745	-226.495	  21.364
     48.4123	 143.000	 113.630	-219.380	  21.341
     48.4457	 149.000	 120.952	-220.702	  21.318
     48.4792	 149.000	 128.581	-228.331	  21.294
     48.5126	 171.000	 136.339	-214.089	  21.271
     48.5460	 195.000	 144.024	-197.774	  21.248
     48.5794	 239.000	 151.435	-161.185	  21.225
     48.6128	 255.000	 158.440	-152.190	  21.202
     48.6463	 229.000	 164.995	-184.745	  21.179
     48.6797	 245.000	 171.171	-174.921	  21.156
     48.7131	 238.000	 177.136	-187.886	  21.134
     48.7465	 232.000	 183.120	-199.870	  21.111
     48.7800	 255.000	 189.372	-183.122	  21.088
     48.8134	 250.000	 196.110	-194.860	  21.066
     48.8468	 283.000	 203.464	-169.214	  21.043
     48.8802	 267.000	 211.430	-193.180	  21.020
     48.9136	 264.000	 219.835	-204.585	  20.998
     48.9471	 317.000	 228.336	-160.086	  20.976
     48.9805	 310.000	 236.458	-175.208	  20.953
     49.0139	 297.000	 243.687	-195.437	  20.931
     49.0473	 332.000	 249.577	-166.327	  20.909
     49.0808	 334.000	 253.863	-168.613	  20.886
     49.1142	 333.000	 256.524	-172.274	  20.864
     49.1476	 349.000	 257.782	-157.532	  20.842
     49.1810	 340.000	 258.059	-166.809	  20.820
     49.2144	 350.000	 257.915	-156.665	  20.798
     49.2479	 331.000	 257.972	-175.722	  20.776
     49.2813	 294.000	 258.850	-213.600	  20.754
     49.3147	 329.000	 261.103	-180.853	  20.733
     49.3481	 366.000	 265.164	-147.914	  20.711
     49.3816	 327.000	 271.312	-193.062	  20.689
     49.4150	 373.000	 279.643	-155.393	  20.667
     49.4484	 403.000	 290.029	-135.779	  20.646
     49.4818	 426.000	 302.088	-124.838	  20.624
     49.5153	 428.000	 315.160	-135.910	  20.603
     49.5487	 504.000	 328.278	 -73.028	  20.581
     49.5821	 511.000	 340.251	 -78.001	  20.560
     49.6155	 508.000	 349.778	 -90.528	  20.538
     49.6489	 530.000	 355.668	 -74.418	  20.517
     49.6824	 594.000	 357.041	 -11.791	  20.496
     49.7158	 556.000	 353.528	 -46.278	  20.475
     49.7492	 574.000	 345.175	 -19.925	  20.454
     49.7826	 529.000	 332.535	 -52.285	  20.433
     49.8161	 458.000	 316.461	-107.211	  20.411
     49.8495	 472.000	 297.952	 -74.702	  20.391
     49.8829	 398.000	 278.068	-128.818	  20.370
     49.9163	 383.000	 257.740	-123.490	  20.349
     49.9497	 332.000	 237.769	-154.519	  20.328
     49.9832	 288.000	 218.740	-179.490	  20.307
     50.0166	 276.000	 201.014	-173.764	  20.286
     50.0500	 246.000	 184.785	-187.535	  20.266
     50.0834	 232.000	 170.106	-186.856	  20.245
     50.1169	 196.000	 156.945	-209.695	  20.225
     50.1503	 154.000	 145.208	-239.958	  20.204
     50.1837	 156.000	 134.780	-227.530	  20.184
     50.2171	 168.000	 125.529	-206.279	  20.163
     50.2505	 119.000	 117.332	-247.082	  20.143
     50.2840	 142.000	 110.064	-216.814	  20.122
     50.3174	 117.000	 103.617	-235.367	  20.102
     50.3508	 117.000	  97.891	-229.641	  20.082
     50.3842	 126.000	  92.801	-215.551	  20.062
     50.4177	 101.000	  88.268	-236.018	  20.042
     50.4511	 110.000	  84.229	-222.979	  20.022
     50.4845	  84.000	  80.624	-245.374	  20.002
     50.5179	  97.000	  77.407	-229.157	  19.982
     50.5513	  85.000	  74.535	-238.285	  19.962
     50.5848	  88.000	  71.972	-232.722	  19.942
     50.6182	  56.000	  69.690	-262.440	  19.922
     50.6516	  69.000	  67.663	-247.413	  19.902
     50.6850	  73.000	  65.859	-241.609	  19.883
     50.7185	  77.000	  64.285	-236.035	  19.863
     50.7519	  74.000	  62.916	-237.666	  19.843
     50.7853	  77.000	  61.737	-233.487	  19.824
     50.8187	  75.000	  60.751	-234.501	  19.804
     50.8521	  63.000	  59.950	-245.700	  19.785
     50.8856	  65.000	  59.333	-243.083	  19.766
     50.9190	  62.000	  58.901	-245.651	  19.746
     50.9524	  69.000	  58.658	-238.408	  19.727
     50.9858	  79.000	  58.612	-228.362	  19.708
     51.0193	  59.000	  58.772	-248.522	  19.688
     51.0527	  57.000	  59.147	-250.897	  19.669
     51.0861	  55.000	  59.752	-253.502	  19.650
     51.1195	  69.000	  60.607	-240.357	  19.631
     51.1530	  69.000	  61.699	-241.449	  19.612
     51.1864	  72.000	  63.043	-239.793	  19.593
     51.2198	  79.000	  64.629	-234.379	  19.574
     51.2532	  81.000	  66.428	-234.178	  19.556
     51.2866	  82.000	  68.395	-235.145	  19.537
     51.3201	  81.000	  70.431	-238.181	  19.518
     51.3535	 109.000	  72.419	-212.169	  19.499
     51.3869	  95.000	  74.209	-227.959	  19.481
     51.4203	  98.000	  75.633	-226.383	  19.462
     51.4538	 103.000	  76.541	-222.291	  19.443
     51.4872	  96.000	  76.812	-229.562	  19.425
     51.5206	 105.000	  76.398	-220.148	  19.406
     51.5540	 121.000	  75.310	-203.060	  19.388
     51.5874	 114.000	  73.617	-208.367	  19.370
     51.6209	 101.000	  71.431	-219.181	  19.351
     51.6543	 113.000	  68.879	-204.629	  19.333
     51.6877	  85.000	  66.105	-229.855	  19.315
     51.7211	  92.000	  63.239	-219.989	  19.297
     51.7546	  69.000	  60.393	-240.143	  19.279
     51.7880	  71.000	  57.652	-235.402	  19.261
     51.8214	  44.000	  55.072	-259.822	  19.243
     51.8548	  71.000	  52.685	-230.435	  19.225
     51.8883	  54.000	  50.504	-245.254	  19.207
     51.9217	  51.000	  48.528	-246.278	  19.189
     51.9551	  43.000	  46.746	-252.496	  19.171
     51.9885	  51.000	  45.145	-242.895	  19.153
     52.0219	  55.000	  43.708	-237.458	  19.135
     52.0554	  43.000	  42.417	-248.167	  19.118
     52.0888	  54.000	  41.257	-236.007	  19.100
     52.1222	  43.000	  40.212	-245.962	  19.083
     52.1556	  35.000	  39.269	-253.019	  19.065
     52.1891	  49.000	  38.415	-238.165	  19.048
     52.2225	  41.000	  37.640	-245.390	  19.030
     52.2559	  41.000	  36.935	-244.685	  19.013
     52.2893	  48.000	  36.291	-237.041	  18.995
     52.3227	  37.000	  35.702	-247.452	  18.978
     52.3562	  34.000	  35.160	-249.910	  18.961
     52.3896	  32.000	  34.661	-251.411	  18.944
     52.4230	  31.000	  34.199	-251.949	  18.926
     52.4564	  33.000	  33.772	-249.522	  18.909
     52.4899	  39.000	  33.375	-243.125	  18.892
     52.5233	  35.000	  33.006	-246.756	  18.875
     52.5567	  30.000	  32.661	-251.411	  18.858
     52.5901	  32.000	  32.339	-249.089	  18.841
     52.6235	  27.000	  32.037	-253.787	  18.824
     52.6570	  43.000	  31.753	-237.503	  18.808
     52.6904	  25.000	  31.487	-255.237	  18.791
     52.7238	  25.000	  31.236	-254.986	  18.774
     52.7572	  23.000	  30.999	-256.749	  18.757
     52.7907	  24.000	  30.775	-255.525	  18.741
     52.8241	  32.000	  30.563	-247.313	  18.724
     52.8575	  24.000	  30.363	-255.113	  18.708
     52.8909	  25.000	  30.173	-253.923	  18.691
     52.9244	  28.000	  29.992	-250.742	  18.675
     52.9578	  23.000	  29.821	-255.571	  18.658
     52.9912	  28.000	  29.658	-250.408	  18.642
     53.0246	  28.000	  29.503	-250.253	  18.626
     53.0580	  31.000	  29.356	-247.106	  18.609
     53.0915	  21.000	  29.215	-256.965	  18.593
     53.1249	  38.000	  29.081	-239.831	  18.577
     53.1583	  25.000	  28.953	-252.703	  18.561
     53.1917	  23.000	  28.832	-254.582	  18.545
     53.2252	  29.000	  28.715	-248.465	  18.529
     53.2586	  37.000	  28.604	-240.354	  18.513
     53.2920	  23.000	  28.499	-254.249	  18.497
     53.3254	  31.000	  28.397	-246.147	  18.481
     53.3588	  23.000	  28.301	-254.051	  18.465
     53.3923	  35.000	  28.209	-241.959	  18.449
     53.4257	  42.000	  28.121	-234.871	  18.433
     53.4591	  38.000	  28.037	-238.787	  18.418
     53.4925	  23.000	  27.958	-253.708	  18.402
     53.5260	  28.000	  27.882	-248.632	  18.386
     53.5594	  32.000	  27.809	-244.559	  18.371
     53.5928	  23.000	  27.741	-253.491	  18.355
     53.6262	  32.000	  27.675	-244.425	  18.340
     53.6596	  25.000	  27.613	-251.363	  18.324
     53.6931	  35.000	  27.555	-241.305	  18.309
     53.7265	  31.000	  27.499	-245.249	  18.293
     53.7599	  22.000	  27.447	-254.197	  18.278
     53.7933	  22.000	  27.398	-254.148	  18.263
     53.8268	  17.000	  27.352	-259.102	  18.247
     53.8602	  24.000	  27.309	-252.059	  18.232
     53.8936	  27.000	  27.268	-249.018	  18.217
     53.9270	  22.000	  27.231	-253.981	  18.202
     53.9604	  33.000	  27.197	-242.947	  18.187
     53.9939	  19.000	  27.165	-256.915	  18.172
     54.0273	  23.000	  27.137	-252.887	  18.157
     54.0607	  30.000	  27.111	-245.861	  18.142
     54.0941	  25.000	  27.088	-250.838	  18.127
     54.1276	  23.000	  27.068	-252.818	  18.112
     54.1610	  25.000	  27.051	-250.801	  18.097
     54.1944	  31.000	  27.037	-244.787	  18.083
     54.2278	  24.000	  27.026	-251.776	  18.068
     54.2612	  24.000	  27.017	-251.767	  18.053
     54.2947	  33.000	  27.012	-242.762	  18.039
     54.3281	  30.000	  27.010	-245.760	  18.024
     54.3615	  28.000	  26.874	-247.624	  18.010
     54.3949	  28.000	  26.879	-247.629	  17.995
     54.4284	  34.000	  26.888	-241.638	  17.981
     54.4618	  31.000	  26.831	-244.581	  17.966
     54.4952	  22.000	  26.846	-253.596	  17.952
     54.5286	  36.000	  26.865	-239.615	  17.938
     54.5621	  34.000	  26.888	-241.638	  17.923
     54.5955	  24.000	  26.914	-251.664	  17.909
     54.6289	  27.000	  26.945	-248.695	  17.895
     54.6623	  36.000	  26.979	-239.729	  17.881
     54.6957	  25.000	  27.018	-250.768	  17.867
     54.7292	  31.000	  27.061	-244.811	  17.852
     54.7626	  32.000	  27.109	-243.859	  17.838
     54.7960	  29.000	  27.162	-246.912	  17.824
     54.8294	  32.000	  27.220	-243.970	  17.811
     54.8629	  30.000	  27.283	-246.033	  17.797
     54.8963	  33.000	  27.352	-243.102	  17.783
     54.9297	  22.000	  27.426	-254.176	  17.769
     54.9631	  33.000	  27.507	-243.257	  17.755
     54.9965	  23.000	  27.595	-253.345	  17.741
     55.0300	  30.000	  27.689	-246.439	  17.728
     55.0634	  25.000	  27.790	-251.540	  17.714
     55.0968	  24.000	  27.898	-252.648	  17.701
     55.1302	  28.000	  28.013	-248.763	  17.687
     55.1637	  31.000	  28.137	-245.887	  17.673
     55.1971	  29.000	  28.269	-248.019	  17.660
     55.2305	  37.000	  28.409	-240.159	  17.647
     55.2639	  28.000	  28.559	-249.309	  17.633
     55.2973	  29.000	  28.718	-248.468	  17.620
     55.3308	  34.000	  28.889	-243.639	  17.606
     55.3642	  15.000	  29.095	-262.845	  17.593
     55.3976	  23.000	  29.290	-255.040	  17.580
     55.4310	  25.000	  29.499	-253.249	  17.567
     55.4645	  32.000	  29.724	-246.474	  17.554
     55.4979	  36.000	  29.965	-242.715	  17.541
     55.5313	  31.000	  30.225	-247.975	  17.527
     55.5647	  21.000	  30.516	-258.266	  17.514
     55.5982	  34.000	  30.817	-245.567	  17.501
     55.6316	  36.000	  31.141	-243.891	  17.489
     55.6650	  36.000	  31.491	-244.241	  17.476
     55.6984	  33.000	  31.869	-247.619	  17.463
     55.7318	  33.000	  32.277	-248.027	  17.450
     55.7653	  39.000	  32.719	-242.469	  17.437
     55.7987	  34.000	  33.197	-247.947	  17.424
     55.8321	  30.000	  33.716	-252.466	  17.412
     55.8655	  38.000	  34.279	-245.029	  17.399
     55.8990	  27.000	  34.892	-256.642	  17.386
     55.9324	  25.000	  35.560	-259.310	  17.374
     55.9658	  34.000	  36.290	-251.040	  17.361
     55.9992	  37.000	  37.087	-248.837	  17.349
     56.0326	  42.000	  37.962	-244.712	  17.336
     56.0661	  32.000	  38.922	-255.672	  17.324
     56.0995	  35.000	  39.980	-253.730	  17.312
     56.1329	  39.000	  41.157	-250.907	  17.299
     56.1663	  45.000	  42.448	-246.198	  17.287
     56.1998	  38.000	  43.879	-254.629	  17.275
     56.2332	  46.000	  45.468	-248.218	  17.262
     56.2666	  49.000	  47.239	-246.989	  17.250
     56.3000	  46.000	  49.221	-251.971	  17.238
     56.3334	  44.000	  51.431	-256.181	  17.226
     56.3669	  71.000	  53.908	-231.658	  17.214
     56.4003	  54.000	  56.686	-251.436	  17.202
     56.4337	  60.000	  59.803	-248.553	  17.190
     56.4671	  65.000	  63.303	-247.053	  17.178
     56.5006	  70.000	  67.226	-245.976	  17.166
     56.5340	  66.000	  71.614	-254.364	  17.154
     56.5674	  78.000	  76.502	-247.252	  17.142
     56.6008	  74.000	  81.907	-256.657	  17.131
     56.6343	  96.000	  87.825	-240.575	  17.119
     56.6677	 109.000	  94.214	-233.964	  17.107
     56.7011	 114.000	 100.976	-235.726	  17.096
     56.7345	 137.000	 107.952	-219.702	  17.084
     56.7679	 164.000	 114.903	-199.653	  17.072
     56.8014	 150.000	 121.540	-220.290	  17.061
     56.8348	 155.000	 127.543	-221.293	  17.049
     56.8682	 175.000	 132.621	-206.371	  17.038
     56.9016	 193.000	 136.562	-192.312	  17.026
     56.9351	 209.000	 139.272	-179.022	  17.015
     56.9685	 195.000	 140.780	-194.530	  17.004
     57.0019	 176.000	 141.212	-213.962	  16.992
     57.0353	 168.000	 140.760	-221.510	  16.981
     57.0687	 177.000	 139.606	-211.356	  16.970
     57.1022	 194.000	 138.004	-192.754	  16.958
     57.1356	 200.000	 136.087	-184.837	  16.947
     57.1690	 162.000	 133.940	-220.690	  16.936
     57.2024	 162.000	 131.565	-218.315	  16.925
     57.2359	 162.000	 128.930	-215.680	  16.914
     57.2693	 131.000	 125.931	-243.681	  16.903
     57.3027	 159.000	 122.486	-212.236	  16.892
     57.3361	 145.000	 118.549	-222.299	  16.881
     57.3695	 129.000	 114.129	-233.879	  16.870
     57.4030	 124.000	 109.282	-234.032	  16.859
     57.4364	 122.000	 104.103	-230.853	  16.848
     57.4698	 135.000	  98.711	-212.461	  16.838
     57.5032	 102.000	  93.236	-239.986	  16.827
     57.5367	 100.000	  87.811	-236.561	  16.816
     57.5701	  83.000	  82.556	-248.306	  16.805
     57.6035	  91.000	  77.566	-235.316	  16.795
     57.6369	  77.000	  72.909	-244.659	  16.784
     57.6703	  71.000	  68.623	-246.373	  16.774
     57.7038	  68.000	  64.719	-245.469	  16.763
     57.7372	  69.000	  61.198	-240.948	  16.752
     57.7706	  56.000	  58.030	-250.780	  16.742
     57.8040	  56.000	  55.195	-247.945	  16.732
     57.8375	  50.000	  52.663	-251.413	  16.721
     57.8709	  57.000	  50.406	-242.156	  16.711
     57.9043	  45.000	  48.393	-252.143	  16.700
     57.9377	  50.000	  46.601	-245.352	  16.690
     57.9712	  48.000	  45.001	-245.751	  16.680
     58.0046	  48.000	  43.574	-244.324	  16.670
     58.0380	  37.000	  42.299	-254.049	  16.660
     58.0714	  41.000	  41.161	-248.911	  16.649
     58.1048	  29.000	  40.144	-259.894	  16.639
     58.1383	  28.000	  39.237	-259.987	  16.629
     58.1717	  43.000	  38.428	-244.178	  16.619
     58.2051	  36.000	  37.708	-250.458	  16.609
     58.2385	  37.000	  37.068	-248.818	  16.599
     58.2720	  47.000	  36.502	-238.252	  16.589
     58.3054	  33.000	  36.005	-251.755	  16.579
     58.3388	  27.000	  35.570	-257.320	  16.570
     58.3722	  45.000	  35.195	-238.945	  16.560
     58.4056	  29.000	  34.877	-254.627	  16.550
     58.4391	  28.000	  34.612	-255.362	  16.540
     58.4725	  29.000	  34.399	-254.149	  16.530
     58.5059	  29.000	  34.238	-253.988	  16.521
     58.5393	  30.000	  34.126	-252.876	  16.511
     58.5728	  24.000	  34.065	-258.815	  16.502
     58.6062	  35.000	  34.055	-247.805	  16.492
     58.6396	  25.000	  34.098	-257.848	  16.482
     58.6730	  29.000	  34.196	-253.946	  16.473
     58.7064	  28.000	  34.352	-255.102	  16.463
     58.7399	  35.000	  34.568	-248.318	  16.454
     58.7733	  32.000	  34.851	-251.601	  16.445
     58.8067	  33.000	  35.206	-250.956	  16.435
     58.8401	  34.000	  35.638	-250.388	  16.426
     58.8736	  37.000	  36.157	-247.907	  16.417
     58.9070	  50.000	  36.771	-235.521	  16.407
     58.9404	  33.000	  37.490	-253.240	  16.398
     58.9738	  34.000	  38.327	-253.077	  16.389
     59.0073	  29.000	  39.295	-259.045	  16.380
     59.0407	  34.000	  40.408	-255.158	  16.371
     59.0741	  38.000	  41.680	-252.430	  16.361
     59.1075	  45.000	  43.127	-246.877	  16.352
     59.1409	  42.000	  44.761	-251.511	  16.343
     59.1744	  54.000	  46.590	-241.340	  16.334
     59.2078	  47.000	  48.616	-250.366	  16.325
     59.2412	  51.000	  50.827	-248.577	  16.316
     59.2746	  49.000	  53.196	-252.946	  16.308
     59.3081	  52.000	  55.672	-252.422	  16.299
     59.3415	  54.000	  58.182	-252.932	  16.290
     59.3749	  62.000	  60.631	-247.381	  16.281
     59.4083	  71.000	  62.910	-240.660	  16.272
     59.4417	  52.000	  64.915	-261.665	  16.264
     59.4752	  74.000	  66.564	-241.314	  16.255
     59.5086	  82.000	  67.814	-234.564	  16.246
     59.5420	  78.000	  68.660	-239.410	  16.238
     59.5754	  85.000	  69.135	-232.885	  16.229
     59.6089	  61.000	  69.291	-257.041	  16.220
     59.6423	  71.000	  69.190	-246.940	  16.212
     59.6757	  73.000	  68.888	-244.638	  16.203
     59.7091	  73.000	  68.429	-244.179	  16.195
     59.7425	  89.000	  67.836	-227.586	  16.187
     59.7760	  82.000	  67.106	-233.856	  16.178
     59.8094	  69.000	  66.217	-245.967	  16.170
     59.8428	  81.000	  65.135	-232.885	  16.161
     59.8762	  83.000	  63.834	-229.584	  16.153
     59.9097	  72.000	  62.301	-239.051	  16.145
     59.9431	  76.000	  60.547	-233.297	  16.137
     59.9765	  61.000	  58.596	-246.346	  16.128
     60.0099	  69.000	  56.490	-236.240	  16.120
     60.0434	  60.000	  54.277	-243.027	  16.112
     60.0768	  57.000	  52.009	-243.759	  16.104
     60.1102	  54.000	  49.743	-244.493	  16.096
     60.1436	  49.000	  47.528	-247.278	  16.088
     60.1770	  56.000	  45.405	-238.155	  16.080
     60.2105	  38.000	  43.409	-254.159	  16.072
     60.2439	  37.000	  41.556	-253.306	  16.064
     60.2773	  47.000	  39.857	-241.607	  16.056
     60.3107	  36.000	  38.311	-251.061	  16.048
     60.3442	  48.000	  36.913	-237.663	  16.040
     60.3776	  36.000	  35.653	-248.403	  16.032
     60.4110	  37.000	  34.520	-246.270	  16.025
     60.4444	  35.000	  33.502	-247.252	  16.017
     60.4778	  36.000	  32.588	-245.338	  16.009
     60.5113	  20.000	  31.765	-260.515	  16.001
     60.5447	  45.000	  31.024	-234.774	  15.994
     60.5781	  20.000	  30.356	-259.106	  15.986
     60.6115	  18.000	  29.751	-260.501	  15.979
     60.6450	  22.000	  29.204	-255.954	  15.971
     60.6784	  25.000	  28.706	-252.456	  15.963
     60.7118	  29.000	  28.253	-248.003	  15.956
     60.7452	  25.000	  27.840	-251.590	  15.948
     60.7786	  28.000	  27.461	-248.211	  15.941
     60.8121	  28.000	  27.114	-247.864	  15.934
     60.8455	  18.000	  26.795	-257.545	  15.926
     60.8789	  19.000	  26.502	-256.252	  15.919
     60.9123	  20.000	  26.231	-254.981	  15.912
     60.9458	  25.000	  25.980	-249.730	  15.904
     60.9792	  20.000	  25.748	-254.498	  15.897
     61.0126	  18.000	  25.532	-256.282	  15.890
     61.0460	  19.000	  25.332	-255.082	  15.882
     61.0794	  35.000	  25.145	-238.895	  15.875
     61.1129	  19.000	  24.971	-254.721	  15.868
     61.1463	  25.000	  24.809	-248.559	  15.861
     61.1797	  17.000	  24.657	-256.407	  15.854
     61.2131	  19.000	  24.516	-254.266	  15.847
     61.2466	  27.000	  24.383	-246.133	  15.840
     61.2800	  32.000	  24.258	-241.008	  15.833
     61.3134	  20.000	  24.142	-252.892	  15.826
     61.3468	  12.000	  24.032	-260.782	  15.819
     61.3803	  22.000	  23.930	-250.680	  15.812
     61.4137	  20.000	  23.833	-252.583	  15.805
     61.4471	  23.000	  23.755	-249.505	  15.798
     61.4805	  21.000	  23.670	-251.420	  15.791
     61.5139	  18.000	  23.591	-254.341	  15.785
     61.5474	  16.000	  23.516	-256.266	  15.778
     61.5808	  21.000	  23.454	-251.204	  15.771
     61.6142	  18.000	  23.389	-254.139	  15.764
     61.6476	  21.000	  23.334	-251.084	  15.758
     61.6811	  22.000	  23.276	-250.026	  15.751
     61.7145	  16.000	  23.223	-255.973	  15.745
     61.7479	  17.000	  23.185	-254.935	  15.738
     61.7813	  12.000	  23.143	-259.893	  15.731
     61.8147	  19.000	  23.101	-252.851	  15.725
     61.8482	  22.000	  23.062	-249.812	  15.718
     61.8816	  25.000	  23.026	-246.776	  15.712
     61.9150	  16.000	  22.994	-255.744	  15.705
     61.9484	  18.000	  22.971	-253.721	  15.699
     61.9819	  20.000	  22.946	-251.696	  15.693
     62.0153	  12.000	  22.923	-259.673	  15.686
     62.0487	  24.000	  22.905	-247.655	  15.680
     62.0821	  14.000	  22.889	-257.639	  15.674
     62.1155	  22.000	  22.877	-249.627	  15.667
     62.1490	  20.000	  22.893	-251.643	  15.661
     62.1824	  20.000	  22.889	-251.639	  15.655
     62.2158	  24.000	  22.888	-247.638	  15.649
     62.2492	  16.000	  22.892	-255.642	  15.642
     62.2827	  25.000	  22.900	-246.650	  15.636
     62.3161	  18.000	  22.913	-253.663	  15.630
     62.3495	  16.000	  22.942	-255.692	  15.624
     62.3829	  21.000	  22.966	-250.716	  15.618
     62.4164	  19.000	  22.995	-252.745	  15.612
     62.4498	  10.000	  23.031	-261.781	  15.606
     62.4832	  11.000	  23.073	-260.823	  15.600
     62.5166	  19.000	  23.123	-252.873	  15.594
     62.5500	  15.000	  23.180	-256.930	  15.588
     62.5835	  34.000	  23.246	-237.996	  15.582
     62.6169	  22.000	  23.319	-250.069	  15.576
     62.6503	  16.000	  23.400	-256.150	  15.570
     62.6837	  20.000	  23.487	-252.237	  15.565
     62.7172	  25.000	  23.578	-247.328	  15.559
     62.7506	  19.000	  23.671	-253.421	  15.553
     62.7840	  21.000	  23.762	-251.512	  15.547
     62.8174	  18.000	  23.846	-254.596	  15.542
     62.8508	  19.000	  23.921	-253.671	  15.536
     62.8843	  22.000	  23.981	-250.731	  15.530
     62.9177	  25.000	  24.024	-247.774	  15.525
     62.9511	  20.000	  24.051	-252.801	  15.519
     62.9845	  19.000	  24.062	-253.812	  15.513
     63.0180	  14.000	  24.058	-258.808	  15.508
     63.0514	  31.000	  24.021	-241.771	  15.502
     63.0848	  16.000	  23.997	-256.747	  15.497
     63.1182	  18.000	  23.968	-254.718	  15.491
     63.1516	  27.000	  23.936	-245.686	  15.486
     63.1851	  21.000	  23.896	-251.646	  15.481
     63.2185	  18.000	  23.870	-254.620	  15.475
     63.2519	  18.000	  23.850	-254.600	  15.470
     63.2853	  22.000	  23.838	-250.588	  15.464
     63.3188	  27.000	  23.835	-245.585	  15.459
     63.3522	  16.000	  23.842	-256.592	  15.454
     63.3856	  23.000	  23.864	-249.614	  15.449
     63.4190	  20.000	  23.891	-252.641	  15.443
     63.4524	  20.000	  23.927	-252.677	  15.438
     63.4859	  25.000	  23.926	-247.676	  15.433
     63.5193	  24.000	  23.982	-248.732	  15.428
     63.5527	  20.000	  24.047	-252.797	  15.423
     63.5861	  20.000	  24.122	-252.872	  15.417
     63.6196	  23.000	  24.209	-249.959	  15.412
     63.6530	  18.000	  24.279	-255.029	  15.407
     63.6864	  28.000	  24.383	-245.133	  15.402
     63.7198	  22.000	  24.496	-251.246	  15.397
     63.7533	  18.000	  24.620	-255.370	  15.392
     63.7867	  20.000	  24.755	-253.505	  15.387
     63.8201	  20.000	  24.901	-253.651	  15.382
     63.8535	  17.000	  25.059	-256.809	  15.377
     63.8869	  23.000	  25.230	-250.980	  15.372
     63.9204	  30.000	  25.414	-244.164	  15.368
     63.9538	  22.000	  25.612	-252.362	  15.363
     63.9872	  23.000	  25.826	-251.576	  15.358
     64.0206	  33.000	  26.057	-241.807	  15.353
     64.0541	  29.000	  26.306	-246.056	  15.348
     64.0875	  17.000	  26.574	-258.324	  15.344
     64.1209	  20.000	  26.864	-255.614	  15.339
     64.1543	  28.000	  27.079	-247.829	  15.334
     64.1877	  16.000	  27.418	-260.168	  15.330
     64.2212	  29.000	  27.785	-247.535	  15.325
     64.2546	  17.000	  28.183	-259.933	  15.320
     64.2880	  23.000	  28.566	-254.316	  15.316
     64.3214	  37.000	  29.036	-240.786	  15.311
     64.3549	  31.000	  29.548	-247.298	  15.306
     64.3883	  31.000	  30.106	-247.856	  15.302
     64.4217	  35.000	  30.716	-244.466	  15.297
     64.4551	  29.000	  31.384	-251.134	  15.293
     64.4885	  30.000	  32.118	-250.868	  15.288
     64.5220	  33.000	  32.925	-248.675	  15.284
     64.5554	  31.000	  33.815	-251.565	  15.280
     64.5888	  31.000	  34.799	-252.549	  15.275
     64.6222	  35.000	  35.888	-249.638	  15.271
     64.6557	  36.000	  37.096	-249.846	  15.266
     64.6891	  42.000	  38.441	-245.191	  15.262
     64.7225	  44.000	  39.939	-244.689	  15.258
     64.7559	  48.000	  41.612	-242.362	  15.254
     64.7894	  39.000	  43.481	-253.231	  15.249
     64.8228	  52.000	  45.572	-242.322	  15.245
     64.8562	  46.000	  47.913	-250.663	  15.241
     64.8896	  50.000	  50.533	-249.283	  15.237
     64.9230	  46.000	  53.460	-256.210	  15.232
     64.9565	  66.000	  56.723	-239.473	  15.228
     64.9899	  60.000	  60.342	-249.092	  15.224
     65.0233	  78.000	  64.330	-235.080	  15.220
     65.0567	  78.000	  68.683	-239.433	  15.216
     65.0901	  70.000	  73.363	-252.113	  15.212
     65.1236	  83.000	  78.303	-244.053	  15.208
     65.1570	  95.000	  83.382	-237.132	  15.204
     65.1904	 100.000	  88.427	-237.177	  15.200
     65.2238	 116.000	  93.215	-225.965	  15.196
     65.2573	 118.000	  97.483	-228.233	  15.192
     65.2907	 148.000	 100.976	-201.726	  15.188
     65.3241	 131.000	 103.474	-221.224	  15.184
     65.3575	 124.000	 104.836	-229.586	  15.180
     65.3910	 142.000	 105.015	-211.765	  15.176
     65.4244	 129.000	 104.052	-223.802	  15.173
     65.4578	 123.000	 102.051	-227.801	  15.169
     65.4912	 110.000	  99.161	-237.911	  15.165
     65.5246	 122.000	  95.551	-222.301	  15.161
     65.5581	 115.000	  91.405	-225.155	  15.157
     65.5915	 101.000	  86.912	-234.662	  15.154
     65.6249	 111.000	  82.262	-220.012	  15.150
     65.6583	  97.000	  77.617	-229.367	  15.146
     65.6918	  86.000	  73.116	-235.866	  15.143
     65.7252	  68.000	  68.859	-249.609	  15.139
     65.7586	  70.000	  64.909	-243.659	  15.135
     65.7920	  64.000	  61.303	-246.053	  15.132
     65.8254	  81.000	  58.051	-225.801	  15.128
     65.8589	  59.000	  55.146	-244.896	  15.124
     65.8923	  54.000	  52.574	-247.324	  15.121
     65.9257	  54.000	  50.310	-245.060	  15.117
     65.9591	  55.000	  48.334	-242.084	  15.114
     65.9926	  49.000	  46.619	-246.369	  15.110
     66.0260	  58.000	  45.145	-235.895	  15.107
     66.0594	  55.000	  43.876	-237.626	  15.103
     66.0928	  58.000	  42.823	-233.573	  15.100
     66.1263	  48.000	  41.956	-242.706	  15.097
     66.1597	  36.000	  41.265	-254.015	  15.093
     66.1931	  49.000	  40.739	-240.489	  15.090
     66.2265	  32.000	  40.365	-257.115	  15.086
     66.2599	  42.000	  40.152	-246.902	  15.083
     66.2934	  33.000	  40.092	-255.842	  15.080
     66.3268	  34.000	  40.185	-254.935	  15.077
     66.3602	  44.000	  40.435	-245.185	  15.073
     66.3936	  36.000	  40.844	-253.594	  15.070
     66.4271	  50.000	  41.419	-240.169	  15.067
     66.4605	  35.000	  42.166	-255.916	  15.064
     66.4939	  54.000	  43.092	-237.842	  15.060
     66.5273	  55.000	  44.200	-237.950	  15.057
     66.5607	  43.000	  45.491	-251.241	  15.054
     66.5942	  45.000	  46.957	-250.707	  15.051
     66.6276	  55.000	  48.582	-242.332	  15.048
     66.6610	  63.000	  50.331	-236.081	  15.045
     66.6944	  56.000	  52.154	-244.904	  15.042
     66.7279	  51.000	  53.980	-251.730	  15.039
     66.7613	  58.000	  55.722	-246.472	  15.035
     66.7947	  64.000	  57.284	-242.034	  15.032
     66.8281	  56.000	  58.576	-251.326	  15.029
     66.8615	  74.000	  59.525	-234.275	  15.026
     66.8950	  60.000	  60.092	-248.842	  15.023
     66.9284	  87.000	  60.269	-222.019	  15.021
     66.9618	  70.000	  60.078	-238.828	  15.018
     66.9952	  52.000	  59.555	-256.305	  15.015
     67.0287	  60.000	  58.745	-247.495	  15.012
     67.0621	  79.000	  57.696	-227.446	  15.009
     67.0955	  63.000	  56.453	-242.203	  15.006
     67.1289	  55.000	  55.059	-248.809	  15.003
     67.1624	  66.000	  53.553	-236.303	  15.000
     67.1958	  57.000	  51.969	-243.719	  14.998
     67.2292	  50.000	  50.335	-249.085	  14.995
     67.2626	  49.000	  48.678	-248.428	  14.992
     67.2960	  62.000	  47.016	-233.766	  14.989
     67.3295	  61.000	  45.369	-233.119	  14.987
     67.3629	  37.000	  43.763	-255.513	  14.984
     67.3963	  44.000	  42.188	-246.938	  14.981
     67.4297	  55.000	  40.667	-234.417	  14.978
     67.4632	  52.000	  39.207	-235.957	  14.976
     67.4966	  37.000	  37.818	-249.568	  14.973
     67.5300	  33.000	  36.507	-252.257	  14.971
     67.5634	  44.000	  35.287	-240.037	  14.968
     67.5968	  35.000	  34.151	-247.901	  14.965
     67.6303	  20.000	  33.106	-261.856	  14.963
     67.6637	  24.000	  32.150	-256.900	  14.960
     67.6971	  30.000	  31.279	-250.029	  14.958
     67.7305	  34.000	  30.489	-245.239	  14.955
     67.7640	  33.000	  29.772	-245.522	  14.953
     67.7974	  25.000	  29.124	-252.874	  14.950
     67.8308	  24.000	  28.537	-253.287	  14.948
     67.8642	  33.000	  28.006	-243.756	  14.945
     67.8976	  19.000	  27.524	-257.274	  14.943
     67.9311	  32.000	  27.087	-243.837	  14.940
     67.9645	  16.000	  26.689	-259.439	  14.938
     67.9979	  20.000	  26.327	-255.077	  14.935
     68.0313	  18.000	  25.997	-256.747	  14.933
     68.0648	  27.000	  25.696	-247.446	  14.931
     68.0982	  30.000	  25.420	-244.170	  14.928
     68.1316	  23.000	  25.168	-250.918	  14.926
     68.1650	  25.000	  24.936	-248.686	  14.924
     68.1984	  23.000	  24.723	-250.473	  14.921
     68.2319	  16.000	  24.527	-257.277	  14.919
     68.2653	  14.000	  24.346	-259.096	  14.917
     68.2987	  31.000	  24.180	-241.930	  14.915
     68.3321	  21.000	  24.027	-251.777	  14.912
     68.3656	  21.000	  23.885	-251.635	  14.910
     68.3990	  16.000	  23.754	-256.504	  14.908
     68.4324	  21.000	  23.633	-251.383	  14.906
     68.4658	  16.000	  23.522	-256.272	  14.904
     68.4993	  20.000	  23.419	-252.169	  14.901
     68.5327	  23.000	  23.324	-249.074	  14.899
     68.5661	  28.000	  23.237	-243.987	  14.897
     68.5995	  24.000	  23.157	-247.907	  14.895
     68.6329	  25.000	  23.083	-246.833	  14.893
     68.6664	  18.000	  23.015	-253.765	  14.891
     68.6998	  19.000	  22.953	-252.703	  14.889
     68.7332	  20.000	  22.897	-251.647	  14.887
     68.7666	  22.000	  22.846	-249.596	  14.885
     68.8000	  22.000	  22.800	-249.550	  14.883
     68.8335	  21.000	  22.759	-250.509	  14.881
     68.8669	  22.000	  22.723	-249.473	  14.879
     68.9003	  25.000	  22.691	-246.441	  14.877
     68.9337	  19.000	  22.663	-252.413	  14.875
     68.9672	  18.000	  22.639	-253.389	  14.873
     69.0006	  24.000	  22.620	-247.370	  14.871
     69.0340	  24.000	  22.605	-247.355	  14.869
     69.0674	  20.000	  22.593	-251.343	  14.867
     69.1009	  15.000	  22.588	-256.338	  14.865
     69.1343	  25.000	  22.584	-246.334	  14.863
     69.1677	  18.000	  22.584	-253.334	  14.861
     69.2011	  23.000	  22.587	-248.337	  14.859
     69.2345	  16.000	  22.595	-255.345	  14.858
     69.2680	  23.000	  22.606	-248.356	  14.856
     69.3014	  16.000	  22.621	-255.371	  14.854
     69.3348	  19.000	  22.640	-252.390	  14.852
     69.3682	  27.000	  22.663	-244.413	  14.850
     69.4017	  24.000	  22.691	-247.441	  14.849
     69.4351	  20.000	  22.722	-251.472	  14.847
     69.4685	  17.000	  22.757	-254.507	  14.845
     69.5019	  20.000	  22.795	-251.545	  14.843
     69.5354	  25.000	  22.839	-246.589	  14.842
     69.5688	  23.000	  22.886	-248.636	  14.840
     69.6022	  20.000	  22.939	-251.689	  14.838
     69.6356	  27.000	  22.997	-244.747	  14.837
     69.6690	  16.000	  23.059	-255.809	  14.835
     69.7025	  20.000	  23.126	-251.876	  14.833
     69.7359	  20.000	  23.199	-251.949	  14.832
     69.7693	  29.000	  23.278	-243.028	  14.830
     69.8027	  15.000	  23.363	-257.113	  14.828
     69.8362	  22.000	  23.454	-250.204	  14.827
     69.8696	  20.000	  23.552	-252.302	  14.825
     69.9030	  16.000	  23.657	-256.407	  14.824
     69.9364	  25.000	  23.770	-247.520	  14.822
     69.9698	  34.000	  23.891	-238.641	  14.820
     70.0033	  27.000	  24.021	-245.771	  14.819
     70.0367	  20.000	  24.159	-252.909	  14.817
     70.0701	  22.000	  24.308	-251.058	  14.816
     70.1035	  25.000	  24.467	-248.217	  14.814
     70.1370	  21.000	  24.638	-252.388	  14.813
     70.1704	  24.000	  24.821	-249.571	  14.811
     70.2038	  12.000	  25.017	-261.767	  14.810
     70.2372	  24.000	  25.228	-249.978	  14.808
     70.2706	  23.000	  25.454	-251.204	  14.807
     70.3041	  18.000	  25.697	-256.447	  14.806
     70.3375	  12.000	  25.959	-262.709	  14.804
     70.3709	  20.000	  26.241	-254.991	  14.803
     70.4043	  16.000	  26.544	-259.294	  14.801
     70.4378	  18.000	  26.872	-257.622	  14.800
     70.4712	  22.000	  27.227	-253.977	  14.799
     70.5046	  14.000	  27.610	-262.360	  14.797
     70.5380	  34.000	  28.026	-242.776	  14.796
     70.5714	  28.000	  28.478	-249.228	  14.795
     70.6049	  33.000	  28.969	-244.719	  14.793
     70.6383	  22.000	  29.504	-256.254	  14.792
     70.6717	  19.000	  30.089	-259.839	  14.791
     70.7051	  37.000	  30.728	-242.478	  14.789
     70.7386	  27.000	  31.429	-253.179	  14.788
     70.7720	  24.000	  32.199	-256.949	  14.787
     70.8054	  39.000	  33.046	-242.796	  14.785
     70.8388	  41.000	  33.980	-241.730	  14.784
     70.8723	  25.000	  35.013	-258.763	  14.783
     70.9057	  32.000	  36.156	-252.906	  14.782
     70.9391	  22.000	  37.424	-264.174	  14.781
     70.9725	  44.000	  38.832	-243.582	  14.779
     71.0059	  35.000	  40.399	-254.149	  14.778
     71.0394	  34.000	  42.142	-256.892	  14.777
     71.0728	  33.000	  44.082	-259.832	  14.776
     71.1062	  56.000	  46.241	-238.991	  14.775
     71.1396	  56.000	  48.641	-241.391	  14.773
     71.1730	  50.000	  51.301	-250.051	  14.772
     71.2065	  46.000	  54.238	-256.988	  14.771
     71.2399	  52.000	  57.457	-254.207	  14.770
     71.2733	  54.000	  60.955	-255.705	  14.769
     71.3067	  64.000	  64.710	-249.460	  14.768
     71.3402	  73.000	  68.670	-244.420	  14.767
     71.3736	  75.000	  72.754	-246.504	  14.766
     71.4070	  74.000	  76.839	-251.589	  14.764
     71.4404	  90.000	  80.769	-239.519	  14.763
     71.4739	  86.000	  84.365	-247.115	  14.762
     71.5073	 130.000	  87.440	-206.190	  14.761
     71.5407	 102.000	  89.838	-236.588	  14.760
     71.5741	 118.000	  91.446	-222.196	  14.759
     71.6075	  91.000	  92.222	-249.972	  14.758
     71.6410	 119.000	  92.183	-221.933	  14.757
     71.6744	 112.000	  91.396	-228.146	  14.756
     71.7078	  94.000	  89.958	-244.708	  14.755
     71.7412	 109.000	  87.978	-227.728	  14.754
     71.7747	  76.000	  85.573	-258.323	  14.753
     71.8081	  89.000	  82.869	-242.619	  14.752
     71.8415	  92.000	  79.965	-236.715	  14.751
     71.8749	  95.000	  77.053	-230.803	  14.750
     71.9084	  90.000	  74.221	-232.971	  14.749
     71.9418	  82.000	  71.577	-238.327	  14.748
     71.9752	  76.000	  69.200	-241.950	  14.747
     72.0086	  59.000	  67.132	-256.882	  14.747
     72.0420	  64.000	  65.438	-250.188	  14.746
     72.0755	  77.000	  64.115	-235.865	  14.745
     72.1089	  64.000	  63.162	-247.912	  14.744
     72.1423	  62.000	  62.556	-249.306	  14.743
     72.1757	  76.000	  62.261	-235.011	  14.742
     72.2092	  75.000	  62.225	-235.975	  14.741
     72.2426	  76.000	  62.375	-235.125	  14.740
     72.2760	  60.000	  62.606	-251.356	  14.739
     72.3094	  61.000	  62.859	-250.609	  14.739
     72.3428	  59.000	  63.015	-252.765	  14.738
     72.3763	  61.000	  62.986	-250.736	  14.737
     72.4097	  64.000	  62.704	-247.454	  14.736
     72.4431	  60.000	  62.121	-250.871	  14.735
     72.4765	  66.000	  61.251	-244.001	  14.734
     72.5100	  57.000	  60.100	-251.850	  14.734
     72.5434	  42.000	  58.698	-265.448	  14.733
     72.5768	  55.000	  57.083	-250.833	  14.732
     72.6102	  63.000	  55.296	-241.046	  14.731
     72.6436	  52.000	  53.384	-250.134	  14.730
     72.6771	  55.000	  51.396	-245.146	  14.730
     72.7105	  44.000	  49.381	-254.131	  14.729
     72.7439	  48.000	  47.387	-248.137	  14.728
     72.7773	  47.000	  45.454	-247.204	  14.727
     72.8108	  28.000	  43.616	-264.366	  14.727
     72.8442	  39.000	  41.894	-251.644	  14.726
     72.8776	  32.000	  40.300	-257.050	  14.725
     72.9110	  41.000	  38.851	-246.601	  14.724
     72.9445	  23.000	  37.523	-263.273	  14.724
     72.9779	  31.000	  36.322	-254.072	  14.723
     73.0113	  31.000	  35.242	-252.992	  14.722
     73.0447	  29.000	  34.273	-254.023	  14.722
     73.0781	  34.000	  33.409	-248.159	  14.721
     73.1116	  42.000	  32.636	-239.386	  14.720
     73.1450	  24.000	  31.953	-256.703	  14.720
     73.1784	  29.000	  31.343	-251.093	  14.719
     73.2118	  19.000	  30.803	-260.553	  14.718
     73.2453	  29.000	  30.328	-250.078	  14.718
     73.2787	  27.000	  29.913	-251.663	  14.717
     73.3121	  22.000	  29.555	-256.305	  14.716
     73.3455	  19.000	  29.247	-258.997	  14.716
     73.3789	  20.000	  28.988	-257.738	  14.715
     73.4124	  24.000	  28.775	-253.525	  14.714
     73.4458	  31.000	  28.608	-246.358	  14.714
     73.4792	  21.000	  28.493	-256.243	  14.713
     73.5126	  27.000	  28.414	-250.164	  14.713
     73.5461	  23.000	  28.379	-254.129	  14.712
     73.5795	  32.000	  28.389	-245.139	  14.711
     73.6129	  25.000	  28.446	-252.196	  14.711
     73.6463	  21.000	  28.551	-256.301	  14.710
     73.6797	  18.000	  28.707	-259.457	  14.710
     73.7132	  20.000	  28.920	-257.670	  14.709
     73.7466	  29.000	  29.186	-248.936	  14.708
     73.7800	  22.000	  29.513	-256.263	  14.708
     73.8134	  23.000	  29.902	-255.652	  14.707
     73.8469	  23.000	  30.358	-256.108	  14.707
     73.8803	  27.000	  30.879	-252.629	  14.706
     73.9137	  27.000	  31.465	-253.215	  14.706
     73.9471	  20.000	  32.110	-260.860	  14.705
     73.9805	  28.000	  32.804	-253.554	  14.704
     74.0140	  30.000	  33.531	-252.281	  14.704
     74.0474	  39.000	  34.264	-244.014	  14.703
     74.0808	  43.000	  34.973	-240.723	  14.703
     74.1142	  23.000	  35.620	-261.370	  14.702
     74.1477	  22.000	  36.166	-262.916	  14.702
     74.1811	  19.000	  36.578	-266.328	  14.701
     74.2145	  34.000	  36.828	-251.578	  14.701
     74.2479	  36.000	  36.906	-249.656	  14.700
     74.2813	  35.000	  36.811	-250.561	  14.700
     74.3148	  32.000	  36.555	-253.305	  14.699
     74.3482	  25.000	  36.154	-259.904	  14.699
     74.3816	  24.000	  35.629	-260.379	  14.698
     74.4150	  29.000	  35.000	-254.750	  14.698
     74.4485	  19.000	  34.291	-264.041	  14.697
     74.4819	  29.000	  33.524	-253.274	  14.697
     74.5153	  38.000	  32.723	-243.473	  14.696
     74.5487	  23.000	  31.911	-257.661	  14.696
     74.5822	  32.000	  31.110	-247.860	  14.695
     74.6156	  25.000	  30.331	-254.081	  14.695
     74.6490	  29.000	  29.600	-249.350	  14.694
     74.6824	  29.000	  28.917	-248.667	  14.694
     74.7158	  21.000	  28.286	-256.036	  14.693
     74.7493	  30.000	  27.710	-246.460	  14.693
     74.7827	  28.000	  27.181	-247.931	  14.692
     74.8161	  18.000	  26.708	-257.458	  14.692
     74.8495	  23.000	  26.281	-252.031	  14.692
     74.8830	  20.000	  25.902	-254.652	  14.691
     74.9164	  23.000	  25.557	-251.307	  14.691
     74.9498	  17.000	  25.249	-256.999	  14.690
     74.9832	  22.000	  24.972	-251.722	  14.690
     75.0166	  32.000	  24.716	-241.466	  14.689
     75.0501	  20.000	  24.493	-253.243	  14.689
     75.0835	  23.000	  24.293	-250.043	  14.688
     75.1169	  23.000	  24.114	-249.864	  14.688
     75.1503	  18.000	  23.955	-254.705	  14.688
     75.1838	  19.000	  23.811	-253.561	  14.687
     75.2172	  14.000	  23.678	-258.428	  14.687
     75.2506	  23.000	  23.563	-249.313	  14.686
     75.2840	  28.000	  23.460	-244.210	  14.686
     75.3175	  28.000	  23.369	-244.119	  14.685
     75.3509	  28.000	  23.287	-244.037	  14.685
     75.3843	  29.000	  23.216	-242.966	  14.685
     75.4177	  28.000	  23.152	-243.902	  14.684
     75.4511	  20.000	  23.097	-251.847	  14.684
     75.4846	  25.000	  23.050	-246.800	  14.683
     75.5180	  23.000	  23.009	-248.759	  14.683
     75.5514	  23.000	  22.975	-248.725	  14.682
     75.5848	  14.000	  22.947	-257.697	  14.682
     75.6183	  24.000	  22.925	-247.675	  14.682
     75.6517	  20.000	  22.908	-251.658	  14.681
     75.6851	  24.000	  22.897	-247.647	  14.681
     75.7185	  25.000	  22.891	-246.641	  14.680
     75.7519	  33.000	  22.889	-238.639	  14.680
     75.7854	  25.000	  22.893	-246.643	  14.680
     75.8188	  15.000	  22.901	-256.651	  14.679
     75.8522	  25.000	  22.913	-246.663	  14.679
     75.8856	  19.000	  22.930	-252.680	  14.678
     75.9191	  25.000	  22.952	-246.702	  14.678
     75.9525	  16.000	  22.978	-255.728	  14.678
     75.9859	  20.000	  23.008	-251.758	  14.677
     76.0193	  30.000	  23.042	-241.792	  14.677
     76.0527	  19.000	  23.081	-252.831	  14.676
     76.0862	  23.000	  23.124	-248.874	  14.676
     76.1196	  24.000	  23.171	-247.921	  14.676
     76.1530	  19.000	  23.223	-252.973	  14.675
     76.1864	  20.000	  23.280	-252.030	  14.675
     76.2199	  23.000	  23.341	-249.091	  14.674
     76.2533	  23.000	  23.407	-249.157	  14.674
     76.2867	  16.000	  23.478	-256.228	  14.674
     76.3201	  30.000	  23.553	-242.303	  14.673
     76.3535	  29.000	  23.635	-243.385	  14.673
     76.3870	  19.000	  23.721	-253.471	  14.672
     76.4204	  27.000	  23.813	-245.563	  14.672
     76.4538	  30.000	  23.911	-242.661	  14.672
     76.4872	  25.000	  24.015	-247.765	  14.671
     76.5207	  25.000	  24.125	-247.875	  14.671
     76.5541	  27.000	  24.242	-245.992	  14.670
     76.5875	  30.000	  24.366	-243.116	  14.670
     76.6209	  24.000	  24.497	-249.247	  14.669
     76.6544	  30.000	  24.637	-243.387	  14.669
     76.6878	  21.000	  24.784	-252.534	  14.669
     76.7212	  28.000	  24.940	-245.690	  14.668
     76.7546	  21.000	  25.105	-252.855	  14.668
     76.7880	  27.000	  25.279	-247.029	  14.667
     76.8215	  36.000	  25.464	-238.214	  14.667
     76.8549	  30.000	  25.661	-244.411	  14.667
     76.8883	  25.000	  25.868	-249.618	  14.666
     76.9217	  31.000	  26.089	-243.839	  14.666
     76.9552	  35.000	  26.322	-240.072	  14.665
     76.9886	  31.000	  26.571	-244.321	  14.665
     77.0220	  29.000	  26.834	-246.584	  14.665
     77.0554	  31.000	  27.114	-244.864	  14.664
     77.0888	  30.000	  27.412	-246.162	  14.664
     77.1223	  27.000	  27.730	-249.480	  14.663
     77.1557	  20.000	  28.068	-256.818	  14.663
     77.1891	  25.000	  28.429	-252.179	  14.662
     77.2225	  20.000	  28.814	-257.564	  14.662
     77.2560	  38.000	  29.227	-239.977	  14.662
     77.2894	  28.000	  29.668	-250.418	  14.661
     77.3228	  32.000	  30.141	-246.891	  14.661
     77.3562	  30.000	  30.649	-249.399	  14.660
     77.3896	  34.000	  31.195	-245.945	  14.660
     77.4231	  29.000	  31.782	-251.532	  14.659
     77.4565	  33.000	  32.416	-248.166	  14.659
     77.4899	  39.000	  33.101	-242.851	  14.658
     77.5233	  29.000	  33.842	-253.592	  14.658
     77.5568	  42.000	  34.645	-241.395	  14.658
     77.5902	  33.000	  35.517	-251.267	  14.657
     77.6236	  29.000	  36.466	-256.216	  14.657
     77.6570	  45.000	  37.500	-241.250	  14.656
     77.6905	  47.000	  38.630	-240.380	  14.656
     77.7239	  35.000	  39.865	-253.615	  14.655
     77.7573	  45.000	  41.220	-244.970	  14.655
     77.7907	  62.000	  42.706	-229.456	  14.654
     77.8241	  45.000	  44.341	-248.091	  14.654
     77.8576	  60.000	  46.139	-234.889	  14.653
     77.8910	  46.000	  48.119	-250.869	  14.653
     77.9244	  39.000	  50.302	-260.052	  14.652
     77.9578	  51.000	  52.707	-250.457	  14.652
     77.9912	  60.000	  55.355	-244.105	  14.651
     78.0247	  72.000	  58.265	-235.015	  14.651
     78.0581	  68.000	  61.452	-242.202	  14.650
     78.0915	  69.000	  64.928	-244.678	  14.650
     78.1249	  71.000	  68.693	-246.443	  14.649
     78.1584	  79.000	  72.739	-242.489	  14.649
     78.1918	  95.000	  77.048	-230.798	  14.648
     78.2252	  76.000	  81.549	-254.299	  14.648
     78.2586	  85.000	  86.185	-249.935	  14.647
     78.2921	 131.000	  90.872	-208.622	  14.647
     78.3255	 112.000	  95.510	-232.260	  14.646
     78.3589	 121.000	  99.997	-227.747	  14.646
     78.3923	 122.000	 104.240	-230.990	  14.645
     78.4257	 118.000	 108.164	-238.914	  14.645
     78.4592	 152.000	 111.719	-208.469	  14.644
     78.4926	 141.000	 114.855	-222.605	  14.643
     78.5260	 175.000	 117.560	-191.310	  14.643
     78.5594	 163.000	 119.820	-205.570	  14.642
     78.5929	 141.000	 121.635	-229.385	  14.642
     78.6263	 149.000	 123.004	-222.754	  14.641
     78.6597	 137.000	 123.938	-235.688	  14.641
     78.6931	 138.000	 124.463	-235.213	  14.640
     78.7265	 173.000	 124.624	-200.374	  14.639
     78.7600	 190.000	 124.487	-183.237	  14.639
     78.7934	 146.000	 124.142	-226.892	  14.638
     78.8268	 128.000	 123.691	-244.441	  14.638
     78.8602	 161.000	 123.241	-210.991	  14.637
     78.8937	 176.000	 122.861	-195.611	  14.636
     78.9271	 153.000	 122.612	-218.362	  14.636
     78.9605	 141.000	 122.524	-230.274	  14.635
     78.9939	 148.000	 122.583	-223.333	  14.634
     79.0274	 154.000	 122.744	-217.494	  14.634
     79.0608	 145.000	 122.920	-226.670	  14.633
     79.0942	 153.000	 122.999	-218.749	  14.633
     79.1276	 150.000	 122.841	-221.591	  14.632
     79.1610	 149.000	 122.320	-222.070	  14.631
     79.1945	 137.000	 121.327	-233.077	  14.631
     79.2279	 111.000	 119.796	-257.546	  14.630
     79.2613	 104.000	 117.709	-262.459	  14.629
     79.2947	 141.000	 115.094	-222.844	  14.629
     79.3282	 110.000	 112.005	-250.755	  14.628
     79.3616	 121.000	 108.507	-236.257	  14.627
     79.3950	 106.000	 104.668	-247.418	  14.626
     79.4284	 138.000	 100.557	-211.307	  14.626
     79.4618	  88.000	  96.247	-256.997	  14.625
     79.4953	  94.000	  91.814	-246.564	  14.624
     79.5287	  98.000	  87.341	-238.091	  14.624
     79.5621	  91.000	  82.911	-240.661	  14.623
     79.5955	  84.000	  78.603	-243.353	  14.622
     79.6290	  74.000	  74.486	-249.236	  14.621
     79.6624	  77.000	  70.607	-242.357	  14.621
     79.6958	  84.000	  66.997	-231.747	  14.620
     79.7292	  70.000	  63.673	-242.423	  14.619
     79.7626	  64.000	  60.638	-245.388	  14.618
     79.7961	  68.000	  57.889	-238.639	  14.617
     79.8295	  46.000	  55.413	-258.163	  14.617
     79.8629	  44.000	  53.195	-257.945	  14.616
     79.8963	  48.000	  51.217	-251.967	  14.615
     79.9298	  58.000	  49.465	-240.215	  14.614
     79.9632	  52.000	  47.920	-244.670	  14.613
     79.9966	  55.000	  46.569	-240.319	  14.613
     80.0300	  51.000	  45.399	-243.149	  14.612
     80.0634	  63.000	  44.398	-230.148	  14.611
     80.0969	  44.000	  43.555	-248.305	  14.610
     80.1303	  38.000	  42.864	-253.614	  14.609
     80.1637	  45.000	  42.317	-246.067	  14.608
     80.1971	  41.000	  41.907	-249.657	  14.607
     80.2306	  43.000	  41.632	-247.382	  14.607
     80.2640	  59.000	  41.482	-231.232	  14.606
     80.2974	  49.000	  41.451	-241.201	  14.605
     80.3308	  51.000	  41.532	-239.282	  14.604
     80.3643	  48.000	  41.711	-242.461	  14.603
     80.3977	  46.000	  41.971	-244.721	  14.602
     80.4311	  45.000	  42.287	-246.037	  14.601
     80.4645	  30.000	  42.630	-261.380	  14.600
     80.4979	  50.000	  42.965	-241.715	  14.599
     80.5314	  38.000	  43.252	-254.002	  14.598
     80.5648	  49.000	  43.453	-243.203	  14.597
     80.5982	  60.000	  43.533	-232.283	  14.596
     80.6316	  46.000	  43.472	-246.222	  14.595
     80.6651	  56.000	  43.259	-236.009	  14.594
     80.6985	  50.000	  42.896	-241.646	  14.593
     80.7319	  38.000	  42.393	-253.143	  14.592
     80.7653	  34.000	  41.767	-256.517	  14.591
     80.7987	  52.000	  41.034	-237.784	  14.590
     80.8322	  39.000	  40.211	-249.961	  14.589
     80.8656	  42.000	  39.315	-246.065	  14.588
     80.8990	  37.000	  38.365	-250.115	  14.587
     80.9324	  42.000	  37.378	-244.128	  14.586
     80.9659	  34.000	  36.348	-251.098	  14.585
     80.9993	  32.000	  35.350	-252.100	  14.584
     81.0327	  30.000	  34.375	-253.125	  14.583
     81.0661	  35.000	  33.436	-247.186	  14.582
     81.0995	  27.000	  32.545	-254.295	  14.581
     81.1330	  33.000	  31.693	-247.443	  14.580
     81.1664	  28.000	  30.914	-251.664	  14.578
     81.1998	  27.000	  30.193	-251.943	  14.577
     81.2332	  36.000	  29.528	-242.278	  14.576
     81.2667	  29.000	  28.918	-248.668	  14.575
     81.3001	  24.000	  28.358	-253.108	  14.574
     81.3335	  25.000	  27.846	-251.596	  14.573
     81.3669	  38.000	  27.376	-238.126	  14.571
     81.4004	  21.000	  26.946	-254.696	  14.570
     81.4338	  24.000	  26.551	-251.301	  14.569
     81.4672	  25.000	  26.189	-249.939	  14.568
     81.5006	  27.000	  25.856	-247.606	  14.567
     81.5340	  23.000	  25.550	-251.300	  14.565
     81.5675	  28.000	  25.267	-246.017	  14.564
     81.6009	  22.000	  25.006	-251.756	  14.563
     81.6343	  21.000	  24.764	-252.514	  14.561
     81.6677	  30.000	  24.540	-243.290	  14.560
     81.7012	  22.000	  24.332	-251.082	  14.559
     81.7346	  19.000	  24.139	-253.889	  14.558
     81.7680	  25.000	  23.959	-247.709	  14.556
     81.8014	  19.000	  23.792	-253.542	  14.555
     81.8348	  27.000	  23.636	-245.386	  14.554
     81.8683	  19.000	  23.491	-253.241	  14.552
     81.9017	  18.000	  23.355	-254.105	  14.551
     81.9351	  18.000	  23.228	-253.978	  14.550
     81.9685	  18.000	  23.110	-253.860	  14.548
     82.0020	  18.000	  23.000	-253.750	  14.547
     82.0354	  25.000	  22.897	-246.647	  14.545
     82.0688	  27.000	  22.802	-244.552	  14.544
     82.1022	  24.000	  22.713	-247.463	  14.542
     82.1356	  14.000	  22.630	-257.380	  14.541
     82.1691	  22.000	  22.554	-249.304	  14.540
     82.2025	  15.000	  22.484	-256.234	  14.538
     82.2359	  22.000	  22.420	-249.170	  14.537
     82.2693	  20.000	  22.362	-251.112	  14.535
     82.3028	  11.000	  22.309	-260.059	  14.534
     82.3362	  28.000	  22.262	-243.012	  14.532
     82.3696	  15.000	  22.221	-255.971	  14.531
     82.4030	  16.000	  22.186	-254.936	  14.529
     82.4364	  16.000	  22.156	-254.906	  14.527
     82.4699	  16.000	  22.133	-254.883	  14.526
     82.5033	  17.000	  22.116	-253.866	  14.524
     82.5367	  24.000	  22.105	-246.855	  14.523
     82.5701	  23.000	  22.101	-247.851	  14.521
     82.6036	  18.000	  22.092	-252.842	  14.520
     82.6370	  25.000	  22.101	-245.851	  14.518
     82.6704	  22.000	  22.115	-248.865	  14.516
     82.7038	  14.000	  22.136	-256.886	  14.515
     82.7373	  15.000	  22.161	-255.911	  14.513
     82.7707	  17.000	  22.190	-253.940	  14.511
     82.8041	  16.000	  22.216	-254.966	  14.510
     82.8375	  22.000	  22.247	-248.997	  14.508
     82.8709	  23.000	  22.277	-248.027	  14.506
     82.9044	  20.000	  22.301	-251.051	  14.504
     82.9378	  22.000	  22.319	-249.069	  14.503
     82.9712	  19.000	  22.329	-252.079	  14.501
     83.0046	  15.000	  22.327	-256.077	  14.499
     83.0381	  15.000	  22.320	-256.070	  14.497
     83.0715	  27.000	  22.304	-244.054	  14.496
     83.1049	  25.000	  22.281	-246.031	  14.494
     83.1383	  31.000	  22.251	-240.001	  14.492
     83.1717	  18.000	  22.218	-252.968	  14.490
     83.2052	  17.000	  22.179	-253.929	  14.488
     83.2386	  12.000	  22.139	-258.889	  14.486
     83.2720	  23.000	  22.098	-247.848	  14.484
     83.3054	  24.000	  22.057	-246.807	  14.483
     83.3389	  17.000	  22.017	-253.767	  14.481
     83.3723	  21.000	  21.980	-249.730	  14.479
     83.4057	  15.000	  21.948	-255.698	  14.477
     83.4391	  14.000	  21.920	-256.670	  14.475
     83.4725	  20.000	  21.899	-250.649	  14.473
     83.5060	  15.000	  21.883	-255.633	  14.471
     83.5394	  12.000	  21.881	-258.631	  14.469
     83.5728	  14.000	  21.879	-256.629	  14.467
     83.6062	  25.000	  21.884	-245.634	  14.465
     83.6397	  16.000	  21.896	-254.646	  14.463
     83.6731	  21.000	  21.916	-249.666	  14.461
     83.7065	  22.000	  21.942	-248.692	  14.459
     83.7399	  19.000	  21.975	-251.725	  14.457
     83.7734	  25.000	  22.016	-245.766	  14.455
     83.8068	  21.000	  22.068	-249.818	  14.452
     83.8402	  17.000	  22.124	-253.874	  14.450
     83.8736	  22.000	  22.188	-248.938	  14.448
     83.9070	  15.000	  22.261	-256.011	  14.446
     83.9405	  15.000	  22.343	-256.093	  14.444
     83.9739	  23.000	  22.435	-248.185	  14.442
     84.0073	  12.000	  22.536	-259.286	  14.439
     84.0407	  15.000	  22.649	-256.399	  14.437
     84.0742	  18.000	  22.782	-253.532	  14.435
     84.1076	  18.000	  22.920	-253.670	  14.433
     84.1410	  21.000	  23.072	-250.822	  14.430
     84.1744	  18.000	  23.239	-253.989	  14.428
     84.2078	  27.000	  23.423	-245.173	  14.426
     84.2413	  11.000	  23.626	-261.376	  14.424
     84.2747	   9.000	  23.849	-263.599	  14.421
     84.3081	  23.000	  24.094	-249.844	  14.419
     84.3415	  14.000	  24.369	-259.119	  14.416
     84.3750	  23.000	  24.667	-250.417	  14.414
     84.4084	  22.000	  24.996	-251.746	  14.412
     84.4418	  24.000	  25.360	-250.110	  14.409
     84.4752	  23.000	  25.761	-251.511	  14.407
     84.5086	  23.000	  26.205	-251.955	  14.404
     84.5421	   8.000	  26.696	-267.445	  14.402
     84.5755	  19.000	  27.239	-256.989	  14.399
     84.6089	  33.000	  27.840	-243.590	  14.397
     84.6423	  27.000	  28.505	-250.255	  14.394
     84.6758	  27.000	  29.241	-250.991	  14.392
     84.7092	  30.000	  30.053	-248.803	  14.389
     84.7426	  32.000	  30.946	-247.696	  14.387
     84.7760	  35.000	  31.927	-245.677	  14.384
     84.8094	  27.000	  32.999	-254.749	  14.382
     84.8429	  24.000	  34.160	-258.910	  14.379
     84.8763	  30.000	  35.408	-254.158	  14.376
     84.9097	  33.000	  36.731	-252.481	  14.374
     84.9431	  39.000	  38.112	-247.862	  14.371
     84.9766	  37.000	  39.524	-251.274	  14.368
     85.0100	  49.000	  40.929	-240.679	  14.366
     85.0434	  36.000	  42.278	-255.028	  14.363
     85.0768	  41.000	  43.520	-251.270	  14.360
     85.1103	  58.000	  44.599	-235.349	  14.358
     85.1437	  39.000	  45.469	-255.219	  14.355
     85.1771	  44.000	  46.088	-250.838	  14.352
     85.2105	  50.000	  46.439	-245.189	  14.349
     85.2439	  57.000	  46.523	-238.273	  14.346
     85.2774	  39.000	  46.353	-256.103	  14.343
     85.3108	  55.000	  45.955	-239.705	  14.341
     85.3442	  46.000	  45.355	-248.105	  14.338
     85.3776	  48.000	  44.581	-245.331	  14.335
     85.4111	  41.000	  43.658	-251.408	  14.332
     85.4445	  51.000	  42.610	-240.360	  14.329
     85.4779	  57.000	  41.461	-233.211	  14.326
     85.5113	  54.000	  40.239	-234.989	  14.323
     85.5447	  51.000	  38.974	-236.724	  14.320
     85.5782	  51.000	  37.698	-235.448	  14.317
     85.6116	  28.000	  36.437	-257.187	  14.314
     85.6450	  39.000	  35.215	-244.965	  14.311
     85.6784	  38.000	  34.049	-244.799	  14.308
     85.7119	  34.000	  32.954	-247.704	  14.305
     85.7453	  22.000	  31.936	-258.686	  14.302
     85.7787	  38.000	  30.997	-241.747	  14.299
     85.8121	  25.000	  30.139	-253.889	  14.296
     85.8456	  25.000	  29.358	-253.108	  14.292
     85.8790	  31.000	  28.651	-246.401	  14.289
     85.9124	  25.000	  28.012	-251.762	  14.286
     85.9458	  23.000	  27.436	-253.186	  14.283
     85.9792	  25.000	  26.919	-250.669	  14.280
     86.0127	  28.000	  26.456	-247.206	  14.276
     86.0461	  23.000	  26.041	-251.791	  14.273
     86.0795	  23.000	  25.670	-251.420	  14.270
     86.1129	  17.000	  25.340	-257.090	  14.266
     86.1464	  15.000	  25.047	-258.797	  14.263
     86.1798	  14.000	  24.787	-259.537	  14.260
     86.2132	  21.000	  24.559	-252.309	  14.256
     86.2466	  28.000	  24.360	-245.110	  14.253
     86.2800	  15.000	  24.188	-257.938	  14.250
     86.3135	  29.000	  24.041	-243.791	  14.246
     86.3469	  24.000	  23.918	-248.668	  14.243
     86.3803	  18.000	  23.819	-254.569	  14.239
     86.4137	  27.000	  23.741	-245.491	  14.236
     86.4472	  17.000	  23.686	-255.436	  14.232
     86.4806	  11.000	  23.652	-261.402	  14.229
     86.5140	  22.000	  23.639	-250.389	  14.225
     86.5474	  21.000	  23.648	-251.398	  14.222
     86.5808	  19.000	  23.680	-253.430	  14.218
     86.6143	  25.000	  23.734	-247.484	  14.214
     86.6477	  29.000	  23.813	-243.563	  14.211
     86.6811	  17.000	  23.916	-255.666	  14.207
     86.7145	  18.000	  24.046	-254.796	  14.203
     86.7480	  24.000	  24.204	-248.954	  14.200
     86.7814	  20.000	  24.391	-253.141	  14.196
     86.8148	  18.000	  24.609	-255.359	  14.192
     86.8482	  21.000	  24.860	-252.610	  14.188
     86.8816	  21.000	  25.143	-252.893	  14.185
     86.9151	  24.000	  25.460	-250.210	  14.181
     86.9485	  21.000	  25.810	-253.560	  14.177
     86.9819	  30.000	  26.190	-244.940	  14.173
     87.0153	  19.000	  26.596	-256.346	  14.169
     87.0488	  28.000	  27.023	-247.773	  14.165
     87.0822	  22.000	  27.461	-254.211	  14.162
     87.1156	  34.000	  27.900	-242.650	  14.158
     87.1490	  27.000	  28.327	-250.077	  14.154
     87.1824	  21.000	  28.730	-256.480	  14.150
     87.2159	  23.000	  29.098	-254.848	  14.146
     87.2493	  23.000	  29.421	-255.171	  14.142
     87.2827	  20.000	  29.695	-258.445	  14.138
     87.3161	  30.000	  29.917	-248.667	  14.134
     87.3496	  28.000	  30.089	-250.839	  14.130
     87.3830	  25.000	  30.211	-253.961	  14.125
     87.4164	  25.000	  30.283	-254.033	  14.121
     87.4498	  39.000	  30.304	-240.054	  14.117
     87.4833	  33.000	  30.269	-246.019	  14.113
     87.5167	  30.000	  30.175	-248.925	  14.109
     87.5501	  34.000	  30.019	-244.769	  14.105
     87.5835	  32.000	  29.802	-246.552	  14.100
     87.6169	  25.000	  29.528	-253.278	  14.096
     87.6504	  30.000	  29.203	-247.953	  14.092
     87.6838	  23.000	  28.838	-254.588	  14.087
     87.7172	  23.000	  28.442	-254.193	  14.083
     87.7506	  25.000	  28.004	-251.754	  14.079
     87.7841	  20.000	  27.574	-256.324	  14.074
     87.8175	  24.000	  27.137	-251.887	  14.070
     87.8509	  28.000	  26.698	-247.448	  14.066
     87.8843	  24.000	  26.261	-251.011	  14.061
     87.9177	  23.000	  25.830	-251.580	  14.057
     87.9512	  19.000	  25.409	-255.159	  14.052
     87.9846	  24.000	  24.990	-249.740	  14.048
     88.0180	  20.000	  24.600	-253.350	  14.043
     88.0514	  33.000	  24.230	-239.980	  14.039
     88.0849	  29.000	  23.882	-243.633	  14.034
     88.1183	  22.000	  23.558	-250.308	  14.029
     88.1517	  20.000	  23.258	-252.008	  14.025
     88.1851	  15.000	  22.981	-256.731	  14.020
     88.2186	  21.000	  22.727	-250.477	  14.015
     88.2520	  18.000	  22.496	-253.246	  14.011
     88.2854	  18.000	  22.284	-253.034	  14.006
     88.3188	  23.000	  22.092	-247.842	  14.001
     88.3522	  18.000	  21.917	-252.667	  13.996
     88.3857	  17.000	  21.758	-253.508	  13.992
     88.4191	  24.000	  21.613	-246.363	  13.987
     88.4525	  18.000	  21.482	-252.232	  13.982
     88.4859	  19.000	  21.368	-251.118	  13.977
     88.5193	  18.000	  21.260	-252.010	  13.972
     88.5528	  27.000	  21.163	-242.913	  13.967
     88.5862	  14.000	  21.077	-255.827	  13.962
     88.6196	  14.000	  20.997	-255.747	  13.957
     88.6530	  22.000	  20.924	-247.674	  13.952
     88.6865	  19.000	  20.848	-250.598	  13.947
     88.7199	  11.000	  20.789	-258.539	  13.942
     88.7533	  24.000	  20.738	-245.488	  13.937
     88.7867	  11.000	  20.692	-258.442	  13.932
     88.8202	  25.000	  20.650	-244.400	  13.927
     88.8536	  17.000	  20.612	-252.362	  13.922
     88.8870	  18.000	  20.580	-251.330	  13.917
     88.9204	  22.000	  20.545	-247.295	  13.912
     88.9538	  15.000	  20.520	-254.270	  13.906
     88.9873	  14.000	  20.498	-255.248	  13.901
     89.0207	  19.000	  20.480	-250.230	  13.896
     89.0541	  14.000	  20.467	-255.217	  13.890
     89.0875	  25.000	  20.455	-244.205	  13.885
     89.1210	  16.000	  20.447	-253.197	  13.880
     89.1544	  19.000	  20.442	-250.192	  13.874
     89.1878	  12.000	  20.439	-257.189	  13.869
     89.2212	  22.000	  20.440	-247.190	  13.864
     89.2546	  20.000	  20.443	-249.193	  13.858
     89.2881	  10.000	  20.449	-259.199	  13.853
     89.3215	  21.000	  20.458	-248.208	  13.847
     89.3549	   7.000	  20.469	-262.219	  13.842
     89.3883	  10.000	  20.485	-259.235	  13.836
     89.4218	  28.000	  20.502	-241.252	  13.831
     89.4552	  16.000	  20.521	-253.271	  13.825
     89.4886	  14.000	  20.544	-255.294	  13.819
     89.5220	  24.000	  20.569	-245.319	  13.814
     89.5555	  12.000	  20.597	-257.347	  13.808
     89.5889	  17.000	  20.628	-252.378	  13.802
     89.6223	  27.000	  20.662	-242.412	  13.797
     89.6557	  17.000	  20.699	-252.449	  13.791
     89.6891	  19.000	  20.740	-250.490	  13.785
     89.7226	  22.000	  20.783	-247.533	  13.779
     89.7560	  17.000	  20.830	-252.580	  13.773
     89.7894	  19.000	  20.880	-250.630	  13.767
     89.8228	  20.000	  20.934	-249.684	  13.762
     89.8563	  18.000	  20.991	-251.741	  13.756
     89.8897	  25.000	  21.053	-244.803	  13.750
     89.9231	  18.000	  21.119	-251.868	  13.744
     89.9565	  31.000	  21.188	-238.938	  13.738
     89.9899	  19.000	  21.263	-251.013	  13.732
     90.0234	  12.000	  21.342	-258.092	  13.726
     90.0568	  15.000	  21.427	-255.177	  13.719
     90.0902	  18.000	  21.517	-252.267	  13.713
     90.1236	  12.000	  21.614	-258.364	  13.707
     90.1571	  21.000	  21.716	-249.466	  13.701
     90.1905	  22.000	  21.824	-248.574	  13.695
     90.2239	  16.000	  21.938	-254.688	  13.689
     90.2573	  21.000	  22.061	-249.811	  13.682
     90.2907	  14.000	  22.191	-256.941	  13.676
     90.3242	  15.000	  22.329	-256.079	  13.670
     90.3576	  15.000	  22.476	-256.226	  13.663
     90.3910	  19.000	  22.635	-252.385	  13.657
     90.4244	  29.000	  22.803	-242.553	  13.651
     90.4579	  22.000	  22.981	-249.731	  13.644
     90.4913	  14.000	  23.172	-257.922	  13.638
     90.5247	  18.000	  23.376	-254.126	  13.631
     90.5581	  17.000	  23.594	-255.344	  13.625
     90.5915	  27.000	  23.827	-245.577	  13.618
     90.6250	  23.000	  24.077	-249.827	  13.612
     90.6584	  18.000	  24.346	-255.096	  13.605
     90.6918	  25.000	  24.630	-248.380	  13.599
     90.7252	  28.000	  24.940	-245.690	  13.592
     90.7587	  30.000	  25.274	-244.024	  13.585
     90.7921	  22.000	  25.634	-252.384	  13.578
     90.8255	  28.000	  26.023	-246.773	  13.572
     90.8589	  20.000	  26.444	-255.194	  13.565
     90.8923	  28.000	  26.899	-247.649	  13.558
     90.9258	  25.000	  27.391	-251.141	  13.551
     90.9592	  18.000	  27.928	-258.678	  13.544
     90.9926	  38.000	  28.511	-239.261	  13.538
     91.0260	  29.000	  29.147	-248.897	  13.531
     91.0595	  31.000	  29.840	-247.590	  13.524
     91.0929	  41.000	  30.597	-238.347	  13.517
     91.1263	  38.000	  31.423	-242.173	  13.510
     91.1597	  28.000	  32.327	-253.077	  13.503
     91.1932	  28.000	  33.316	-254.066	  13.496
     91.2266	  29.000	  34.399	-254.149	  13.489
     91.2600	  27.000	  35.583	-257.333	  13.481
     91.2934	  37.000	  36.877	-248.627	  13.474
     91.3268	  43.000	  38.290	-244.040	  13.467
     91.3603	  42.000	  39.828	-246.578	  13.460
     91.3937	  33.000	  41.497	-257.247	  13.453
     91.4271	  39.000	  43.299	-253.049	  13.445
     91.4605	  47.000	  45.231	-246.981	  13.438
     91.4940	  44.000	  47.285	-252.035	  13.431
     91.5274	  56.000	  49.445	-242.195	  13.423
     91.5608	  51.000	  51.685	-249.435	  13.416
     91.5942	  63.000	  53.968	-239.718	  13.409
     91.6276	  66.000	  56.250	-239.000	  13.401
     91.6611	  69.000	  58.476	-238.226	  13.394
     91.6945	  84.000	  60.590	-225.340	  13.386
     91.7279	  71.000	  62.538	-240.288	  13.379
     91.7613	  84.000	  64.274	-229.024	  13.371
     91.7948	  77.000	  65.768	-237.518	  13.363
     91.8282	  66.000	  67.003	-249.753	  13.356
     91.8616	  77.000	  67.979	-239.729	  13.348
     91.8950	  76.000	  68.706	-241.456	  13.340
     91.9285	  63.000	  69.201	-254.951	  13.333
     91.9619	  84.000	  69.485	-234.235	  13.325
     91.9953	  66.000	  69.578	-252.328	  13.317
     92.0287	  78.000	  69.503	-240.253	  13.309
     92.0621	  76.000	  69.286	-242.036	  13.302
     92.0956	  82.000	  68.953	-235.703	  13.294
     92.1290	  65.000	  68.533	-252.283	  13.286
     92.1624	  77.000	  68.054	-239.804	  13.278
     92.1958	  73.000	  67.537	-243.287	  13.270
     92.2293	  72.000	  66.996	-243.746	  13.262
     92.2627	  77.000	  66.434	-238.184	  13.254
     92.2961	  74.000	  65.845	-240.595	  13.246
     92.3295	  57.000	  65.211	-256.961	  13.238
     92.3629	  68.000	  64.511	-245.261	  13.229
     92.3964	  63.000	  63.723	-249.473	  13.221
     92.4298	  61.000	  62.829	-250.579	  13.213
     92.4632	  51.000	  61.819	-259.569	  13.205
     92.4966	  44.000	  60.695	-265.445	  13.197
     92.5301	  61.000	  59.468	-247.218	  13.188
     92.5635	  46.000	  58.152	-260.902	  13.180
     92.5969	  58.000	  56.770	-247.520	  13.172
     92.6303	  70.000	  55.332	-234.082	  13.163
     92.6637	  63.000	  53.856	-239.606	  13.155
     92.6972	  44.000	  52.351	-257.101	  13.146
     92.7306	  41.000	  50.827	-258.577	  13.138
     92.7640	  49.000	  49.294	-249.044	  13.129
     92.7974	  39.000	  47.762	-257.512	  13.121
     92.8309	  47.000	  46.248	-247.998	  13.112
     92.8643	  43.000	  44.767	-250.517	  13.103
     92.8977	  43.000	  43.338	-249.088	  13.095
     92.9311	  37.000	  41.975	-253.725	  13.086
     92.9645	  38.000	  40.693	-251.443	  13.077
     92.9980	  36.000	  39.501	-252.251	  13.069
     93.0314	  29.000	  38.406	-258.156	  13.060
     93.0648	  38.000	  37.414	-248.164	  13.051
     93.0982	  37.000	  36.526	-248.276	  13.042
     93.1317	  47.000	  35.740	-237.490	  13.033
     93.1651	  25.000	  35.056	-258.806	  13.024
     93.1985	  33.000	  34.471	-250.221	  13.015
     93.2319	  31.000	  33.982	-251.732	  13.006
     93.2654	  28.000	  33.587	-254.337	  12.997
     93.2988	  29.000	  33.284	-253.034	  12.988
     93.3322	  24.000	  33.069	-257.819	  12.979
     93.3656	  36.000	  32.942	-245.692	  12.970
     93.3990	  18.000	  32.908	-263.658	  12.961
     93.4325	  38.000	  32.947	-243.697	  12.952
     93.4659	  34.000	  33.067	-247.817	  12.942
     93.4993	  31.000	  33.263	-251.013	  12.933
     93.5327	  37.000	  33.534	-245.284	  12.924
     93.5662	  35.000	  33.864	-247.614	  12.915
     93.5996	  28.000	  34.246	-254.996	  12.905
     93.6330	  23.000	  34.668	-260.418	  12.896
     93.6664	  32.000	  35.113	-251.863	  12.886
     93.6998	  33.000	  35.565	-251.315	  12.877
     93.7333	  31.000	  35.994	-253.744	  12.867
     93.7667	  37.000	  36.381	-248.131	  12.858
     93.8001	  21.000	  36.708	-264.458	  12.848
     93.8335	  38.000	  36.961	-247.711	  12.839
     93.8670	  23.000	  37.133	-262.883	  12.829
     93.9004	  28.000	  37.209	-257.959	  12.819
     93.9338	  42.000	  37.197	-243.947	  12.810
     93.9672	  29.000	  37.104	-256.854	  12.800
     94.0006	  37.000	  36.934	-248.684	  12.790
     94.0341	  41.000	  36.692	-244.442	  12.780
     94.0675	  35.000	  36.380	-250.130	  12.770
     94.1009	  51.000	  35.999	-233.749	  12.760
     94.1343	  45.000	  35.550	-239.300	  12.751
     94.1678	  33.000	  35.040	-250.790	  12.741
     94.2012	  27.000	  34.465	-256.215	  12.731
     94.2346	  30.000	  33.839	-252.589	  12.721
     94.2680	  33.000	  33.174	-248.924	  12.710
     94.3015	  39.000	  32.482	-242.232	  12.700
     94.3349	  28.000	  31.776	-252.526	  12.690
     94.3683	  29.000	  31.069	-250.819	  12.680
     94.4017	  37.000	  30.368	-242.118	  12.670
     94.4351	  24.000	  29.682	-254.432	  12.660
     94.4686	  24.000	  29.015	-253.765	  12.649
     94.5020	  33.000	  28.369	-244.119	  12.639
     94.5354	  27.000	  27.749	-249.499	  12.629
     94.5688	  23.000	  27.154	-252.904	  12.618
     94.6022	  28.000	  26.589	-247.339	  12.608
     94.6357	  22.000	  26.053	-252.803	  12.597
     94.6691	  27.000	  25.547	-247.297	  12.587
     94.7025	  19.000	  25.073	-254.823	  12.576
     94.7359	  14.000	  24.629	-259.379	  12.566
     94.7694	  27.000	  24.217	-245.967	  12.555
     94.8028	  23.000	  23.834	-249.584	  12.544
     94.8362	  27.000	  23.481	-245.231	  12.534
     94.8696	  23.000	  23.153	-248.903	  12.523
     94.9031	  23.000	  22.850	-248.600	  12.512
     94.9365	  22.000	  22.571	-249.321	  12.501
     94.9699	  18.000	  22.313	-253.063	  12.491
     95.0033	  15.000	  22.075	-255.825	  12.480
     95.0367	  25.000	  21.855	-245.605	  12.469
     95.0702	  20.000	  21.653	-250.403	  12.458
     95.1036	  18.000	  21.465	-252.215	  12.447
     95.1370	  25.000	  21.293	-245.043	  12.436
     95.1704	  12.000	  21.133	-257.883	  12.425
     95.2039	  25.000	  20.985	-244.735	  12.414
     95.2373	  15.000	  20.848	-254.598	  12.403
     95.2707	  27.000	  20.721	-242.471	  12.391
     95.3041	  15.000	  20.603	-254.353	  12.380
     95.3375	  21.000	  20.481	-248.231	  12.369
     95.3710	  22.000	  20.380	-247.130	  12.358
     95.4044	  15.000	  20.287	-254.037	  12.346
     95.4378	  12.000	  20.200	-256.950	  12.335
     95.4712	  15.000	  20.120	-253.870	  12.323
     95.5047	  21.000	  20.038	-247.788	  12.312
     95.5381	  22.000	  19.969	-246.719	  12.301
     95.5715	  17.000	  19.906	-251.656	  12.289
     95.6049	  20.000	  19.843	-248.593	  12.278
     95.6384	  18.000	  19.790	-250.540	  12.266
     95.6718	  22.000	  19.742	-246.492	  12.254
     95.7052	  19.000	  19.698	-249.448	  12.243
     95.7386	  16.000	  19.647	-252.397	  12.231
     95.7720	  15.000	  19.608	-253.358	  12.219
     95.8055	  19.000	  19.577	-249.327	  12.207
     95.8389	  21.000	  19.550	-247.300	  12.196
     95.8723	  17.000	  19.527	-251.277	  12.184
     95.9057	  15.000	  19.508	-253.258	  12.172
     95.9392	  27.000	  19.492	-241.242	  12.160
     95.9726	  27.000	  19.474	-241.224	  12.148
     96.0060	  20.000	  19.466	-248.216	  12.136
     96.0394	  11.000	  19.461	-257.211	  12.124
     96.0728	  22.000	  19.461	-246.211	  12.112
     96.1063	  24.000	  19.463	-244.213	  12.100
     96.1397	  15.000	  19.470	-253.220	  12.087
     96.1731	  20.000	  19.480	-248.230	  12.075
     96.2065	  18.000	  19.495	-250.245	  12.063
     96.2400	  25.000	  19.513	-243.263	  12.051
     96.2734	  18.000	  19.511	-250.261	  12.038
     96.3068	  12.000	  19.538	-256.288	  12.026
     96.3402	  24.000	  19.568	-244.318	  12.013
     96.3736	  16.000	  19.604	-252.354	  12.001
     96.4071	  21.000	  19.644	-247.394	  11.988
     96.4405	  22.000	  19.689	-246.439	  11.976
     96.4739	  14.000	  19.739	-254.489	  11.963
     96.5073	  22.000	  19.782	-246.532	  11.951
     96.5408	  18.000	  19.842	-250.592	  11.938
     96.5742	  15.000	  19.909	-253.659	  11.925
     96.6076	  19.000	  19.980	-249.730	  11.913
     96.6410	  14.000	  20.058	-254.808	  11.900
     96.6745	  23.000	  20.142	-245.892	  11.887
     96.7079	  34.000	  20.231	-234.981	  11.874
     96.7413	  24.000	  20.327	-245.077	  11.861
     96.7747	  42.000	  20.429	-227.179	  11.848
     96.8081	  21.000	  20.538	-248.288	  11.835
     96.8416	  18.000	  20.654	-251.404	  11.822
     96.8750	  27.000	  20.777	-242.527	  11.809
     96.9084	  17.000	  20.908	-252.658	  11.796
     96.9418	  24.000	  21.049	-245.799	  11.783
     96.9753	  19.000	  21.199	-250.949	  11.770
     97.0087	  16.000	  21.359	-254.109	  11.757
     97.0421	  23.000	  21.532	-247.282	  11.743
     97.0755	  18.000	  21.718	-252.468	  11.730
     97.1089	  30.000	  21.918	-240.668	  11.717
     97.1424	  28.000	  22.134	-242.884	  11.703
     97.1758	  24.000	  22.367	-247.117	  11.690
     97.2092	  28.000	  22.619	-243.369	  11.676
     97.2426	  28.000	  22.893	-243.643	  11.663
     97.2761	  25.000	  23.189	-246.939	  11.649
     97.3095	  29.000	  23.511	-243.261	  11.636
     97.3429	  22.000	  23.860	-250.610	  11.622
     97.3763	  29.000	  24.241	-243.991	  11.608
     97.4097	  27.000	  24.656	-246.406	  11.595
     97.4432	  30.000	  25.108	-243.858	  11.581
     97.4766	  32.000	  25.601	-242.351	  11.567
     97.5100	  30.000	  26.139	-244.889	  11.553
     97.5434	  33.000	  26.727	-242.477	  11.539
     97.5769	  32.000	  27.370	-244.120	  11.525
     97.6103	  30.000	  28.072	-246.822	  11.511
     97.6437	  44.000	  28.839	-233.589	  11.497
     97.6771	  41.000	  29.677	-237.427	  11.483
     97.7105	  42.000	  30.591	-237.341	  11.469
     97.7440	  49.000	  31.587	-231.337	  11.455
     97.7774	  35.000	  32.670	-246.420	  11.441
     97.8108	  34.000	  33.845	-248.595	  11.427
     97.8442	  43.000	  35.109	-240.859	  11.412
     97.8777	  44.000	  36.473	-241.223	  11.398
     97.9111	  50.000	  37.931	-236.681	  11.384
     97.9445	  49.000	  39.473	-239.223	  11.369
     97.9779	  57.000	  41.090	-232.840	  11.355
     98.0114	  55.000	  42.761	-236.511	  11.340
     98.0448	  61.000	  44.459	-232.209	  11.326
     98.0782	  70.000	  46.150	-224.900	  11.311
     98.1116	  61.000	  47.791	-235.541	  11.297
     98.1450	  58.000	  49.342	-240.092	  11.282
     98.1785	  63.000	  50.755	-236.505	  11.267
     98.2119	  72.000	  51.989	-228.739	  11.252
     98.2453	  57.000	  53.014	-244.764	  11.238
     98.2787	  76.000	  53.815	-226.565	  11.223
     98.3122	  70.000	  54.388	-233.138	  11.208
     98.3456	  75.000	  54.747	-228.497	  11.193
     98.3790	  65.000	  54.916	-238.666	  11.178
     98.4124	  64.000	  54.925	-239.675	  11.163
     98.4458	  57.000	  54.799	-246.549	  11.148
     98.4793	  60.000	  54.565	-243.315	  11.133
     98.5127	  77.000	  54.247	-225.997	  11.118
     98.5461	  65.000	  53.861	-237.611	  11.102
     98.5795	  62.000	  53.424	-240.174	  11.087
     98.6130	  81.000	  52.954	-220.704	  11.072
     98.6464	  66.000	  52.468	-235.218	  11.057
     98.6798	  71.000	  51.986	-229.736	  11.041
     98.7132	  78.000	  51.529	-222.279	  11.026
     98.7467	  72.000	  51.114	-227.864	  11.010
     98.7801	  71.000	  50.757	-228.507	  10.995
     98.8135	  84.000	  50.462	-215.212	  10.979
     98.8469	  61.000	  50.229	-237.979	  10.964
     98.8803	  70.000	  50.045	-228.795	  10.948
     98.9138	  70.000	  49.892	-228.642	  10.932
     98.9472	  60.000	  49.742	-238.492	  10.917
     98.9806	  60.000	  49.566	-238.316	  10.901
     99.0140	  55.000	  49.334	-243.084	  10.885
     99.0474	  63.000	  49.020	-234.770	  10.869
     99.0809	  49.000	  48.607	-248.357	  10.853
     99.1143	  56.000	  48.085	-240.835	  10.837
     99.1477	  55.000	  47.457	-241.207	  10.821
     99.1811	  74.000	  46.729	-221.479	  10.805
     99.2146	  69.000	  45.914	-225.664	  10.789
     99.2480	  55.000	  45.024	-238.774	  10.773
     99.2814	  43.000	  44.073	-249.823	  10.757
     99.3148	  62.000	  43.068	-229.818	  10.741
     99.3483	  45.000	  42.018	-245.768	  10.724
     99.3817	  60.000	  40.927	-229.677	  10.708
     99.4151	  45.000	  39.801	-243.551	  10.692
     99.4485	  50.000	  38.648	-237.398	  10.675
     99.4819	  51.000	  37.478	-235.228	  10.659
     99.5154	  43.000	  36.303	-242.053	  10.642
     99.5488	  49.000	  35.136	-234.886	  10.626
     99.5822	  44.000	  33.991	-238.741	  10.609
     99.6156	  36.000	  32.881	-245.631	  10.592
     99.6491	  52.000	  31.815	-228.565	  10.576
     99.6825	  57.000	  30.800	-222.550	  10.559
     99.7159	  39.000	  29.843	-239.593	  10.542
     99.7493	  37.000	  28.947	-240.697	  10.525
     99.7827	  41.000	  28.111	-235.861	  10.509
     99.8162	  49.000	  27.336	-227.086	  10.492
     99.8496	  45.000	  26.620	-230.370	  10.475
     99.8830	  38.000	  25.960	-236.710	  10.458
     99.9164	  23.000	  25.354	-251.104	  10.441
     99.9499	  27.000	  24.799	-246.549	  10.423
     99.9833	  29.000	  24.319	-244.069	  10.406
     15.8783	        	        	        	        	       0	(  0  1  0)	  0  1 :  1
     15.9177	        	        	        	        	       0	(  0  1  0)	  0  2 :  1
     27.7108	        	        	        	        	       0	(  1  1  0)	  0  1 :  1
     27.7804	        	        	        	        	       0	(  1  1  0)	  0  2 :  1
     28.6945	        	        	        	        	       0	(  0  1  1)	  0  1 :  1
     28.7667	        	        	        	        	       0	(  0  1  1)	  0  2 :  1
     32.1113	        	        	        	        	       0	(  0  2  0)	  0  1 :  1
     32.1925	        	        	        	        	       0	(  0  2  0)	  0  2 :  1
     36.8121	        	        	        	        	       0	(  1  1  1)	  0  1 :  1
     36.9061	        	        	        	        	       0	(  1  1  1)	  0  2 :  1
     40.3324	        	        	        	        	       0	(  0  2  1)	  0  1 :  1
     40.4360	        	        	        	        	       0	(  0  2  1)	  0  2 :  1
     42.9360	        	        	        	        	       0	(  1  2  0)	  0  1 :  1
     42.9360	        	        	        	        	       0	(  2  1  0)	  0  1 :  1
     43.0470	        	        	        	        	       0	(  1  2  0)	  0  2 :  1
     43.0470	        	        	        	        	       0	(  2  1  0)	  0  2 :  1
     48.5986	        	        	        	        	       0	(  0  0  2)	  0  1 :  1
     48.7261	        	        	        	        	       0	(  0  0  2)	  0  2 :  1
     49.0428	        	        	        	        	       0	(  0  3  0)	  0  1 :  1
     49.1715	        	        	        	        	       0	(  0  3  0)	  0  2 :  1
     49.6559	        	        	        	        	       0	(  1  2  1)	  0  1 :  1
     49.6559	        	        	        	        	       0	(  2  1  1)	  0  1 :  1
     49.7865	        	        	        	        	       0	(  1  2  1)	  0  2 :  1
     49.7865	        	        	        	        	       0	(  2  1  1)	  0  2 :  1
     51.4633	        	        	        	        	       0	(  0  1  2)	  0  1 :  1
     51.5993	        	        	        	        	       0	(  0  1  2)	  0  2 :  1
     55.1978	        	        	        	        	       0	(  0  3  1)	  0  1 :  1
     55.3453	        	        	        	        	       0	(  0  3  1)	  0  2 :  1
     56.8808	        	        	        	        	       0	(  1  1  2)	  0  1 :  1
     57.0336	        	        	        	        	       0	(  1  1  2)	  0  2 :  1
     57.2790	        	        	        	        	       0	(  2  2  0)	  0  1 :  1
     57.4332	        	        	        	        	       0	(  2  2  0)	  0  2 :  1
     59.4651	        	        	        	        	       0	(  0  2  2)	  0  1 :  1
     59.6263	        	        	        	        	       0	(  0  2  2)	  0  2 :  1
     59.8525	        	        	        	        	       0	(  1  3  0)	  0  1 :  1
     59.8525	        	        	        	        	       0	(  3  1  0)	  0  1 :  1
     60.0149	        	        	        	        	       0	(  1  3  0)	  0  2 :  1
     60.0149	        	        	        	        	       0	(  3  1  0)	  0  2 :  1
     62.8845	        	        	        	        	       0	(  2  2  1)	  0  1 :  1
     63.0571	        	        	        	        	       0	(  2  2  1)	  0  2 :  1
     65.3255	        	        	        	        	       0	(  1  3  1)	  0  1 :  1
     65.3255	        	        	        	        	       0	(  3  1  1)	  0  1 :  1
     65.5065	        	        	        	        	       0	(  1  3  1)	  0  2 :  1
     65.5065	        	        	        	        	       0	(  3  1  1)	  0  2 :  1
     66.8527	        	        	        	        	       0	(  1  2  2)	  0  1 :  1
     66.8527	        	        	        	        	       0	(  2  1  2)	  0  1 :  1
     67.0390	        	        	        	        	       0	(  1  2  2)	  0  2 :  1
     67.0390	        	        	        	        	       0	(  2  1  2)	  0  2 :  1
     67.2159	        	        	        	        	       0	(  0  4  0)	  0  1 :  1
     67.4035	        	        	        	        	       0	(  0  4  0)	  0  2 :  1
     71.5520	        	        	        	        	       0	(  0  3  2)	  0  1 :  1
     71.7554	        	        	        	        	       0	(  0  3  2)	  0  2 :  1
     72.3931	        	        	        	        	       0	(  0  4  1)	  0  1 :  1
     72.5997	        	        	        	        	       0	(  0  4  1)	  0  2 :  1
     74.2000	        	        	        	        	       0	(  2  3  0)	  0  1 :  1
     74.2000	        	        	        	        	       0	(  3  2  0)	  0  1 :  1
     74.4135	        	        	        	        	       0	(  2  3  0)	  0  2 :  1
     74.4135	        	        	        	        	       0	(  3  2  0)	  0  2 :  1
     78.3778	        	        	        	        	       0	(  2  2  2)	  0  1 :  1
     78.5115	        	        	        	        	       0	(  0  1  3)	  0  1 :  1
     78.6080	        	        	        	        	       0	(  2  2  2)	  0  2 :  1
     78.7190	        	        	        	        	       0	(  1  4  0)	  0  1 :  1
     78.7190	        	        	        	        	       0	(  4  1  0)	  0  1 :  1
     78.7423	        	        	        	        	       0	(  0  1  3)	  0  2 :  1
     78.9506	        	        	        	        	       0	(  1  4  0)	  0  2 :  1
     78.9506	        	        	        	        	       0	(  4  1  0)	  0  2 :  1
     79.1932	        	        	        	        	       0	(  2  3  1)	  0  1 :  1
     79.1932	        	        	        	        	       0	(  3  2  1)	  0  1 :  1
     79.4268	        	        	        	        	       0	(  2  3  1)	  0  2 :  1
     79.4268	        	        	        	        	       0	(  3  2  1)	  0  2 :  1
     80.6116	        	        	        	        	       0	(  1  3  2)	  0  1 :  1
     80.6116	        	        	        	        	       0	(  3  1  2)	  0  1 :  1
     80.8511	        	        	        	        	       0	(  1  3  2)	  0  2 :  1
     80.8511	        	        	        	        	       0	(  3  1  2)	  0  2 :  1
     82.9631	        	        	        	        	       0	(  1  1  3)	  0  1 :  1
     83.2128	        	        	        	        	       0	(  1  1  3)	  0  2 :  1
     83.6366	        	        	        	        	       0	(  1  4  1)	  0  1 :  1
     83.6366	        	        	        	        	       0	(  4  1  1)	  0  1 :  1
     83.8893	        	        	        	        	       0	(  1  4  1)	  0  2 :  1
     83.8893	        	        	        	        	       0	(  4  1  1)	  0  2 :  1
     85.1714	        	        	        	        	       0	(  0  2  3)	  0  1 :  1
     85.4310	        	        	        	        	       0	(  0  2  3)	  0  2 :  1
     87.2414	        	        	        	        	       0	(  0  4  2)	  0  1 :  1
     87.5105	        	        	        	        	       0	(  0  4  2)	  0  2 :  1
     87.5762	        	        	        	        	       0	(  0  5  0)	  0  1 :  1
     87.8469	        	        	        	        	       0	(  0  5  0)	  0  2 :  1
     91.7666	        	        	        	        	       0	(  2  1  3)	  0  1 :  1
     91.7666	        	        	        	        	       0	(  1  2  3)	  0  1 :  1
     91.9702	        	        	        	        	       0	(  3  3  0)	  0  1 :  1
     92.0580	        	        	        	        	       0	(  1  2  3)	  0  2 :  1
     92.0580	        	        	        	        	       0	(  2  1  3)	  0  2 :  1
     92.2625	        	        	        	        	       0	(  3  3  0)	  0  2 :  1
     92.4360	        	        	        	        	       0	(  0  5  1)	  0  1 :  1
     92.7308	        	        	        	        	       0	(  0  5  1)	  0  2 :  1
     93.8347	        	        	        	        	       0	(  2  3  2)	  0  1 :  1
     93.8347	        	        	        	        	       0	(  3  2  2)	  0  1 :  1
     94.1368	        	        	        	        	       0	(  2  3  2)	  0  2 :  1
     94.1368	        	        	        	        	       0	(  3  2  2)	  0  2 :  1
     94.1700	        	        	        	        	       0	(  2  4  0)	  0  1 :  1
     94.1700	        	        	        	        	       0	(  4  2  0)	  0  1 :  1
     94.4738	        	        	        	        	       0	(  2  4  0)	  0  2 :  1
     94.4738	        	        	        	        	       0	(  4  2  0)	  0  2 :  1
     96.1713	        	        	        	        	       0	(  0  3  3)	  0  1 :  1
     96.4861	        	        	        	        	       0	(  0  3  3)	  0  2 :  1
     96.8447	        	        	        	        	       0	(  3  3  1)	  0  1 :  1
     97.1631	        	        	        	        	       0	(  3  3  1)	  0  2 :  1
     98.2535	        	        	        	        	       0	(  1  4  2)	  0  1 :  1
     98.2535	        	        	        	        	       0	(  4  1  2)	  0  1 :  1
     98.5800	        	        	        	        	       0	(  1  4  2)	  0  2 :  1
     98.5800	        	        	        	        	       0	(  4  1  2)	  0  2 :  1
     99.0627	        	        	        	        	       0	(  2  4  1)	  0  1 :  1
     99.0627	        	        	        	        	       0	(  4  2  1)	  0  1 :  1
     99.3940	        	        	        	        	       0	(  2  4  1)	  0  2 :  1
     99.3940	        	        	        	        	       0	(  4  2  1)	  0  2 :  1
    100.8203	        	        	        	        	       0	(  1  5  0)	  0  1 :  1
    100.8203	        	        	        	        	       0	(  5  1  0)	  0  1 :  1
    101.1620	        	        	        	        	       0	(  1  5  0)	  0  2 :  1
    101.1620	        	        	        	        	       0	(  5  1  0)	  0  2 :  1
    102.8570	        	        	        	        	       0	(  2  2  3)	  0  1 :  1
    103.2114	        	        	        	        	       0	(  2  2  3)	  0  2 :  1
    105.1210	        	        	        	        	       0	(  1  3  3)	  0  1 :  1
    105.1210	        	        	        	        	       0	(  3  1  3)	  0  1 :  1
    105.4902	        	        	        	        	       0	(  1  3  3)	  0  2 :  1
    105.4902	        	        	        	        	       0	(  3  1  3)	  0  2 :  1
    105.8151	        	        	        	        	       0	(  1  5  1)	  0  1 :  1
    105.8151	        	        	        	        	       0	(  5  1  1)	  0  1 :  1
    106.1890	        	        	        	        	       0	(  1  5  1)	  0  2 :  1
    106.1890	        	        	        	        	       0	(  5  1  1)	  0  2 :  1
    107.2722	        	        	        	        	       0	(  0  5  2)	  0  1 :  1
    107.6562	        	        	        	        	       0	(  0  5  2)	  0  2 :  1
    110.8596	        	        	        	        	       0	(  0  0  4)	  0  1 :  1
    111.2700	        	        	        	        	       0	(  0  0  4)	  0  2 :  1
    111.9374	        	        	        	        	       0	(  3  3  2)	  0  1 :  1
    112.0788	        	        	        	        	       0	(  0  4  3)	  0  1 :  1
    112.2985	        	        	        	        	       0	(  0  6  0)	  0  1 :  1
    112.3563	        	        	        	        	       0	(  3  3  2)	  0  2 :  1
    112.4988	        	        	        	        	       0	(  0  4  3)	  0  2 :  1
    112.7203	        	        	        	        	       0	(  0  6  0)	  0  2 :  1
    113.2299	        	        	        	        	       0	(  0  1  4)	  0  1 :  1
    113.6591	        	        	        	        	       0	(  0  1  4)	  0  2 :  1
    114.3265	        	        	        	        	       0	(  2  4  2)	  0  1 :  1
    114.3265	        	        	        	        	       0	(  4  2  2)	  0  1 :  1
    114.6942	        	        	        	        	       0	(  3  4  0)	  0  1 :  1
    114.6942	        	        	        	        	       0	(  4  3  0)	  0  1 :  1
    114.7649	        	        	        	        	       0	(  2  4  2)	  0  2 :  1
    114.7649	        	        	        	        	       0	(  4  2  2)	  0  2 :  1
    115.1357	        	        	        	        	       0	(  3  4  0)	  0  2 :  1
    115.1357	        	        	        	        	       0	(  4  3  0)	  0  2 :  1
    117.6613	        	        	        	        	       0	(  0  6  1)	  0  1 :  1
    118.1062	        	        	        	        	       0	(  1  1  4)	  0  1 :  1
    118.1293	        	        	        	        	       0	(  0  6  1)	  0  2 :  1
    118.5783	        	        	        	        	       0	(  1  1  4)	  0  2 :  1
    119.4005	        	        	        	        	       0	(  2  3  3)	  0  1 :  1
    119.4005	        	        	        	        	       0	(  3  2  3)	  0  1 :  1
    119.6343	        	        	        	        	       0	(  2  5  0)	  0  1 :  1
    119.6343	        	        	        	        	       0	(  5  2  0)	  0  1 :  1
    119.8850	        	        	        	        	       0	(  2  3  3)	  0  2 :  1
    119.8850	        	        	        	        	       0	(  3  2  3)	  0  2 :  1
    120.1211	        	        	        	        	       0	(  2  5  0)	  0  2 :  1
    120.1211	        	        	        	        	       0	(  5  2  0)	  0  2 :  1
    120.1714	        	        	        	        	       0	(  3  4  1)	  0  1 :  1
    120.1714	        	        	        	        	       0	(  4  3  1)	  0  1 :  1
    120.6273	        	        	        	        	       0	(  0  2  4)	  0  1 :  1
    120.6635	        	        	        	        	       0	(  3  4  1)	  0  2 :  1
    120.6635	        	        	        	        	       0	(  4  3  1)	  0  2 :  1
    121.1240	        	        	        	        	       0	(  0  2  4)	  0  2 :  1
    121.8008	        	        	        	        	       0	(  1  5  2)	  0  1 :  1
    121.8008	        	        	        	        	       0	(  5  1  2)	  0  1 :  1
    122.3097	        	        	        	        	       0	(  1  5  2)	  0  2 :  1
    122.3097	        	        	        	        	       0	(  5  1  2)	  0  2 :  1
    124.5830	        	        	        	        	       0	(  1  4  3)	  0  1 :  1
    124.5830	        	        	        	        	       0	(  4  1  3)	  0  1 :  1
    125.1226	        	        	        	        	       0	(  1  4  3)	  0  2 :  1
    125.1226	        	        	        	        	       0	(  4  1  3)	  0  2 :  1
    125.3998	        	        	        	        	       0	(  5  2  1)	  0  1 :  1
    125.3998	        	        	        	        	       0	(  2  5  1)	  0  1 :  1
    125.9489	        	        	        	        	       0	(  5  2  1)	  0  2 :  1
    125.9489	        	        	        	        	       0	(  2  5  1)	  0  2 :  1
    128.6445	        	        	        	        	       0	(  1  2  4)	  0  1 :  1
    128.6445	        	        	        	        	       0	(  2  1  4)	  0  1 :  1
    129.2344	        	        	        	        	       0	(  1  2  4)	  0  2 :  1
    129.2344	        	        	        	        	       0	(  2  1  4)	  0  2 :  1
    130.3792	        	        	        	        	       0	(  1  6  0)	  0  1 :  1
    130.3792	        	        	        	        	       0	(  6  1  0)	  0  1 :  1
    130.9929	        	        	        	        	       0	(  1  6  0)	  0  2 :  1
    130.9929	        	        	        	        	       0	(  6  1  0)	  0  2 :  1
    134.5217	        	        	        	        	       0	(  0  3  4)	  0  1 :  1
    135.1996	        	        	        	        	       0	(  0  3  4)	  0  2 :  1
    135.9471	        	        	        	        	       0	(  0  6  2)	  0  1 :  1
    136.1359	        	        	        	        	       0	(  0  5  3)	  0  1 :  1
    136.6496	        	        	        	        	       0	(  0  6  2)	  0  2 :  1
    136.8419	        	        	        	        	       0	(  0  5  3)	  0  2 :  1
    137.1102	        	        	        	        	       0	(  1  6  1)	  0  1 :  1
    137.1102	        	        	        	        	       0	(  6  1  1)	  0  1 :  1
    137.8341	        	        	        	        	       0	(  1  6  1)	  0  2 :  1
    137.8341	        	        	        	        	       0	(  6  1  1)	  0  2 :  1
    139.2044	        	        	        	        	       0	(  3  4  2)	  0  1 :  1
    139.2044	        	        	        	        	       0	(  4  3  2)	  0  1 :  1
    139.9699	        	        	        	        	       0	(  3  4  2)	  0  2 :  1
    139.9699	        	        	        	        	       0	(  4  3  2)	  0  2 :  1
    142.9092	        	        	        	        	       0	(  3  3  3)	  0  1 :  1
