 Nd hydroxide   Chi2:  3.5431  CELL:    6.42482   6.42482   3.73935   90.0000   90.0000  120.0000   SPGR: P 63/m                 TEMP:      0.00
  1   2693     1.54060     1.54439     0.00000    -0.04176     0.00000    0
   182     0     1
       0.00000      14.00000
 2Theta	Yobs	Ycal	Yobs-Ycal	Backg	Posr	(hkl)	K
     10.0098	  229.00	  108.86	 -252.82	  106.10
     10.0432	  249.00	  108.70	 -252.82	  105.95
     10.0767	  252.00	  108.55	 -252.82	  105.79
     10.1101	  239.00	  108.40	 -252.82	  105.64
     10.1435	  226.00	  108.24	 -252.82	  105.49
     10.1769	  271.00	  108.09	 -252.82	  105.33
     10.2103	  266.00	  107.94	 -252.82	  105.18
     10.2438	  238.00	  107.78	 -252.82	  105.03
     10.2772	  240.00	  107.63	 -252.82	  104.87
     10.3106	  247.00	  107.48	 -252.82	  104.72
     10.3440	  236.00	  107.32	 -252.82	  104.57
     10.3775	  244.00	  107.17	 -252.82	  104.42
     10.4109	  264.00	  107.02	 -252.82	  104.26
     10.4443	  247.00	  106.87	 -252.82	  104.11
     10.4777	  289.00	  106.72	 -252.82	  103.96
     10.5111	  212.00	  106.56	 -252.82	  103.81
     10.5446	  210.00	  106.41	 -252.82	  103.66
     10.5780	  243.00	  106.26	 -252.82	  103.50
     10.6114	  216.00	  106.11	 -252.82	  103.35
     10.6448	  221.00	  105.96	 -252.82	  103.20
     10.6783	  249.00	  105.81	 -252.82	  103.05
     10.7117	  227.00	  105.66	 -252.82	  102.90
     10.7451	  246.00	  105.51	 -252.82	  102.75
     10.7785	  226.00	  105.36	 -252.82	  102.60
     10.8120	  210.00	  105.21	 -252.82	  102.45
     10.8454	  226.00	  105.05	 -252.82	  102.30
     10.8788	  227.00	  104.90	 -252.82	  102.15
     10.9122	  250.00	  104.76	 -252.82	  102.00
     10.9456	  222.00	  104.61	 -252.82	  101.85
     10.9791	  218.00	  104.46	 -252.82	  101.70
     11.0125	  200.00	  104.31	 -252.82	  101.55
     11.0459	  200.00	  104.16	 -252.82	  101.40
     11.0793	  223.00	  104.01	 -252.82	  101.25
     11.1128	  224.00	  103.86	 -252.82	  101.10
     11.1462	  217.00	  103.71	 -252.82	  100.95
     11.1796	  210.00	  103.56	 -252.82	  100.81
     11.2130	  237.00	  103.41	 -252.82	  100.66
     11.2464	  192.00	  103.27	 -252.82	  100.51
     11.2799	  213.00	  103.12	 -252.82	  100.36
     11.3133	  208.00	  102.97	 -252.82	  100.21
     11.3467	  189.00	  102.82	 -252.82	  100.07
     11.3801	  204.00	  102.67	 -252.82	   99.92
     11.4136	  224.00	  102.53	 -252.82	   99.77
     11.4470	  220.00	  102.38	 -252.82	   99.62
     11.4804	  227.00	  102.23	 -252.82	   99.48
     11.5138	  221.00	  102.09	 -252.82	   99.33
     11.5472	  238.00	  101.94	 -252.82	   99.18
     11.5807	  220.00	  101.79	 -252.82	   99.04
     11.6141	  191.00	  101.65	 -252.82	   98.89
     11.6475	  194.00	  101.50	 -252.82	   98.74
     11.6809	  223.00	  101.35	 -252.82	   98.60
     11.7144	  192.00	  101.21	 -252.82	   98.45
     11.7478	  194.00	  101.06	 -252.82	   98.31
     11.7812	  204.00	  100.92	 -252.82	   98.16
     11.8146	  223.00	  100.77	 -252.82	   98.01
     11.8481	  233.00	  100.63	 -252.82	   97.87
     11.8815	  213.00	  100.48	 -252.82	   97.72
     11.9149	  206.00	  100.34	 -252.82	   97.58
     11.9483	  232.00	  100.19	 -252.82	   97.43
     11.9817	  224.00	  100.05	 -252.82	   97.29
     12.0152	  197.00	   99.90	 -252.82	   97.15
     12.0486	  185.00	   99.76	 -252.82	   97.00
     12.0820	  212.00	   99.61	 -252.82	   96.86
     12.1154	  202.00	   99.47	 -252.82	   96.71
     12.1489	  212.00	   99.33	 -252.82	   96.57
     12.1823	  193.00	   99.18	 -252.82	   96.43
     12.2157	  216.00	   99.04	 -252.82	   96.28
     12.2491	  173.00	   98.90	 -252.82	   96.14
     12.2825	  206.00	   98.75	 -252.82	   96.00
     12.3160	  193.00	   98.61	 -252.82	   95.85
     12.3494	  186.00	   98.47	 -252.82	   95.71
     12.3828	  180.00	   98.32	 -252.82	   95.57
     12.4162	  185.00	   98.18	 -252.82	   95.43
     12.4497	  179.00	   98.04	 -252.82	   95.28
     12.4831	  193.00	   97.90	 -252.82	   95.14
     12.5165	  186.00	   97.76	 -252.82	   95.00
     12.5499	  194.00	   97.61	 -252.82	   94.86
     12.5833	  184.00	   97.47	 -252.82	   94.72
     12.6168	  202.00	   97.33	 -252.82	   94.57
     12.6502	  173.00	   97.19	 -252.82	   94.43
     12.6836	  186.00	   97.05	 -252.82	   94.29
     12.7170	  188.00	   96.91	 -252.82	   94.15
     12.7505	  200.00	   96.77	 -252.82	   94.01
     12.7839	  199.00	   96.63	 -252.82	   93.87
     12.8173	  191.00	   96.49	 -252.82	   93.73
     12.8507	  192.00	   96.34	 -252.82	   93.59
     12.8841	  168.00	   96.20	 -252.82	   93.45
     12.9176	  172.00	   96.06	 -252.82	   93.31
     12.9510	  165.00	   95.92	 -252.82	   93.17
     12.9844	  156.00	   95.78	 -252.82	   93.03
     13.0178	  198.00	   95.65	 -252.82	   92.89
     13.0513	  165.00	   95.51	 -252.82	   92.75
     13.0847	  150.00	   95.37	 -252.82	   92.61
     13.1181	  196.00	   95.23	 -252.82	   92.47
     13.1515	  200.00	   95.09	 -252.82	   92.33
     13.1850	  162.00	   94.95	 -252.82	   92.19
     13.2184	  183.00	   94.81	 -252.82	   92.05
     13.2518	  195.00	   94.67	 -252.82	   91.92
     13.2852	  184.00	   94.53	 -252.82	   91.78
     13.3186	  165.00	   94.40	 -252.82	   91.64
     13.3521	  188.00	   94.26	 -252.82	   91.50
     13.3855	  173.00	   94.12	 -252.82	   91.36
     13.4189	  172.00	   93.98	 -252.82	   91.23
     13.4523	  172.00	   93.84	 -252.82	   91.09
     13.4858	  181.00	   93.71	 -252.82	   90.95
     13.5192	  190.00	   93.57	 -252.82	   90.81
     13.5526	  159.00	   93.43	 -252.82	   90.68
     13.5860	  162.00	   93.30	 -252.82	   90.54
     13.6194	  185.00	   93.16	 -252.82	   90.40
     13.6529	  152.00	   93.02	 -252.82	   90.27
     13.6863	  180.00	   92.89	 -252.82	   90.13
     13.7197	  179.00	   92.75	 -252.82	   89.99
     13.7531	  177.00	   92.61	 -252.82	   89.86
     13.7866	  170.00	   92.48	 -252.82	   89.72
     13.8200	  185.00	   92.34	 -252.82	   89.59
     13.8534	  162.00	   92.21	 -252.82	   89.45
     13.8868	  158.00	   92.07	 -252.82	   89.31
     13.9202	  176.00	   91.94	 -252.82	   89.18
     13.9537	  184.00	   91.80	 -252.82	   89.04
     13.9871	  166.00	   91.67	 -252.82	   88.91
     14.0205	  168.00	   98.29	 -183.11	   88.77
     14.0539	  168.00	   98.40	 -183.22	   88.64
     14.0874	  172.00	   98.53	 -179.35	   88.50
     14.1208	  163.00	   98.67	 -188.49	   88.37
     14.1542	  161.00	   98.83	 -190.65	   88.24
     14.1876	  159.00	   99.00	 -192.82	   88.10
     14.2211	  186.00	   99.19	 -166.01	   87.97
     14.2545	  177.00	   99.40	 -175.23	   87.83
     14.2879	  143.00	   99.64	 -209.46	   87.70
     14.3213	  140.00	   99.90	 -212.72	   87.57
     14.3547	  158.00	  100.18	 -195.00	   87.43
     14.3882	  167.00	  100.49	 -186.31	   87.30
     14.4216	  167.00	  100.83	 -186.65	   87.17
     14.4550	  164.00	  101.21	 -190.03	   87.04
     14.4884	  156.00	  101.62	 -198.44	   86.90
     14.5219	  166.00	  102.07	 -188.89	   86.77
     14.5553	  152.00	  102.56	 -203.38	   86.64
     14.5887	  158.00	  103.10	 -197.92	   86.51
     14.6221	  148.00	  103.70	 -208.52	   86.37
     14.6555	  161.00	  104.35	 -196.17	   86.24
     14.6890	  159.00	  105.07	 -198.89	   86.11
     14.7224	  150.00	  105.86	 -208.68	   85.98
     14.7558	  159.00	  106.73	 -200.55	   85.85
     14.7892	  135.00	  107.69	 -225.51	   85.72
     14.8227	  159.00	  108.75	 -202.57	   85.58
     14.8561	  171.00	  109.92	 -191.74	   85.45
     14.8895	  161.00	  111.23	 -203.05	   85.32
     14.9229	  173.00	  112.67	 -192.50	   85.19
     14.9563	  148.00	  114.29	 -219.11	   85.06
     14.9898	  177.00	  116.09	 -191.91	   84.93
     15.0232	  139.00	  118.11	 -231.93	   84.80
     15.0566	  153.00	  120.38	 -220.20	   84.67
     15.0900	  141.00	  122.93	 -234.75	   84.54
     15.1235	  146.00	  125.83	 -232.65	   84.41
     15.1569	  146.00	  129.11	 -235.93	   84.28
     15.1903	  139.00	  132.86	 -246.68	   84.15
     15.2237	  165.00	  137.16	 -224.98	   84.02
     15.2571	  157.00	  142.12	 -237.94	   83.89
     15.2906	  164.00	  147.86	 -236.68	   83.77
     15.3240	  186.00	  154.56	 -221.38	   83.64
     15.3574	  154.00	  162.44	 -261.26	   83.51
     15.3908	  177.00	  171.76	 -247.58	   83.38
     15.4243	  193.00	  182.90	 -242.72	   83.25
     15.4577	  209.00	  196.32	 -240.15	   83.12
     15.4911	  165.00	  212.66	 -300.48	   82.99
     15.5245	  209.00	  232.71	 -276.53	   82.87
     15.5580	  237.00	  257.50	 -273.32	   82.74
     15.5914	  240.00	  288.33	 -301.16	   82.61
     15.6248	  243.00	  326.79	 -336.61	   82.48
     15.6582	  272.00	  374.63	 -355.45	   82.36
     15.6916	  292.00	  433.64	 -394.46	   82.23
     15.7251	  350.00	  504.85	 -407.67	   82.10
     15.7585	  396.00	  587.24	 -444.06	   81.98
     15.7919	  492.00	  675.38	 -436.20	   81.85
     15.8253	  632.00	  757.11	 -377.93	   81.72
     15.8588	  719.00	  814.37	 -348.19	   81.60
     15.8922	  707.00	  830.34	 -376.17	   81.47
     15.9256	  722.00	  799.85	 -330.67	   81.34
     15.9590	  593.00	  732.88	 -392.70	   81.22
     15.9924	  464.00	  647.55	 -436.37	   81.09
     16.0259	  431.00	  560.26	 -382.08	   80.97
     16.0593	  341.00	  480.85	 -392.67	   80.84
     16.0927	  312.00	  413.16	 -353.98	   80.72
     16.1261	  260.00	  357.44	 -350.26	   80.59
     16.1596	  250.00	  312.36	 -315.18	   80.47
     16.1930	  180.00	  276.11	 -348.94	   80.34
     16.2264	  184.00	  246.98	 -315.80	   80.22
     16.2598	  184.00	  223.47	 -292.29	   80.09
     16.2932	  159.00	  204.38	 -298.20	   79.97
     16.3267	  168.00	  188.73	 -273.55	   79.84
     16.3601	  117.00	  175.79	 -311.61	   79.72
     16.3935	  158.00	  164.98	 -259.80	   79.60
     16.4269	  161.00	  155.87	 -247.69	   79.47
     16.4604	  167.00	  148.12	 -233.94	   79.35
     16.4938	  157.00	  141.47	 -237.29	   79.22
     16.5272	  129.00	  135.73	 -259.55	   79.10
     16.5606	  126.00	  130.73	 -257.55	   78.98
     16.5941	  119.00	  126.35	 -260.17	   78.86
     16.6275	  136.00	  122.50	 -239.32	   78.73
     16.6609	  128.00	  119.08	 -243.90	   78.61
     16.6943	  125.00	  116.04	 -243.86	   78.49
     16.7277	  117.00	  113.32	 -249.14	   78.36
     16.7612	  129.00	  110.88	 -234.70	   78.24
     16.7946	  136.00	  108.68	 -225.50	   78.12
     16.8280	  135.00	  106.68	 -224.50	   78.00
     16.8614	  125.00	  104.87	 -232.69	   77.88
     16.8949	   94.00	  103.21	 -262.04	   77.75
     16.9283	  125.00	  101.70	 -229.52	   77.63
     16.9617	  128.00	  100.31	 -225.13	   77.51
     16.9951	  137.00	   99.03	 -214.85	   77.39
     17.0285	  113.00	   97.84	 -237.66	   77.27
     17.0620	  102.00	   96.74	 -247.56	   77.15
     17.0954	  113.00	   95.72	 -235.54	   77.03
     17.1288	  133.00	   94.77	 -214.59	   76.91
     17.1622	  128.00	   93.89	 -218.71	   76.79
     17.1957	  122.00	   93.06	 -223.88	   76.67
     17.2291	  117.00	   92.28	 -228.10	   76.55
     17.2625	  103.00	   91.54	 -241.36	   76.43
     17.2959	  109.00	   90.85	 -234.67	   76.31
     17.3293	   99.00	   90.20	 -244.02	   76.19
     17.3628	  115.00	   89.58	 -227.41	   76.07
     17.3962	  101.00	   89.00	 -240.82	   75.95
     17.4296	  101.00	   88.45	 -240.27	   75.83
     17.4630	   96.00	   87.92	 -244.74	   75.71
     17.4965	  121.00	   87.41	 -219.24	   75.59
     17.5299	  122.00	   86.93	 -217.76	   75.47
     17.5633	  103.00	   86.48	 -236.30	   75.35
     17.5967	   99.00	   86.04	 -239.86	   75.23
     17.6301	  106.00	   85.62	 -232.44	   75.12
     17.6636	  103.00	   85.21	 -235.03	   75.00
     17.6970	  119.00	   84.82	 -218.64	   74.88
     17.7304	   94.00	   84.45	 -243.27	   74.76
     17.7638	  104.00	   84.09	 -232.91	   74.64
     17.7973	   95.00	   83.74	 -241.56	   74.53
     17.8307	  111.00	   83.41	 -225.23	   74.41
     17.8641	  100.00	   83.08	 -235.90	   74.29
     17.8975	  118.00	   82.77	 -217.59	   74.17
     17.9310	  114.00	   82.46	 -221.28	   74.06
     17.9644	   92.00	   82.17	 -242.99	   73.94
     17.9978	  100.00	   81.88	 -234.70	   73.82
     18.0312	   97.00	   81.60	 -237.42	   73.71
     18.0646	  110.00	   81.33	 -224.15	   73.59
     18.0981	   87.00	   81.06	 -246.88	   73.47
     18.1315	  110.00	   80.80	 -223.62	   73.36
     18.1649	   92.00	   80.55	 -241.37	   73.24
     18.1983	  105.00	   80.31	 -228.13	   73.12
     18.2318	  105.00	   80.07	 -227.89	   73.01
     18.2652	   88.00	   79.83	 -244.65	   72.89
     18.2986	   81.00	   79.60	 -251.42	   72.78
     18.3320	  101.00	   79.38	 -231.20	   72.66
     18.3654	   99.00	   79.15	 -232.98	   72.55
     18.3989	   83.00	   78.94	 -248.76	   72.43
     18.4323	   81.00	   78.73	 -250.55	   72.32
     18.4657	  113.00	   78.52	 -218.34	   72.20
     18.4991	  101.00	   78.31	 -230.13	   72.09
     18.5326	   98.00	   78.11	 -232.93	   71.97
     18.5660	   83.00	   77.91	 -247.74	   71.86
     18.5994	   88.00	   77.72	 -242.54	   71.75
     18.6328	   96.00	   77.53	 -234.35	   71.63
     18.6662	   98.00	   77.34	 -232.16	   71.52
     18.6997	  108.00	   77.15	 -221.97	   71.40
     18.7331	  111.00	   76.97	 -218.79	   71.29
     18.7665	  106.00	   76.79	 -223.61	   71.18
     18.7999	   89.00	   76.61	 -240.43	   71.06
     18.8334	   84.00	   76.44	 -245.26	   70.95
     18.8668	  103.00	   76.26	 -226.08	   70.84
     18.9002	   94.00	   76.09	 -234.91	   70.72
     18.9336	   84.00	   75.92	 -244.74	   70.61
     18.9671	   86.00	   75.75	 -242.57	   70.50
     19.0005	   85.00	   75.59	 -243.41	   70.39
     19.0339	   86.00	   75.42	 -242.24	   70.27
     19.0673	   87.00	   75.26	 -241.08	   70.16
     19.1007	   74.00	   75.10	 -253.92	   70.05
     19.1342	   88.00	   74.94	 -239.76	   69.94
     19.1676	   61.00	   74.79	 -266.61	   69.83
     19.2010	   98.00	   74.63	 -229.45	   69.71
     19.2344	   95.00	   74.48	 -232.30	   69.60
     19.2679	   82.00	   74.32	 -245.14	   69.49
     19.3013	   72.00	   74.36	 -255.18	   69.38
     19.3347	   88.00	   74.21	 -239.03	   69.27
     19.3681	   76.00	   74.16	 -250.98	   69.16
     19.4015	   86.00	   74.01	 -240.83	   69.05
     19.4350	   89.00	   73.87	 -237.69	   68.94
     19.4684	   83.00	   73.73	 -243.55	   68.83
     19.5018	   94.00	   73.58	 -232.41	   68.72
     19.5352	   78.00	   73.44	 -248.26	   68.61
     19.5687	   70.00	   73.30	 -256.12	   68.50
     19.6021	   78.00	   73.17	 -247.99	   68.39
     19.6355	  103.00	   73.03	 -222.85	   68.28
     19.6689	   89.00	   72.89	 -236.71	   68.17
     19.7023	   90.00	   72.76	 -235.58	   68.06
     19.7358	   85.00	   72.62	 -240.44	   67.95
     19.7692	   74.00	   72.49	 -251.31	   67.84
     19.8026	   89.00	   72.35	 -236.17	   67.73
     19.8360	   82.00	   72.22	 -243.04	   67.62
     19.8695	   82.00	   72.09	 -242.91	   67.51
     19.9029	   83.00	   71.96	 -241.78	   67.40
     19.9363	   92.00	   71.83	 -232.65	   67.30
     19.9697	   71.00	   71.70	 -253.52	   67.19
     20.0032	   83.00	   71.57	 -241.39	   67.08
     20.0366	   66.00	   71.44	 -258.27	   66.97
     20.0700	   91.00	   71.32	 -233.14	   66.86
     20.1034	   75.00	   71.19	 -249.01	   66.76
     20.1368	   72.00	   71.07	 -251.89	   66.65
     20.1703	   94.00	   70.94	 -229.76	   66.54
     20.2037	   81.00	   70.82	 -242.64	   66.43
     20.2371	   61.00	   70.69	 -262.51	   66.33
     20.2705	   77.00	   70.87	 -246.69	   66.22
     20.3040	   88.00	   70.75	 -235.57	   66.11
     20.3374	   76.00	   70.78	 -247.60	   66.00
     20.3708	   85.00	   70.67	 -238.49	   65.90
     20.4042	   75.00	   70.55	 -248.37	   65.79
     20.4376	   72.00	   70.43	 -251.25	   65.69
     20.4711	   75.00	   70.32	 -248.14	   65.58
     20.5045	   90.00	   70.20	 -233.02	   65.47
     20.5379	   81.00	   70.09	 -241.91	   65.37
     20.5713	   72.00	   69.97	 -250.80	   65.26
     20.6048	   75.00	   69.86	 -247.68	   65.16
     20.6382	   63.00	   69.75	 -259.57	   65.05
     20.6716	   77.00	   69.64	 -245.46	   64.94
     20.7050	   83.00	   69.52	 -239.35	   64.84
     20.7384	   74.00	   69.41	 -248.23	   64.73
     20.7719	   68.00	   69.30	 -254.12	   64.63
     20.8053	   82.00	   69.19	 -240.01	   64.52
     20.8387	   81.00	   69.08	 -240.90	   64.42
     20.8721	   84.00	   68.98	 -237.80	   64.32
     20.9056	   63.00	   68.87	 -258.69	   64.21
     20.9390	   62.00	   68.76	 -259.58	   64.11
     20.9724	   84.00	   68.65	 -237.47	   64.00
     21.0058	   68.00	   68.54	 -253.37	   63.90
     21.0392	   70.00	   68.44	 -251.26	   63.79
     21.0727	   61.00	   68.33	 -260.15	   63.69
     21.1061	   68.00	   68.23	 -253.05	   63.59
     21.1395	   73.00	   68.12	 -247.94	   63.48
     21.1729	   57.00	   68.02	 -263.84	   63.38
     21.2064	   69.00	   67.91	 -251.73	   63.28
     21.2398	   52.00	   67.81	 -268.63	   63.17
     21.2732	   74.00	   67.71	 -246.53	   63.07
     21.3066	   75.00	   67.60	 -245.42	   62.97
     21.3401	   73.00	   67.50	 -247.32	   62.87
     21.3735	   70.00	   67.40	 -250.22	   62.76
     21.4069	   69.00	   67.30	 -251.12	   62.66
     21.4403	   73.00	   67.20	 -247.02	   62.56
     21.4737	   62.00	   67.10	 -257.92	   62.46
     21.5072	   66.00	   67.00	 -253.82	   62.36
     21.5406	   66.00	   66.90	 -253.72	   62.25
     21.5740	   75.00	   66.80	 -244.62	   62.15
     21.6074	   75.00	   66.70	 -244.52	   62.05
     21.6409	   49.00	   66.60	 -270.42	   61.95
     21.6743	   71.00	   66.51	 -248.33	   61.85
     21.7077	   57.00	   66.41	 -262.23	   61.75
     21.7411	   84.00	   66.31	 -235.13	   61.65
     21.7745	   69.00	   66.22	 -250.04	   61.55
     21.8080	   68.00	   66.12	 -250.94	   61.44
     21.8414	   61.00	   66.03	 -257.85	   61.34
     21.8748	   65.00	   65.93	 -253.75	   61.24
     21.9082	   56.00	   65.84	 -262.66	   61.14
     21.9417	   61.00	   65.74	 -257.56	   61.04
     21.9751	   86.00	   65.65	 -232.47	   60.94
     22.0085	   65.00	   65.56	 -253.38	   60.84
     22.0419	   64.00	   65.47	 -254.29	   60.74
     22.0753	   81.00	   65.37	 -237.19	   60.64
     22.1088	   64.00	   65.28	 -254.10	   60.54
     22.1422	   70.00	   65.19	 -248.01	   60.44
     22.1756	   64.00	   65.10	 -253.92	   60.35
     22.2090	   76.00	   65.01	 -241.83	   60.25
     22.2425	   69.00	   64.92	 -248.74	   60.15
     22.2759	   71.00	   64.83	 -246.65	   60.05
     22.3093	   52.00	   64.74	 -265.57	   59.95
     22.3427	   52.00	   64.66	 -265.48	   59.85
     22.3762	   68.00	   64.57	 -249.39	   59.75
     22.4096	   52.00	   64.48	 -265.30	   59.66
     22.4430	   76.00	   64.40	 -241.22	   59.56
     22.4764	   65.00	   64.31	 -252.13	   59.46
     22.5098	   70.00	   64.23	 -247.05	   59.36
     22.5433	   48.00	   64.14	 -268.96	   59.26
     22.5767	   58.00	   64.06	 -258.88	   59.17
     22.6101	   69.00	   63.97	 -247.79	   59.07
     22.6435	   61.00	   63.89	 -255.71	   58.97
     22.6770	   58.00	   63.81	 -258.63	   58.87
     22.7104	   69.00	   63.73	 -247.55	   58.78
     22.7438	   43.00	   63.65	 -273.47	   58.68
     22.7772	   52.00	   63.56	 -264.39	   58.58
     22.8106	   72.00	   63.48	 -244.31	   58.49
     22.8441	   64.00	   63.40	 -252.23	   58.39
     22.8775	   59.00	   63.33	 -257.15	   58.29
     22.9109	   60.00	   63.25	 -256.07	   58.20
     22.9443	   58.00	   63.17	 -257.99	   58.10
     22.9778	   60.00	   63.09	 -255.91	   58.01
     23.0112	   64.00	   63.02	 -251.84	   57.91
     23.0446	   74.00	   62.94	 -241.76	   57.81
     23.0780	   57.00	   62.87	 -258.69	   57.72
     23.1114	   52.00	   62.79	 -263.61	   57.62
     23.1449	   64.00	   62.72	 -251.54	   57.53
     23.1783	   59.00	   62.65	 -256.47	   57.43
     23.2117	   56.00	   62.57	 -259.39	   57.34
     23.2451	   73.00	   62.50	 -242.32	   57.24
     23.2786	   55.00	   62.43	 -260.25	   57.15
     23.3120	   74.00	   62.36	 -241.18	   57.05
     23.3454	   70.00	   62.29	 -245.11	   56.96
     23.3788	   55.00	   62.22	 -260.05	   56.86
     23.4122	   54.00	   62.16	 -260.98	   56.77
     23.4457	   61.00	   62.09	 -253.91	   56.68
     23.4791	   78.00	   62.02	 -236.85	   56.58
     23.5125	   56.00	   61.96	 -258.78	   56.49
     23.5459	   73.00	   61.90	 -241.72	   56.39
     23.5794	   61.00	   61.83	 -253.65	   56.30
     23.6128	   60.00	   61.83	 -254.66	   56.21
     23.6462	   60.00	   61.77	 -254.60	   56.11
     23.6796	   75.00	   61.71	 -239.54	   56.02
     23.7131	   47.00	   61.69	 -267.51	   55.93
     23.7465	   52.00	   61.63	 -262.45	   55.83
     23.7799	   55.00	   61.57	 -259.40	   55.74
     23.8133	   85.00	   61.52	 -229.34	   55.65
     23.8467	   66.00	   61.46	 -248.29	   55.56
     23.8802	   66.00	   61.41	 -248.23	   55.46
     23.9136	   48.00	   61.36	 -266.18	   55.37
     23.9470	   64.00	   61.31	 -250.13	   55.28
     23.9804	   55.00	   61.26	 -259.08	   55.19
     24.0139	   58.00	   61.21	 -256.03	   55.10
     24.0473	   79.00	   61.17	 -234.99	   55.00
     24.0807	   65.00	   61.12	 -248.94	   54.91
     24.1141	   64.00	   61.08	 -249.90	   54.82
     24.1475	   62.00	   61.03	 -251.85	   54.73
     24.1810	   49.00	   60.65	 -264.47	   54.64
     24.2144	   66.00	   60.61	 -247.43	   54.55
     24.2478	   52.00	   60.57	 -261.40	   54.46
     24.2812	   58.00	   60.54	 -255.36	   54.36
     24.3147	   64.00	   60.51	 -249.33	   54.27
     24.3481	   68.00	   60.48	 -245.30	   54.18
     24.3815	   60.00	   60.45	 -253.27	   54.09
     24.4149	   58.00	   60.42	 -255.24	   54.00
     24.4483	   60.00	   60.40	 -253.22	   53.91
     24.4818	   52.00	   60.37	 -261.20	   53.82
     24.5152	   58.00	   60.35	 -255.17	   53.73
     24.5486	   61.00	   60.33	 -252.15	   53.64
     24.5820	   57.00	   60.32	 -256.14	   53.55
     24.6155	   61.00	   60.30	 -252.12	   53.46
     24.6489	   66.00	   60.29	 -247.11	   53.37
     24.6823	   46.00	   60.28	 -267.10	   53.28
     24.7157	   70.00	   60.27	 -243.09	   53.20
     24.7491	   49.00	   60.27	 -264.09	   53.11
     24.7826	   45.00	   60.27	 -268.09	   53.02
     24.8160	   56.00	   60.27	 -257.09	   52.93
     24.8494	   46.00	   60.27	 -267.09	   52.84
     24.8828	   58.00	   60.28	 -255.10	   52.75
     24.9163	   62.00	   60.29	 -251.11	   52.66
     24.9497	   61.00	   60.30	 -252.12	   52.57
     24.9831	   48.00	   60.31	 -265.14	   52.49
     25.0165	   47.00	   60.33	 -266.16	   52.40
     25.0500	   56.00	   60.36	 -257.18	   52.31
     25.0834	   81.00	   60.39	 -232.21	   52.22
     25.1168	   52.00	   60.42	 -261.24	   52.13
     25.1502	   59.00	   60.45	 -254.27	   52.05
     25.1836	   54.00	   60.49	 -259.31	   51.96
     25.2171	   59.00	   60.54	 -254.36	   51.87
     25.2505	   44.00	   60.59	 -269.41	   51.79
     25.2839	   48.00	   60.64	 -265.46	   51.70
     25.3173	   55.00	   60.70	 -258.52	   51.61
     25.3508	   59.00	   60.77	 -254.59	   51.52
     25.3842	   54.00	   60.84	 -259.66	   51.44
     25.4176	   66.00	   60.92	 -247.74	   51.35
     25.4510	   45.00	   61.00	 -268.82	   51.27
     25.4844	   60.00	   61.09	 -253.91	   51.18
     25.5179	   47.00	   61.19	 -267.01	   51.09
     25.5513	   50.00	   61.30	 -264.12	   51.01
     25.5847	   57.00	   61.41	 -257.23	   50.92
     25.6181	   51.00	   61.54	 -263.36	   50.84
     25.6516	   63.00	   61.67	 -251.49	   50.75
     25.6850	   54.00	   61.81	 -260.63	   50.66
     25.7184	   39.00	   61.96	 -275.78	   50.58
     25.7518	   49.00	   62.12	 -265.94	   50.49
     25.7852	   69.00	   62.30	 -246.12	   50.41
     25.8187	   54.00	   62.48	 -261.30	   50.32
     25.8521	   57.00	   62.68	 -258.50	   50.24
     25.8855	   54.00	   62.89	 -261.72	   50.15
     25.9189	   50.00	   63.12	 -265.94	   50.07
     25.9524	   39.00	   63.36	 -277.19	   49.98
     25.9858	   44.00	   63.62	 -272.44	   49.90
     26.0192	   60.00	   63.90	 -256.72	   49.82
     26.0526	   38.00	   64.20	 -279.02	   49.73
     26.0861	   65.00	   64.52	 -252.34	   49.65
     26.1195	   54.00	   64.86	 -263.68	   49.56
     26.1529	   59.00	   65.22	 -259.04	   49.48
     26.1863	   55.00	   65.61	 -263.43	   49.40
     26.2197	   52.00	   66.03	 -266.85	   49.31
     26.2532	   57.00	   66.47	 -262.29	   49.23
     26.2866	   63.00	   66.95	 -256.77	   49.15
     26.3200	   62.00	   67.47	 -258.29	   49.06
     26.3534	   75.00	   68.02	 -245.84	   48.98
     26.3869	   71.00	   68.62	 -250.44	   48.90
     26.4203	   73.00	   69.26	 -249.08	   48.82
     26.4537	   64.00	   69.96	 -258.78	   48.73
     26.4871	   62.00	   70.71	 -261.53	   48.65
     26.5205	   52.00	   71.52	 -272.34	   48.57
     26.5540	   55.00	   72.39	 -270.22	   48.49
     26.5874	   77.00	   73.35	 -249.17	   48.40
     26.6208	   63.00	   74.38	 -264.20	   48.32
     26.6542	   70.00	   75.51	 -258.33	   48.24
     26.6877	   70.00	   76.74	 -259.56	   48.16
     26.7211	   77.00	   78.09	 -253.91	   48.08
     26.7545	   83.00	   79.57	 -249.39	   47.99
     26.7879	   72.00	   81.19	 -262.01	   47.91
     26.8213	   69.00	   82.98	 -266.80	   47.83
     26.8548	   91.00	   84.96	 -246.78	   47.75
     26.8882	   76.00	   87.16	 -263.98	   47.67
     26.9216	   77.00	   89.61	 -265.43	   47.59
     26.9550	   88.00	   92.35	 -257.17	   47.51
     26.9885	   82.00	   95.42	 -266.24	   47.43
     27.0219	   79.00	   98.88	 -272.70	   47.35
     27.0553	  103.00	  102.80	 -252.63	   47.27
     27.0887	  108.00	  107.28	 -252.10	   47.19
     27.1222	   92.00	  112.40	 -273.22	   47.11
     27.1556	  106.00	  118.31	 -265.13	   47.03
     27.1890	  125.00	  125.17	 -252.99	   46.95
     27.2224	  114.00	  133.22	 -272.04	   46.87
     27.2558	  138.00	  142.71	 -257.53	   46.79
     27.2893	  139.00	  154.04	 -267.86	   46.71
     27.3227	  148.00	  167.66	 -272.48	   46.63
     27.3561	  146.00	  184.19	 -291.01	   46.55
     27.3895	  185.00	  204.41	 -272.23	   46.47
     27.4230	  206.00	  229.29	 -276.11	   46.39
     27.4564	  234.00	  260.00	 -278.82	   46.31
     27.4898	  269.00	  297.85	 -281.67	   46.23
     27.5232	  314.00	  344.13	 -282.95	   46.15
     27.5566	  371.00	  399.61	 -281.43	   46.07
     27.5901	  474.00	  463.62	 -242.44	   46.00
     27.6235	  584.00	  532.51	 -201.34	   45.92
     27.6569	  644.00	  598.15	 -206.97	   45.84
     27.6903	  774.00	  648.45	 -127.27	   45.76
     27.7238	  752.00	  671.77	 -172.59	   45.68
     27.7572	  793.00	  662.90	 -122.72	   45.61
     27.7906	  732.00	  625.47	 -146.29	   45.53
     27.8240	  587.00	  569.39	 -235.21	   45.45
     27.8574	  506.00	  506.15	 -252.97	   45.37
     27.8909	  432.00	  444.91	 -265.73	   45.30
     27.9243	  357.00	  390.94	 -286.76	   45.22
     27.9577	  319.00	  346.16	 -279.98	   45.14
     27.9911	  297.00	  310.50	 -266.32	   45.06
     28.0246	  244.00	  283.00	 -291.82	   44.99
     28.0580	  198.00	  262.49	 -317.31	   44.91
     28.0914	  215.00	  247.91	 -285.73	   44.83
     28.1248	  181.00	  238.39	 -310.22	   44.76
     28.1582	  190.00	  233.32	 -296.14	   44.68
     28.1917	  191.00	  232.29	 -294.11	   44.60
     28.2251	  191.00	  235.18	 -297.00	   44.53
     28.2585	  182.00	  242.02	 -312.84	   44.45
     28.2919	  189.00	  253.14	 -316.96	   44.38
     28.3254	  227.00	  269.11	 -294.93	   44.30
     28.3588	  243.00	  290.76	 -300.58	   44.22
     28.3922	  237.00	  319.26	 -335.08	   44.15
     28.4256	  291.00	  356.12	 -317.94	   44.07
     28.4591	  305.00	  403.16	 -350.98	   44.00
     28.4925	  363.00	  462.41	 -352.23	   43.92
     28.5259	  370.00	  535.69	 -418.51	   43.85
     28.5593	  503.00	  623.74	 -373.56	   43.77
     28.5927	  631.00	  724.36	 -346.18	   43.70
     28.6262	  776.00	  829.94	 -306.76	   43.62
     28.6596	  817.00	  925.58	 -361.41	   43.55
     28.6930	  957.00	  991.50	 -287.32	   43.47
     28.7264	  938.00	 1011.28	 -326.10	   43.40
     28.7599	  978.00	  980.41	 -255.23	   43.33
     28.7933	  853.00	  907.58	 -307.40	   43.25
     28.8267	  770.00	  809.34	 -292.16	   43.18
     28.8601	  628.00	  703.09	 -327.91	   43.10
     28.8935	  452.00	  601.81	 -402.64	   43.03
     28.9270	  428.00	  512.47	 -337.29	   42.96
     28.9604	  334.00	  437.17	 -355.99	   42.88
     28.9938	  282.00	  375.24	 -346.06	   42.81
     29.0272	  283.00	  324.90	 -294.73	   42.73
     29.0607	  223.00	  284.14	 -313.96	   42.66
     29.0941	  167.00	  251.08	 -336.90	   42.59
     29.1275	  171.00	  224.13	 -305.95	   42.52
     29.1609	  153.00	  202.00	 -301.83	   42.44
     29.1943	  148.00	  183.69	 -288.51	   42.37
     29.2278	  125.00	  168.39	 -296.21	   42.30
     29.2612	  111.00	  155.50	 -297.32	   42.22
     29.2946	   91.00	  144.53	 -306.35	   42.15
     29.3280	   92.00	  135.12	 -295.94	   42.08
     29.3615	  108.00	  127.00	 -271.82	   42.01
     29.3949	   95.00	  119.93	 -277.75	   41.94
     29.4283	   84.00	  113.74	 -282.56	   41.86
     29.4617	   72.00	  108.29	 -289.11	   41.79
     29.4951	   83.00	  103.47	 -273.29	   41.72
     29.5286	   79.00	   99.18	 -273.00	   41.65
     29.5620	   77.00	   95.35	 -271.17	   41.58
     29.5954	   61.00	   91.91	 -283.73	   41.51
     29.6288	   65.00	   88.81	 -276.63	   41.43
     29.6623	   72.00	   86.01	 -266.83	   41.36
     29.6957	   82.00	   83.48	 -254.30	   41.29
     29.7291	   68.00	   81.17	 -265.99	   41.22
     29.7625	   75.00	   79.06	 -256.88	   41.15
     29.7960	   48.00	   77.13	 -281.95	   41.08
     29.8294	   51.00	   75.36	 -277.18	   41.01
     29.8628	   59.00	   73.74	 -267.56	   40.94
     29.8962	   61.00	   72.24	 -264.06	   40.87
     29.9296	   71.00	   70.85	 -252.67	   40.80
     29.9631	   65.00	   69.57	 -257.39	   40.73
     29.9965	   74.00	   68.38	 -247.20	   40.66
     30.0299	   51.00	   67.28	 -269.10	   40.59
     30.0633	   56.00	   66.25	 -263.07	   40.52
     30.0968	   56.00	   65.30	 -262.12	   40.45
     30.1302	   58.00	   64.41	 -259.23	   40.38
     30.1636	   60.00	   63.58	 -256.40	   40.31
     30.1970	   51.00	   62.80	 -264.62	   40.24
     30.2304	   52.00	   62.08	 -262.90	   40.17
     30.2639	   57.00	   61.40	 -257.22	   40.10
     30.2973	   50.00	   60.76	 -263.58	   40.03
     30.3307	   52.00	   60.17	 -260.99	   39.96
     30.3641	   51.00	   59.62	 -261.44	   39.90
     30.3976	   66.00	   59.10	 -245.92	   39.83
     30.4310	   46.00	   58.61	 -265.43	   39.76
     30.4644	   46.00	   58.16	 -264.98	   39.69
     30.4978	   54.00	   57.74	 -256.56	   39.62
     30.5312	   46.00	   57.35	 -264.17	   39.55
     30.5647	   44.00	   56.99	 -265.81	   39.49
     30.5981	   41.00	   56.66	 -268.48	   39.42
     30.6315	   54.00	   56.35	 -255.17	   39.35
     30.6649	   49.00	   56.07	 -259.89	   39.28
     30.6984	   61.00	   55.82	 -247.64	   39.21
     30.7318	   49.00	   55.59	 -259.41	   39.15
     30.7652	   35.00	   55.39	 -273.21	   39.08
     30.7986	   45.00	   55.21	 -263.03	   39.01
     30.8321	   55.00	   55.06	 -252.88	   38.94
     30.8655	   46.00	   54.94	 -261.76	   38.88
     30.8989	   46.00	   54.85	 -261.67	   38.81
     30.9323	   56.00	   54.79	 -251.61	   38.74
     30.9657	   55.00	   54.76	 -252.58	   38.68
     30.9992	   54.00	   54.76	 -253.58	   38.61
     31.0326	   52.00	   54.80	 -255.62	   38.54
     31.0660	   35.00	   54.87	 -272.69	   38.48
     31.0994	   48.00	   54.99	 -259.81	   38.41
     31.1329	   51.00	   55.15	 -256.97	   38.35
     31.1663	   46.00	   55.36	 -262.18	   38.28
     31.1997	   46.00	   55.62	 -262.44	   38.21
     31.2331	   50.00	   55.95	 -258.77	   38.15
     31.2665	   45.00	   56.34	 -264.16	   38.08
     31.3000	   56.00	   56.82	 -253.64	   38.02
     31.3334	   44.00	   57.38	 -266.20	   37.95
     31.3668	   54.00	   58.04	 -256.86	   37.88
     31.4002	   39.00	   58.82	 -272.65	   37.82
     31.4337	   49.00	   59.75	 -263.57	   37.75
     31.4671	   44.00	   60.83	 -269.65	   37.69
     31.5005	   60.00	   62.11	 -254.93	   37.62
     31.5339	   51.00	   63.61	 -265.44	   37.56
     31.5673	   51.00	   65.40	 -267.22	   37.49
     31.6008	   66.00	   67.53	 -254.35	   37.43
     31.6342	   60.00	   70.28	 -263.10	   37.37
     31.6676	   61.00	   73.35	 -265.17	   37.30
     31.7010	   65.00	   77.08	 -264.90	   37.24
     31.7345	   83.00	   81.74	 -251.56	   37.17
     31.7679	   65.00	   87.34	 -275.16	   37.11
     31.8013	   63.00	   94.28	 -284.10	   37.04
     31.8347	   70.00	  102.88	 -285.70	   36.98
     31.8682	   89.00	  113.54	 -277.36	   36.92
     31.9016	  102.00	  126.71	 -277.53	   36.85
     31.9350	  116.00	  142.76	 -279.58	   36.79
     31.9684	  130.00	  161.80	 -284.62	   36.73
     32.0018	  171.00	  183.33	 -265.15	   36.66
     32.0353	  213.00	  205.69	 -245.51	   36.60
     32.0687	  238.00	  225.75	 -240.57	   36.54
     32.1021	  229.00	  239.52	 -263.34	   36.47
     32.1355	  215.00	  243.83	 -281.65	   36.41
     32.1690	  206.00	  237.91	 -284.73	   36.35
     32.2024	  205.00	  223.44	 -271.26	   36.29
     32.2358	  161.00	  203.54	 -295.36	   36.22
     32.2692	  150.00	  181.58	 -284.40	   36.16
     32.3026	  131.00	  160.29	 -282.11	   36.10
     32.3361	  126.00	  141.25	 -268.07	   36.04
     32.3695	  106.00	  125.05	 -271.87	   35.97
     32.4029	   83.00	  111.64	 -281.47	   35.91
     32.4363	   87.00	  100.70	 -266.53	   35.85
     32.4698	   60.00	   91.82	 -284.64	   35.79
     32.5032	   74.00	   84.59	 -263.42	   35.73
     32.5366	   76.00	   78.70	 -255.52	   35.67
     32.5700	   49.00	   73.85	 -277.68	   35.60
     32.6034	   54.00	   69.84	 -268.66	   35.54
     32.6369	   64.00	   66.48	 -255.30	   35.48
     32.6703	   49.00	   63.65	 -267.47	   35.42
     32.7037	   57.00	   61.23	 -257.05	   35.36
     32.7371	   55.00	   59.15	 -256.98	   35.30
     32.7706	   51.00	   57.36	 -259.18	   35.24
     32.8040	   38.00	   55.79	 -270.61	   35.18
     32.8374	   35.00	   54.41	 -272.23	   35.12
     32.8708	   42.00	   53.19	 -264.01	   35.06
     32.9043	   46.00	   52.11	 -258.93	   34.99
     32.9377	   44.00	   51.14	 -259.96	   34.93
     32.9711	   37.00	   50.27	 -266.09	   34.87
     33.0045	   42.00	   49.48	 -260.30	   34.81
     33.0379	   30.00	   48.77	 -271.59	   34.75
     33.0714	   33.00	   48.12	 -267.94	   34.69
     33.1048	   31.00	   47.52	 -269.34	   34.63
     33.1382	   39.00	   46.97	 -260.80	   34.58
     33.1716	   33.00	   46.47	 -266.29	   34.52
     33.2051	   38.00	   46.01	 -260.83	   34.46
     33.2385	   39.00	   45.58	 -259.40	   34.40
     33.2719	   28.00	   45.18	 -270.00	   34.34
     33.3053	   28.00	   44.80	 -269.62	   34.28
     33.3387	   32.00	   44.45	 -265.27	   34.22
     33.3722	   31.00	   44.12	 -265.94	   34.16
     33.4056	   38.00	   43.81	 -258.64	   34.10
     33.4390	   29.00	   43.52	 -267.34	   34.04
     33.4724	   47.00	   43.25	 -249.07	   33.98
     33.5059	   37.00	   42.99	 -258.81	   33.93
     33.5393	   45.00	   42.74	 -250.56	   33.87
     33.5727	   32.00	   42.51	 -263.33	   33.81
     33.6061	   24.00	   42.28	 -271.11	   33.75
     33.6395	   39.00	   42.07	 -255.89	   33.69
     33.6730	   35.00	   41.87	 -259.69	   33.64
     33.7064	   28.00	   41.67	 -266.50	   33.58
     33.7398	   48.00	   41.49	 -246.31	   33.52
     33.7732	   32.00	   41.31	 -262.13	   33.46
     33.8067	   41.00	   41.14	 -252.96	   33.40
     33.8401	   34.00	   40.97	 -259.79	   33.35
     33.8735	   52.00	   40.81	 -241.63	   33.29
     33.9069	   27.00	   40.66	 -266.48	   33.23
     33.9403	   31.00	   40.51	 -262.33	   33.18
     33.9738	   41.00	   40.37	 -252.19	   33.12
     34.0072	   32.00	   40.23	 -261.05	   33.06
     34.0406	   24.00	   40.10	 -268.92	   33.00
     34.0740	   39.00	   39.97	 -253.79	   32.95
     34.1075	   44.00	   39.84	 -248.66	   32.89
     34.1409	   33.00	   39.72	 -259.54	   32.83
     34.1743	   33.00	   39.64	 -259.46	   32.78
     34.2077	   27.00	   39.52	 -265.34	   32.72
     34.2411	   36.00	   39.41	 -256.23	   32.67
     34.2746	   24.00	   39.32	 -268.14	   32.61
     34.3080	   28.00	   39.22	 -264.04	   32.55
     34.3414	   44.00	   39.11	 -247.93	   32.50
     34.3748	   32.00	   39.01	 -259.83	   32.44
     34.4083	   28.00	   38.92	 -263.74	   32.39
     34.4417	   32.00	   38.82	 -259.64	   32.33
     34.4751	   37.00	   38.73	 -254.55	   32.27
     34.5085	   32.00	   38.64	 -259.46	   32.22
     34.5420	   32.00	   38.55	 -259.37	   32.16
     34.5754	   29.00	   38.47	 -262.29	   32.11
     34.6088	   37.00	   38.38	 -254.21	   32.05
     34.6422	   30.00	   38.30	 -261.12	   32.00
     34.6756	   24.00	   38.22	 -267.05	   31.94
     34.7091	   23.00	   38.15	 -267.97	   31.89
     34.7425	   21.00	   38.07	 -269.89	   31.83
     34.7759	   31.00	   38.00	 -259.82	   31.78
     34.8093	   29.00	   37.93	 -261.75	   31.73
     34.8428	   29.00	   37.86	 -261.68	   31.67
     34.8762	   30.00	   37.80	 -260.62	   31.62
     34.9096	   32.00	   37.73	 -258.55	   31.56
     34.9430	   43.00	   37.67	 -247.49	   31.51
     34.9764	   34.00	   37.61	 -256.43	   31.45
     35.0099	   33.00	   37.55	 -257.37	   31.40
     35.0433	   33.00	   37.49	 -257.32	   31.35
     35.0767	   32.00	   37.44	 -258.26	   31.29
     35.1101	   38.00	   37.39	 -252.21	   31.24
     35.1436	   25.00	   37.34	 -265.16	   31.19
     35.1770	   30.00	   37.29	 -260.11	   31.13
     35.2104	   25.00	   37.25	 -265.07	   31.08
     35.2438	   47.00	   37.21	 -243.03	   31.03
     35.2773	   35.00	   37.17	 -254.99	   30.97
     35.3107	   19.00	   37.13	 -270.95	   30.92
     35.3441	   35.00	   37.10	 -254.92	   30.87
     35.3775	   31.00	   37.07	 -258.89	   30.82
     35.4109	   38.00	   37.04	 -251.86	   30.76
     35.4444	   32.00	   37.01	 -257.83	   30.71
     35.4778	   23.00	   36.99	 -266.81	   30.66
     35.5112	   39.00	   36.98	 -250.80	   30.61
     35.5446	   34.00	   36.96	 -255.79	   30.55
     35.5781	   30.00	   36.96	 -259.78	   30.50
     35.6115	   22.00	   36.95	 -267.77	   30.45
     35.6449	   18.00	   36.96	 -271.78	   30.40
     35.6783	   31.00	   36.96	 -258.79	   30.34
     35.7117	   21.00	   36.98	 -268.80	   30.29
     35.7452	   32.00	   37.00	 -257.82	   30.24
     35.7786	   38.00	   37.03	 -251.85	   30.19
     35.8120	   42.00	   37.07	 -247.89	   30.14
     35.8454	   30.00	   37.12	 -259.94	   30.09
     35.8789	   36.00	   37.18	 -254.00	   30.04
     35.9123	   31.00	   37.25	 -259.07	   29.98
     35.9457	   28.00	   37.34	 -262.16	   29.93
     35.9791	   38.00	   37.44	 -252.26	   29.88
     36.0125	   30.00	   37.56	 -260.38	   29.83
     36.0460	   28.00	   37.70	 -262.52	   29.78
     36.0794	   16.00	   37.86	 -274.68	   29.73
     36.1128	   28.00	   38.06	 -262.88	   29.68
     36.1462	   44.00	   38.10	 -246.92	   29.63
     36.1797	   29.00	   38.36	 -262.18	   29.58
     36.2131	   45.00	   38.58	 -246.40	   29.53
     36.2465	   29.00	   38.95	 -262.77	   29.48
     36.2799	   30.00	   39.39	 -262.21	   29.43
     36.3133	   31.00	   39.91	 -261.73	   29.38
     36.3468	   38.00	   40.53	 -255.35	   29.33
     36.3802	   36.00	   41.27	 -258.09	   29.28
     36.4136	   38.00	   42.18	 -257.00	   29.23
     36.4470	   38.00	   43.28	 -258.10	   29.18
     36.4805	   36.00	   44.63	 -261.46	   29.13
     36.5139	   35.00	   46.31	 -264.13	   29.08
     36.5473	   42.00	   48.37	 -259.19	   29.03
     36.5807	   41.00	   50.92	 -262.75	   28.98
     36.6142	   69.00	   54.06	 -237.88	   28.93
     36.6476	   54.00	   57.86	 -256.68	   28.88
     36.6810	   65.00	   62.33	 -250.15	   28.83
     36.7144	   81.00	   67.32	 -239.14	   28.79
     36.7478	   86.00	   72.42	 -239.24	   28.74
     36.7813	   91.00	   76.91	 -238.73	   28.69
     36.8147	   83.00	   79.91	 -249.73	   28.64
     36.8481	   87.00	   80.81	 -246.63	   28.59
     36.8815	   97.00	   79.52	 -235.34	   28.54
     36.9150	   88.00	   76.39	 -241.21	   28.49
     36.9484	   72.00	   72.03	 -252.85	   28.45
     36.9818	   73.00	   67.12	 -246.94	   28.40
     37.0152	   50.00	   62.24	 -265.06	   28.35
     37.0486	   69.00	   57.81	 -241.63	   28.30
     37.0821	   44.00	   53.98	 -262.80	   28.26
     37.1155	   51.00	   50.79	 -252.61	   28.21
     37.1489	   50.00	   47.87	 -250.69	   28.16
     37.1823	   49.00	   45.74	 -249.56	   28.11
     37.2158	   33.00	   43.86	 -263.68	   28.06
     37.2492	   34.00	   42.45	 -261.27	   28.02
     37.2826	   38.00	   41.30	 -256.12	   27.97
     37.3160	   35.00	   40.35	 -258.17	   27.92
     37.3494	   29.00	   39.56	 -263.38	   27.88
     37.3829	   41.00	   38.90	 -250.72	   27.83
     37.4163	   29.00	   38.35	 -262.17	   27.78
     37.4497	   29.00	   37.88	 -261.70	   27.74
     37.4831	   30.00	   37.48	 -260.30	   27.69
     37.5166	   24.00	   37.14	 -265.96	   27.64
     37.5500	   34.00	   36.84	 -255.67	   27.60
     37.5834	   31.00	   36.59	 -258.41	   27.55
     37.6168	   33.00	   36.38	 -256.20	   27.50
     37.6502	   25.00	   36.19	 -264.01	   27.46
     37.6837	   33.00	   36.03	 -255.85	   27.41
     37.7171	   28.00	   35.90	 -260.72	   27.37
     37.7505	   24.00	   35.78	 -264.60	   27.32
     37.7839	   37.00	   35.68	 -251.50	   27.27
     37.8174	   33.00	   35.60	 -255.42	   27.23
     37.8508	   28.00	   35.54	 -260.36	   27.18
     37.8842	   29.00	   35.49	 -259.31	   27.14
     37.9176	   28.00	   35.45	 -260.27	   27.09
     37.9510	   34.00	   35.43	 -254.25	   27.05
     37.9845	   27.00	   35.41	 -261.23	   27.00
     38.0179	   25.00	   35.41	 -263.23	   26.96
     38.0513	   29.00	   35.42	 -259.24	   26.91
     38.0847	   22.00	   35.44	 -266.26	   26.87
     38.1182	   22.00	   35.47	 -266.29	   26.82
     38.1516	   28.00	   35.51	 -260.33	   26.78
     38.1850	   24.00	   35.56	 -264.38	   26.73
     38.2184	   47.00	   35.62	 -241.44	   26.69
     38.2519	   30.00	   35.69	 -258.51	   26.64
     38.2853	   36.00	   35.77	 -252.59	   26.60
     38.3187	   35.00	   35.86	 -253.68	   26.55
     38.3521	   35.00	   35.96	 -253.78	   26.51
     38.3855	   27.00	   36.07	 -261.90	   26.47
     38.4190	   31.00	   36.20	 -258.02	   26.42
     38.4524	   33.00	   36.34	 -256.16	   26.38
     38.4858	   29.00	   36.49	 -260.31	   26.33
     38.5192	   37.00	   36.65	 -252.47	   26.29
     38.5527	   32.00	   36.83	 -257.65	   26.25
     38.5861	   34.00	   37.02	 -255.84	   26.20
     38.6195	   37.00	   37.23	 -253.05	   26.16
     38.6529	   33.00	   37.46	 -257.28	   26.12
     38.6863	   34.00	   37.70	 -256.52	   26.07
     38.7198	   35.00	   37.97	 -255.79	   26.03
     38.7532	   36.00	   38.25	 -255.07	   25.99
     38.7866	   45.00	   38.56	 -246.38	   25.94
     38.8200	   49.00	   38.89	 -242.71	   25.90
     38.8535	   38.00	   39.25	 -254.07	   25.86
     38.8869	   38.00	   39.64	 -254.46	   25.81
     38.9203	   51.00	   40.06	 -241.88	   25.77
     38.9537	   37.00	   40.51	 -256.33	   25.73
     38.9872	   45.00	   41.00	 -248.82	   25.69
     39.0206	   42.00	   41.53	 -252.35	   25.64
     39.0540	   36.00	   42.10	 -258.92	   25.60
     39.0874	   46.00	   42.72	 -249.54	   25.56
     39.1208	   50.00	   43.40	 -246.22	   25.52
     39.1543	   45.00	   44.13	 -251.96	   25.48
     39.1877	   48.00	   44.94	 -249.76	   25.43
     39.2211	   44.00	   45.81	 -254.63	   25.39
     39.2545	   49.00	   46.77	 -250.59	   25.35
     39.2880	   49.00	   47.82	 -251.64	   25.31
     39.3214	   50.00	   48.97	 -251.79	   25.27
     39.3548	   61.00	   50.24	 -242.06	   25.23
     39.3882	   45.00	   51.64	 -259.46	   25.18
     39.4216	   55.00	   53.19	 -251.01	   25.14
     39.4551	   34.00	   54.90	 -273.72	   25.10
     39.4885	   60.00	   56.81	 -249.63	   25.06
     39.5219	   68.00	   58.95	 -243.77	   25.02
     39.5553	   62.00	   61.34	 -252.16	   24.98
     39.5888	   75.00	   64.03	 -241.85	   24.94
     39.6222	   56.00	   67.06	 -263.89	   24.90
     39.6556	   56.00	   70.54	 -267.36	   24.86
     39.6890	   56.00	   74.47	 -271.29	   24.82
     39.7224	   71.00	   78.97	 -260.79	   24.78
     39.7559	   97.00	   84.16	 -239.98	   24.73
     39.7893	   92.00	   90.20	 -251.02	   24.69
     39.8227	  106.00	   97.24	 -244.06	   24.65
     39.8561	  114.00	  105.53	 -244.35	   24.61
     39.8896	  109.00	  115.36	 -259.19	   24.57
     39.9230	  158.00	  127.15	 -221.97	   24.53
     39.9564	  125.00	  141.36	 -269.18	   24.49
     39.9898	  150.00	  158.65	 -261.47	   24.45
     40.0233	  188.00	  179.80	 -244.62	   24.41
     40.0567	  199.00	  205.83	 -259.65	   24.37
     40.0901	  261.00	  237.76	 -229.58	   24.34
     40.1235	  284.00	  276.88	 -245.70	   24.30
     40.1569	  363.00	  324.24	 -214.06	   24.26
     40.1904	  411.00	  380.34	 -222.16	   24.22
     40.2238	  487.00	  443.89	 -209.71	   24.18
     40.2572	  517.00	  510.75	 -246.57	   24.14
     40.2906	  642.00	  572.81	 -183.63	   24.10
     40.3241	  706.00	  619.31	 -166.14	   24.06
     40.3575	  732.00	  641.22	 -162.04	   24.02
     40.3909	  731.00	  635.40	 -157.22	   23.98
     40.4243	  692.00	  604.90	 -165.72	   23.94
     40.4577	  634.00	  555.91	 -174.73	   23.91
     40.4912	  556.00	  495.91	 -192.73	   23.87
     40.5246	  461.00	  432.54	 -224.36	   23.83
     40.5580	  418.00	  372.04	 -206.86	   23.79
     40.5914	  357.00	  318.16	 -213.99	   23.75
     40.6249	  320.00	  272.17	 -204.99	   23.71
     40.6583	  255.00	  234.16	 -231.98	   23.68
     40.6917	  204.00	  202.89	 -251.71	   23.64
     40.7251	  197.00	  177.35	 -233.17	   23.60
     40.7585	  170.00	  156.54	 -239.36	   23.56
     40.7920	  142.00	  139.56	 -250.38	   23.52
     40.8254	  157.00	  125.53	 -221.35	   23.49
     40.8588	  148.00	  113.88	 -218.71	   23.45
     40.8922	  102.00	  104.14	 -254.96	   23.41
     40.9257	  112.00	   95.93	 -236.75	   23.37
     40.9591	   90.00	   88.95	 -251.77	   23.34
     40.9925	   88.00	   82.97	 -247.79	   23.30
     41.0259	   94.00	   77.81	 -236.63	   23.26
     41.0593	   74.00	   73.33	 -252.15	   23.23
     41.0928	   75.00	   69.42	 -247.24	   23.19
     41.1262	   51.00	   65.98	 -267.80	   23.15
     41.1596	   71.00	   62.95	 -244.77	   23.12
     41.1930	   52.00	   60.27	 -261.09	   23.08
     41.2265	   55.00	   57.88	 -255.70	   23.04
     41.2599	   59.00	   55.75	 -249.57	   23.01
     41.2933	   59.00	   53.84	 -247.66	   22.97
     41.3267	   52.00	   52.12	 -252.95	   22.93
     41.3602	   45.00	   50.58	 -258.40	   22.90
     41.3936	   52.00	   49.19	 -250.01	   22.86
     41.4270	   42.00	   47.93	 -258.75	   22.82
     41.4604	   38.00	   46.78	 -261.61	   22.79
     41.4938	   44.00	   45.75	 -254.57	   22.75
     41.5273	   37.00	   44.81	 -260.63	   22.72
     41.5607	   43.00	   43.96	 -253.78	   22.68
     41.5941	   48.00	   43.18	 -248.00	   22.64
     41.6275	   42.00	   42.48	 -253.30	   22.61
     41.6610	   36.00	   41.85	 -258.67	   22.57
     41.6944	   43.00	   41.27	 -251.10	   22.54
     41.7278	   46.00	   40.76	 -247.58	   22.50
     41.7612	   45.00	   40.30	 -248.12	   22.47
     41.7946	   43.00	   39.89	 -249.71	   22.43
     41.8281	   37.00	   39.53	 -255.35	   22.40
     41.8615	   59.00	   39.22	 -233.04	   22.36
     41.8949	   45.00	   38.95	 -246.77	   22.33
     41.9283	   27.00	   38.74	 -264.56	   22.29
     41.9618	   42.00	   38.57	 -249.39	   22.26
     41.9952	   62.00	   38.44	 -229.27	   22.22
     42.0286	   38.00	   38.37	 -253.19	   22.19
     42.0620	   33.00	   38.35	 -258.17	   22.15
     42.0954	   35.00	   38.39	 -256.21	   22.12
     42.1289	   31.00	   38.48	 -260.30	   22.08
     42.1623	   28.00	   38.64	 -263.46	   22.05
     42.1957	   46.00	   38.87	 -245.69	   22.02
     42.2291	   41.00	   39.17	 -250.99	   21.98
     42.2626	   31.00	   39.57	 -261.39	   21.95
     42.2960	   29.00	   40.08	 -263.90	   21.91
     42.3294	   41.00	   40.70	 -252.52	   21.88
     42.3628	   42.00	   41.47	 -252.29	   21.85
     42.3963	   38.00	   42.40	 -257.22	   21.81
     42.4297	   48.00	   43.56	 -248.38	   21.78
     42.4631	   32.00	   44.95	 -265.77	   21.75
     42.4965	   47.00	   46.65	 -252.47	   21.71
     42.5299	   64.00	   48.73	 -237.55	   21.68
     42.5634	   66.00	   51.29	 -238.11	   21.65
     42.5968	   55.00	   54.45	 -252.27	   21.61
     42.6302	   57.00	   58.35	 -254.17	   21.58
     42.6636	   64.00	   63.18	 -252.00	   21.55
     42.6971	   72.00	   69.13	 -249.95	   21.51
     42.7305	   95.00	   76.43	 -234.25	   21.48
     42.7639	   90.00	   85.23	 -248.05	   21.45
     42.7973	  106.00	   95.52	 -242.34	   21.41
     42.8307	  114.00	  106.95	 -245.77	   21.38
     42.8642	  156.00	  118.55	 -215.37	   21.35
     42.8976	  144.00	  128.73	 -237.55	   21.32
     42.9310	  166.00	  135.63	 -222.45	   21.28
     42.9644	  202.00	  137.99	 -188.81	   21.25
     42.9979	  151.00	  135.67	 -237.50	   21.22
     43.0313	  142.00	  129.44	 -240.26	   21.19
     43.0647	  139.00	  120.35	 -234.17	   21.16
     43.0981	  137.00	  109.60	 -225.42	   21.12
     43.1315	  121.00	   98.42	 -230.24	   21.09
     43.1650	   98.00	   87.82	 -242.64	   21.06
     43.1984	   97.00	   78.39	 -234.21	   21.03
     43.2318	   86.00	   70.34	 -237.16	   21.00
     43.2652	   60.00	   63.64	 -256.46	   20.96
     43.2987	   72.00	   58.12	 -238.94	   20.93
     43.3321	   63.00	   53.60	 -243.42	   20.90
     43.3655	   68.00	   49.88	 -234.70	   20.87
     43.3989	   62.00	   46.83	 -237.65	   20.84
     43.4324	   65.00	   44.29	 -232.11	   20.81
     43.4658	   65.00	   42.17	 -229.99	   20.78
     43.4992	   62.00	   40.38	 -231.20	   20.74
     43.5326	   38.00	   38.86	 -253.68	   20.71
     43.5660	   49.00	   37.56	 -241.38	   20.68
     43.5995	   61.00	   36.43	 -228.25	   20.65
     43.6329	   38.00	   35.45	 -250.27	   20.62
     43.6663	   24.00	   34.59	 -263.41	   20.59
     43.6997	   33.00	   33.83	 -253.65	   20.56
     43.7332	   36.00	   33.16	 -249.98	   20.53
     43.7666	   25.00	   32.56	 -260.38	   20.50
     43.8000	   25.00	   32.02	 -259.84	   20.47
     43.8334	   30.00	   31.54	 -254.36	   20.44
     43.8668	   41.00	   31.10	 -242.92	   20.41
     43.9003	   23.00	   30.70	 -260.52	   20.38
     43.9337	   36.00	   30.33	 -247.15	   20.35
     43.9671	   34.00	   30.00	 -248.82	   20.32
     44.0005	   31.00	   29.69	 -251.51	   20.29
     44.0340	   31.00	   29.41	 -251.23	   20.26
     44.0674	   27.00	   29.15	 -254.97	   20.23
     44.1008	   36.00	   28.91	 -245.73	   20.20
     44.1342	   20.00	   28.69	 -261.51	   20.17
     44.1676	   29.00	   28.48	 -252.30	   20.14
     44.2011	   17.00	   28.28	 -264.11	   20.11
     44.2345	   28.00	   28.10	 -252.92	   20.08
     44.2679	   20.00	   27.93	 -260.75	   20.05
     44.3013	   25.00	   27.77	 -255.59	   20.02
     44.3348	   28.00	   27.62	 -252.44	   19.99
     44.3682	   24.00	   27.48	 -256.30	   19.96
     44.4016	   22.00	   27.35	 -258.17	   19.93
     44.4350	   28.00	   27.22	 -252.04	   19.91
     44.4684	   25.00	   27.10	 -254.92	   19.88
     44.5019	   30.00	   26.99	 -249.81	   19.85
     44.5353	   27.00	   26.88	 -252.70	   19.82
     44.5687	   24.00	   26.78	 -255.60	   19.79
     44.6021	   22.00	   26.68	 -257.50	   19.76
     44.6356	   24.00	   26.59	 -255.41	   19.73
     44.6690	   35.00	   26.50	 -244.33	   19.71
     44.7024	   22.00	   26.42	 -257.24	   19.68
     44.7358	   31.00	   26.34	 -248.16	   19.65
     44.7692	   27.00	   26.27	 -252.09	   19.62
     44.8027	   22.00	   26.20	 -257.02	   19.59
     44.8361	   21.00	   26.13	 -257.95	   19.56
     44.8695	   24.00	   26.06	 -254.88	   19.54
     44.9029	   23.00	   26.00	 -255.82	   19.51
     44.9364	   31.00	   25.94	 -247.76	   19.48
     44.9698	   23.00	   25.88	 -255.70	   19.45
     45.0032	   35.00	   25.83	 -243.65	   19.43
     45.0366	   25.00	   25.78	 -253.60	   19.40
     45.0701	   35.00	   25.73	 -243.55	   19.37
     45.1035	   25.00	   25.68	 -253.50	   19.34
     45.1369	   29.00	   25.64	 -249.46	   19.32
     45.1703	   28.00	   25.60	 -250.42	   19.29
     45.2037	   28.00	   25.56	 -250.38	   19.26
     45.2372	   19.00	   25.52	 -259.34	   19.23
     45.2706	   29.00	   25.49	 -249.31	   19.21
     45.3040	   22.00	   25.45	 -256.27	   19.18
     45.3374	   17.00	   25.42	 -261.24	   19.15
     45.3709	   36.00	   25.39	 -242.21	   19.13
     45.4043	   30.00	   25.37	 -248.19	   19.10
     45.4377	   25.00	   25.33	 -253.15	   19.07
     45.4711	   19.00	   25.30	 -259.12	   19.05
     45.5045	   24.00	   25.28	 -254.10	   19.02
     45.5380	   32.00	   25.25	 -246.07	   18.99
     45.5714	   23.00	   25.24	 -255.06	   18.97
     45.6048	   22.00	   25.22	 -256.04	   18.94
     45.6382	   20.00	   25.21	 -258.03	   18.91
     45.6717	   21.00	   25.20	 -257.02	   18.89
     45.7051	   27.00	   25.19	 -251.01	   18.86
     45.7385	   17.00	   25.18	 -261.00	   18.84
     45.7719	   24.00	   25.17	 -253.99	   18.81
     45.8053	   34.00	   25.17	 -243.99	   18.78
     45.8388	   34.00	   25.16	 -243.99	   18.76
     45.8722	   24.00	   25.16	 -253.99	   18.73
     45.9056	   28.00	   25.17	 -249.99	   18.71
     45.9390	   18.00	   25.17	 -259.99	   18.68
     45.9725	   19.00	   25.18	 -259.00	   18.65
     46.0059	   20.00	   25.18	 -258.01	   18.63
     46.0393	   32.00	   25.20	 -246.02	   18.60
     46.0727	   31.00	   25.21	 -247.03	   18.58
     46.1062	   33.00	   25.22	 -245.04	   18.55
     46.1396	   22.00	   25.24	 -256.06	   18.53
     46.1730	   19.00	   25.26	 -259.08	   18.50
     46.2064	   37.00	   25.28	 -241.10	   18.48
     46.2398	   27.00	   25.31	 -251.13	   18.45
     46.2733	   33.00	   25.34	 -245.16	   18.43
     46.3067	   25.00	   25.37	 -253.19	   18.40
     46.3401	   25.00	   25.40	 -253.22	   18.38
     46.3735	   27.00	   25.44	 -251.26	   18.35
     46.4070	   28.00	   25.48	 -250.30	   18.33
     46.4404	   30.00	   25.52	 -248.34	   18.30
     46.4738	   27.00	   25.57	 -251.39	   18.28
     46.5072	   30.00	   25.62	 -248.44	   18.26
     46.5406	   31.00	   25.67	 -247.49	   18.23
     46.5741	   39.00	   25.73	 -239.55	   18.21
     46.6075	   19.00	   25.79	 -259.61	   18.18
     46.6409	   32.00	   25.85	 -246.67	   18.16
     46.6743	   21.00	   25.92	 -257.74	   18.13
     46.7078	   39.00	   26.00	 -239.82	   18.11
     46.7412	   31.00	   26.08	 -247.90	   18.09
     46.7746	   24.00	   26.16	 -254.98	   18.06
     46.8080	   20.00	   26.25	 -259.07	   18.04
     46.8414	   23.00	   26.35	 -256.17	   18.02
     46.8749	   31.00	   26.45	 -248.27	   17.99
     46.9083	   24.00	   26.56	 -255.38	   17.97
     46.9417	   22.00	   26.68	 -257.50	   17.94
     46.9751	   23.00	   26.80	 -256.62	   17.92
     47.0086	   36.00	   26.93	 -243.75	   17.90
     47.0420	   41.00	   27.07	 -238.89	   17.87
     47.0754	   31.00	   27.22	 -249.04	   17.85
     47.1088	   29.00	   27.37	 -251.19	   17.83
     47.1423	   39.00	   27.54	 -241.36	   17.81
     47.1757	   33.00	   27.72	 -247.54	   17.78
     47.2091	   21.00	   27.91	 -259.73	   17.76
     47.2425	   27.00	   28.11	 -253.93	   17.74
     47.2759	   42.00	   28.32	 -239.14	   17.71
     47.3094	   34.00	   28.55	 -247.37	   17.69
     47.3428	   27.00	   28.80	 -254.62	   17.67
     47.3762	   45.00	   29.06	 -236.88	   17.65
     47.4096	   44.00	   29.34	 -238.16	   17.62
     47.4431	   38.00	   29.63	 -244.46	   17.60
     47.4765	   43.00	   29.96	 -239.78	   17.58
     47.5099	   49.00	   30.30	 -234.12	   17.56
     47.5433	   39.00	   30.67	 -244.49	   17.53
     47.5767	   49.00	   31.07	 -234.89	   17.51
     47.6102	   44.00	   31.54	 -240.36	   17.49
     47.6436	   44.00	   32.00	 -240.82	   17.47
     47.6770	   29.00	   32.51	 -256.33	   17.45
     47.7104	   56.00	   33.05	 -229.87	   17.42
     47.7439	   56.00	   33.64	 -230.46	   17.40
     47.7773	   50.00	   34.31	 -237.13	   17.38
     47.8107	   54.00	   35.01	 -233.83	   17.36
     47.8441	   48.00	   35.78	 -240.60	   17.34
     47.8775	   46.00	   36.62	 -243.44	   17.31
     47.9110	   51.00	   37.56	 -239.38	   17.29
     47.9444	   60.00	   38.59	 -231.41	   17.27
     47.9778	   65.00	   39.76	 -227.58	   17.25
     48.0112	   66.00	   41.04	 -227.86	   17.23
     48.0447	   58.00	   42.47	 -237.29	   17.21
     48.0781	   61.00	   44.08	 -235.91	   17.19
     48.1115	   48.00	   45.93	 -250.75	   17.17
     48.1449	   70.00	   48.02	 -230.84	   17.14
     48.1783	   61.00	   50.43	 -242.25	   17.12
     48.2118	   77.00	   53.22	 -229.04	   17.10
     48.2452	   70.00	   56.47	 -239.29	   17.08
     48.2786	   74.00	   60.30	 -239.12	   17.06
     48.3120	   89.00	   64.84	 -228.66	   17.04
     48.3455	  103.00	   70.23	 -220.05	   17.02
     48.3789	   89.00	   76.66	 -240.48	   17.00
     48.4123	   96.00	   84.32	 -241.14	   16.98
     48.4457	  101.00	   93.36	 -245.18	   16.96
     48.4792	  153.00	  103.84	 -203.66	   16.94
     48.5126	  143.00	  115.58	 -225.40	   16.92
     48.5460	  173.00	  127.98	 -207.80	   16.90
     48.5794	  177.00	  140.00	 -215.82	   16.88
     48.6128	  181.00	  150.37	 -222.19	   16.86
     48.6463	  220.00	  158.23	 -191.05	   16.84
     48.6797	  230.00	  163.61	 -186.43	   16.82
     48.7131	  233.00	  167.25	 -187.07	   16.80
     48.7465	  220.00	  170.11	 -202.93	   16.78
     48.7800	  208.00	  173.20	 -218.02	   16.76
     48.8134	  248.00	  177.63	 -182.46	   16.74
     48.8468	  251.00	  184.53	 -186.35	   16.72
     48.8802	  256.00	  194.71	 -191.53	   16.70
     48.9136	  294.00	  208.37	 -167.20	   16.68
     48.9471	  310.00	  224.75	 -167.57	   16.66
     48.9805	  293.00	  241.87	 -201.69	   16.64
     49.0139	  357.00	  256.83	 -152.65	   16.62
     49.0473	  354.00	  266.74	 -165.57	   16.60
     49.0808	  388.00	  269.97	 -134.79	   16.58
     49.1142	  354.00	  267.36	 -166.18	   16.56
     49.1476	  354.00	  260.15	 -158.97	   16.54
     49.1810	  340.00	  249.79	 -162.61	   16.52
     49.2144	  326.00	  238.10	 -164.92	   16.50
     49.2479	  342.00	  226.87	 -137.69	   16.49
     49.2813	  291.00	  218.00	 -179.82	   16.47
     49.3147	  260.00	  213.01	 -205.83	   16.45
     49.3481	  322.00	  212.90	 -143.72	   16.43
     49.3816	  333.00	  218.33	 -138.16	   16.41
     49.4150	  333.00	  229.79	 -149.61	   16.39
     49.4484	  331.00	  247.71	 -169.53	   16.37
     49.4818	  380.00	  272.34	 -145.16	   16.35
     49.5153	  424.00	  303.48	 -132.30	   16.34
     49.5487	  500.00	  339.87	  -92.69	   16.32
     49.5821	  522.00	  378.41	 -109.23	   16.30
     49.6155	  578.00	  413.79	  -88.61	   16.28
     49.6489	  602.00	  439.60	  -90.43	   16.26
     49.6824	  638.00	  450.95	  -65.77	   16.24
     49.7158	  605.00	  446.78	  -94.60	   16.23
     49.7492	  575.00	  429.27	 -107.09	   16.21
     49.7826	  537.00	  401.54	 -117.36	   16.19
     49.8161	  492.00	  366.46	 -127.28	   16.17
     49.8495	  455.00	  327.21	 -125.03	   16.15
     49.8829	  400.00	  287.29	 -140.11	   16.14
     49.9163	  368.00	  249.69	 -134.51	   16.12
     49.9497	  310.00	  216.27	 -159.09	   16.10
     49.9832	  246.00	  187.63	 -194.45	   16.08
     50.0166	  245.00	  163.63	 -171.45	   16.07
     50.0500	  220.00	  143.75	 -176.58	   16.05
     50.0834	  183.00	  127.36	 -197.19	   16.03
     50.1169	  168.00	  113.82	 -198.64	   16.01
     50.1503	  125.00	  102.60	 -230.42	   16.00
     50.1837	  132.00	   93.25	 -214.07	   15.98
     50.2171	  133.00	   85.42	 -205.24	   15.96
     50.2505	  125.00	   78.81	 -206.63	   15.95
     50.2840	  115.00	   73.18	 -211.00	   15.93
     50.3174	   95.00	   68.35	 -226.18	   15.91
     50.3508	  108.00	   64.20	 -209.02	   15.89
     50.3842	   97.00	   60.59	 -216.41	   15.88
     50.4177	   63.00	   57.45	 -247.27	   15.86
     50.4511	   73.00	   54.71	 -234.53	   15.84
     50.4845	   81.00	   52.30	 -224.12	   15.83
     50.5179	   62.00	   50.17	 -240.99	   15.81
     50.5513	   69.00	   48.29	 -232.11	   15.79
     50.5848	   63.00	   46.64	 -236.46	   15.78
     50.6182	   58.00	   45.18	 -240.00	   15.76
     50.6516	   44.00	   43.90	 -252.72	   15.75
     50.6850	   72.00	   42.77	 -223.59	   15.73
     50.7185	   55.00	   41.79	 -239.61	   15.71
     50.7519	   52.00	   40.95	 -241.77	   15.70
     50.7853	   39.00	   40.23	 -254.05	   15.68
     50.8187	   57.00	   39.64	 -235.47	   15.66
     50.8521	   49.00	   39.18	 -243.00	   15.65
     50.8856	   70.00	   38.84	 -221.67	   15.63
     50.9190	   60.00	   38.64	 -231.46	   15.62
     50.9524	   63.00	   38.58	 -228.40	   15.60
     50.9858	   36.00	   38.67	 -255.49	   15.58
     51.0193	   38.00	   38.93	 -253.75	   15.57
     51.0527	   47.00	   39.40	 -245.22	   15.55
     51.0861	   52.00	   40.11	 -240.93	   15.54
     51.1195	   56.00	   41.10	 -237.92	   15.52
     51.1530	   50.00	   42.43	 -245.25	   15.51
     51.1864	   61.00	   44.18	 -236.00	   15.49
     51.2198	   66.00	   46.43	 -233.25	   15.48
     51.2532	   69.00	   49.27	 -233.09	   15.46
     51.2866	   77.00	   52.80	 -228.62	   15.45
     51.3201	   70.00	   57.07	 -239.89	   15.43
     51.3535	   78.00	   62.03	 -236.85	   15.41
     51.3869	   97.00	   67.46	 -223.28	   15.40
     51.4203	  119.00	   72.83	 -206.65	   15.38
     51.4538	   90.00	   77.36	 -240.18	   15.37
     51.4872	   98.00	   80.25	 -235.07	   15.35
     51.5206	  102.00	   81.05	 -231.87	   15.34
     51.5540	  118.00	   79.84	 -214.67	   15.32
     51.5874	   97.00	   77.02	 -232.84	   15.31
     51.6209	   92.00	   72.98	 -233.80	   15.30
     51.6543	   90.00	   68.08	 -230.90	   15.28
     51.6877	   85.00	   62.72	 -230.54	   15.27
     51.7211	   81.00	   57.36	 -229.18	   15.25
     51.7546	   57.00	   52.32	 -248.14	   15.24
     51.7880	   57.00	   47.89	 -243.71	   15.22
     51.8214	   54.00	   44.10	 -242.92	   15.21
     51.8548	   39.00	   40.90	 -254.72	   15.19
     51.8883	   45.00	   38.24	 -246.06	   15.18
     51.9217	   47.00	   36.03	 -241.85	   15.17
     51.9551	   47.00	   34.19	 -240.01	   15.15
     51.9885	   38.00	   32.65	 -247.47	   15.14
     52.0219	   31.00	   31.35	 -253.17	   15.12
     52.0554	   32.00	   30.24	 -251.07	   15.11
     52.0888	   22.00	   29.30	 -260.12	   15.10
     52.1222	   31.00	   28.48	 -250.30	   15.08
     52.1556	   37.00	   27.77	 -243.59	   15.07
     52.1891	   29.00	   27.14	 -250.96	   15.05
     52.2225	   31.00	   26.59	 -248.41	   15.04
     52.2559	   29.00	   26.09	 -249.91	   15.03
     52.2893	   31.00	   25.65	 -247.47	   15.01
     52.3227	   18.00	   25.25	 -260.07	   15.00
     52.3562	   22.00	   24.89	 -255.71	   14.99
     52.3896	   30.00	   24.57	 -247.39	   14.97
     52.4230	   29.00	   24.27	 -248.09	   14.96
     52.4564	   32.00	   23.99	 -244.81	   14.95
     52.4899	   30.00	   23.74	 -246.56	   14.93
     52.5233	   22.00	   23.51	 -254.33	   14.92
     52.5567	   17.00	   23.29	 -259.11	   14.91
     52.5901	   18.00	   23.09	 -257.91	   14.89
     52.6235	   18.00	   22.91	 -257.73	   14.88
     52.6570	   27.00	   22.73	 -248.55	   14.87
     52.6904	   30.00	   22.57	 -245.39	   14.85
     52.7238	   28.00	   22.42	 -247.24	   14.84
     52.7572	   27.00	   22.27	 -248.10	   14.83
     52.7907	   22.00	   22.14	 -252.96	   14.82
     52.8241	   22.00	   22.01	 -252.83	   14.80
     52.8575	   23.00	   21.89	 -251.71	   14.79
     52.8909	   21.00	   21.78	 -253.60	   14.78
     52.9244	   21.00	   21.67	 -253.49	   14.77
     52.9578	   16.00	   21.57	 -258.39	   14.75
     52.9912	   29.00	   21.47	 -245.29	   14.74
     53.0246	   19.00	   21.38	 -255.20	   14.73
     53.0580	   30.00	   21.29	 -244.11	   14.72
     53.0915	   17.00	   21.21	 -257.03	   14.70
     53.1249	   20.00	   21.13	 -253.95	   14.69
     53.1583	   28.00	   21.06	 -245.88	   14.68
     53.1917	   14.00	   20.98	 -259.80	   14.67
     53.2252	   20.00	   20.92	 -253.74	   14.65
     53.2586	   14.00	   20.85	 -259.67	   14.64
     53.2920	   17.00	   20.79	 -256.61	   14.63
     53.3254	   23.00	   20.73	 -250.55	   14.62
     53.3588	   25.00	   20.67	 -248.49	   14.61
     53.3923	   23.00	   20.62	 -250.44	   14.60
     53.4257	   27.00	   20.56	 -246.39	   14.58
     53.4591	   19.00	   20.52	 -254.34	   14.57
     53.4925	   24.00	   20.47	 -249.29	   14.56
     53.5260	   17.00	   20.42	 -256.24	   14.55
     53.5594	   23.00	   20.38	 -250.20	   14.54
     53.5928	   22.00	   20.34	 -251.16	   14.53
     53.6262	   30.00	   20.30	 -243.12	   14.51
     53.6596	   28.00	   20.26	 -245.09	   14.50
     53.6931	   22.00	   20.23	 -251.05	   14.49
     53.7265	   15.00	   20.20	 -258.02	   14.48
     53.7599	   23.00	   20.17	 -249.99	   14.47
     53.7933	   25.00	   20.14	 -247.96	   14.46
     53.8268	   23.00	   20.11	 -249.93	   14.45
     53.8602	   16.00	   20.08	 -256.90	   14.43
     53.8936	   16.00	   20.06	 -256.88	   14.42
     53.9270	   17.00	   20.04	 -255.86	   14.41
     53.9604	   28.00	   20.01	 -244.84	   14.40
     53.9939	   34.00	   20.00	 -238.82	   14.39
     54.0273	   17.00	   19.98	 -255.80	   14.38
     54.0607	   29.00	   19.96	 -243.78	   14.37
     54.0941	   15.00	   19.95	 -257.77	   14.36
     54.1276	   29.00	   19.93	 -243.76	   14.35
     54.1610	   24.00	   19.92	 -248.74	   14.34
     54.1944	   16.00	   19.91	 -256.73	   14.33
     54.2278	   25.00	   19.91	 -247.73	   14.32
     54.2612	   24.00	   19.90	 -248.72	   14.31
     54.2947	   17.00	   19.90	 -255.72	   14.30
     54.3281	   16.00	   19.89	 -256.71	   14.28
     54.3615	   19.00	   19.89	 -253.71	   14.27
     54.3949	   16.00	   19.89	 -256.71	   14.26
     54.4284	   14.00	   19.90	 -258.72	   14.25
     54.4618	   20.00	   19.90	 -252.72	   14.24
     54.4952	   16.00	   19.91	 -256.73	   14.23
     54.5286	   18.00	   19.92	 -254.74	   14.22
     54.5621	   19.00	   19.93	 -253.75	   14.21
     54.5955	   22.00	   19.94	 -250.76	   14.20
     54.6289	   18.00	   19.96	 -254.78	   14.19
     54.6623	   18.00	   19.98	 -254.80	   14.18
     54.6957	   19.00	   20.00	 -253.82	   14.17
     54.7292	   20.00	   20.02	 -252.84	   14.16
     54.7626	   29.00	   20.04	 -243.87	   14.15
     54.7960	   17.00	   20.07	 -255.89	   14.14
     54.8294	   18.00	   20.10	 -254.93	   14.13
     54.8629	   22.00	   20.14	 -250.96	   14.12
     54.8963	   22.00	   20.18	 -251.00	   14.12
     54.9297	   23.00	   20.22	 -250.04	   14.11
     54.9631	   17.00	   20.27	 -256.09	   14.10
     54.9965	   21.00	   20.32	 -252.14	   14.09
     55.0300	   16.00	   20.37	 -257.19	   14.08
     55.0634	   27.00	   20.43	 -246.25	   14.07
     55.0968	   21.00	   20.50	 -252.32	   14.06
     55.1302	   24.00	   20.57	 -249.39	   14.05
     55.1637	   18.00	   20.64	 -255.46	   14.04
     55.1971	   25.00	   20.72	 -248.54	   14.03
     55.2305	   21.00	   20.80	 -252.62	   14.02
     55.2639	   21.00	   20.88	 -252.70	   14.01
     55.2973	   22.00	   20.97	 -251.79	   14.00
     55.3308	   16.00	   21.06	 -257.88	   14.00
     55.3642	   18.00	   21.16	 -255.98	   13.99
     55.3976	   31.00	   21.27	 -243.09	   13.98
     55.4310	   25.00	   21.38	 -249.21	   13.97
     55.4645	   19.00	   21.51	 -255.33	   13.96
     55.4979	   38.00	   21.64	 -236.46	   13.95
     55.5313	   31.00	   21.79	 -243.61	   13.94
     55.5647	   23.00	   21.95	 -251.77	   13.93
     55.5982	   17.00	   22.12	 -257.94	   13.93
     55.6316	   20.00	   22.35	 -255.17	   13.92
     55.6650	   25.00	   22.55	 -250.37	   13.91
     55.6984	   19.00	   22.77	 -256.59	   13.90
     55.7318	   20.00	   23.00	 -255.82	   13.89
     55.7653	   25.00	   23.26	 -251.08	   13.88
     55.7987	   15.00	   23.56	 -261.38	   13.87
     55.8321	   44.00	   23.87	 -232.69	   13.87
     55.8655	   35.00	   24.20	 -242.02	   13.86
     55.8990	   33.00	   24.57	 -244.39	   13.85
     55.9324	   35.00	   24.97	 -242.79	   13.84
     55.9658	   23.00	   25.40	 -255.23	   13.83
     55.9992	   30.00	   25.89	 -248.71	   13.83
     56.0326	   33.00	   26.42	 -246.24	   13.82
     56.0661	   41.00	   27.01	 -238.83	   13.81
     56.0995	   20.00	   27.66	 -260.48	   13.80
     56.1329	   33.00	   28.39	 -248.21	   13.79
     56.1663	   33.00	   29.20	 -249.02	   13.79
     56.1998	   42.00	   30.11	 -240.93	   13.78
     56.2332	   33.00	   31.14	 -250.96	   13.77
     56.2666	   34.00	   32.30	 -251.12	   13.76
     56.3000	   36.00	   33.62	 -250.45	   13.76
     56.3334	   38.00	   35.14	 -249.96	   13.75
     56.3669	   45.00	   36.88	 -244.70	   13.74
     56.4003	   50.00	   38.90	 -241.72	   13.73
     56.4337	   46.00	   41.26	 -248.08	   13.72
     56.4671	   70.00	   44.03	 -226.85	   13.72
     56.5006	   62.00	   47.31	 -238.13	   13.71
     56.5340	   43.00	   51.22	 -261.04	   13.70
     56.5674	   70.00	   55.90	 -238.72	   13.70
     56.6008	   70.00	   61.53	 -244.36	   13.69
     56.6343	   76.00	   68.32	 -245.14	   13.68
     56.6677	   79.00	   76.49	 -250.31	   13.67
     56.7011	   82.00	   86.23	 -257.05	   13.67
     56.7345	  108.00	   97.69	 -242.51	   13.66
     56.7679	  117.00	  110.77	 -246.59	   13.65
     56.8014	  150.00	  124.97	 -227.79	   13.65
     56.8348	  163.00	  139.21	 -229.03	   13.64
     56.8682	  198.00	  151.85	 -206.67	   13.63
     56.9016	  199.00	  161.24	 -215.06	   13.62
     56.9351	  210.00	  166.53	 -209.35	   13.62
     56.9685	  177.00	  168.03	 -243.85	   13.61
     57.0019	  192.00	  166.82	 -227.64	   13.60
     57.0353	  218.00	  163.88	 -198.70	   13.60
     57.0687	  210.00	  159.90	 -202.72	   13.59
     57.1022	  205.00	  155.56	 -203.38	   13.58
     57.1356	  185.00	  151.59	 -219.41	   13.58
     57.1690	  167.00	  148.63	 -234.45	   13.57
     57.2024	  183.00	  146.69	 -216.51	   13.57
     57.2359	  178.00	  145.11	 -219.93	   13.56
     57.2693	  176.00	  142.81	 -219.63	   13.55
     57.3027	  153.00	  138.91	 -238.73	   13.55
     57.3361	  146.00	  133.23	 -240.05	   13.54
     57.3695	  123.00	  126.13	 -255.96	   13.53
     57.4030	  122.00	  118.08	 -248.90	   13.53
     57.4364	  138.00	  109.29	 -224.11	   13.52
     57.4698	  124.00	  100.00	 -228.82	   13.51
     57.5032	   91.00	   90.58	 -252.40	   13.51
     57.5367	   75.00	   81.52	 -259.34	   13.50
     57.5701	   99.00	   73.22	 -227.04	   13.50
     57.6035	   78.00	   65.88	 -240.71	   13.49
     57.6369	   81.00	   59.62	 -231.44	   13.48
     57.6703	   55.00	   54.32	 -252.14	   13.48
     57.7038	   76.00	   49.87	 -226.69	   13.47
     57.7372	   44.00	   46.12	 -254.94	   13.47
     57.7706	   61.00	   42.99	 -234.81	   13.46
     57.8040	   55.00	   40.35	 -238.17	   13.46
     57.8375	   54.00	   38.11	 -236.94	   13.45
     57.8709	   56.00	   36.21	 -233.03	   13.44
     57.9043	   30.00	   34.58	 -257.40	   13.44
     57.9377	   38.00	   33.17	 -247.99	   13.43
     57.9712	   34.00	   31.95	 -250.77	   13.43
     58.0046	   45.00	   30.89	 -238.71	   13.42
     58.0380	   23.00	   29.89	 -259.71	   13.42
     58.0714	   38.00	   29.08	 -243.90	   13.41
     58.1048	   34.00	   28.36	 -247.18	   13.41
     58.1383	   23.00	   27.73	 -257.55	   13.40
     58.1717	   29.00	   27.14	 -250.96	   13.39
     58.2051	   28.00	   26.64	 -251.46	   13.39
     58.2385	   32.00	   26.21	 -247.03	   13.38
     58.2720	   30.00	   25.83	 -248.65	   13.38
     58.3054	   28.00	   25.50	 -250.32	   13.37
     58.3388	   30.00	   25.21	 -248.03	   13.37
     58.3722	   17.00	   24.96	 -260.78	   13.36
     58.4056	   23.00	   24.75	 -254.57	   13.36
     58.4391	   27.00	   24.57	 -250.40	   13.35
     58.4725	   30.00	   24.43	 -247.26	   13.35
     58.5059	   25.00	   24.33	 -252.15	   13.34
     58.5393	   20.00	   24.26	 -257.08	   13.34
     58.5728	   23.00	   24.22	 -254.04	   13.33
     58.6062	   21.00	   24.21	 -256.03	   13.33
     58.6396	   24.00	   24.24	 -253.06	   13.32
     58.6730	   32.00	   24.17	 -244.99	   13.32
     58.7064	   24.00	   24.27	 -253.09	   13.31
     58.7399	   24.00	   24.42	 -253.24	   13.31
     58.7733	   23.00	   24.61	 -254.44	   13.31
     58.8067	   25.00	   24.86	 -252.68	   13.30
     58.8401	   21.00	   25.10	 -256.92	   13.30
     58.8736	   18.00	   25.46	 -260.29	   13.29
     58.9070	   27.00	   25.91	 -251.73	   13.29
     58.9404	   25.00	   26.45	 -254.27	   13.28
     58.9738	   21.00	   27.09	 -258.91	   13.28
     59.0073	   17.00	   27.86	 -263.68	   13.27
     59.0407	   33.00	   28.78	 -248.60	   13.27
     59.0741	   27.00	   29.89	 -255.71	   13.27
     59.1075	   37.00	   31.23	 -247.05	   13.26
     59.1409	   42.00	   32.84	 -243.67	   13.26
     59.1744	   39.00	   34.80	 -248.62	   13.25
     59.2078	   41.00	   37.17	 -248.99	   13.25
     59.2412	   35.00	   40.03	 -257.85	   13.24
     59.2746	   38.00	   43.47	 -258.29	   13.24
     59.3081	   47.00	   47.52	 -253.35	   13.24
     59.3415	   43.00	   52.20	 -262.02	   13.23
     59.3749	   64.00	   57.37	 -246.19	   13.23
     59.4083	   66.00	   62.69	 -249.51	   13.22
     59.4417	   89.00	   67.62	 -231.45	   13.22
     59.4752	   83.00	   71.56	 -241.38	   13.22
     59.5086	   97.00	   74.09	 -229.91	   13.21
     59.5420	   73.00	   75.22	 -255.04	   13.21
     59.5754	   84.00	   75.32	 -244.14	   13.21
     59.6089	   71.00	   74.78	 -256.60	   13.20
     59.6423	   79.00	   73.88	 -247.70	   13.20
     59.6757	   78.00	   72.79	 -247.61	   13.19
     59.7091	   73.00	   71.71	 -251.54	   13.19
     59.7425	   69.00	   70.83	 -254.65	   13.19
     59.7760	   82.00	   70.17	 -240.99	   13.18
     59.8094	   72.00	   69.53	 -250.35	   13.18
     59.8428	   89.00	   68.53	 -232.35	   13.18
     59.8762	   81.00	   66.88	 -238.70	   13.17
     59.9097	   64.00	   64.53	 -253.35	   13.17
     59.9431	   69.00	   61.65	 -245.48	   13.17
     59.9765	   66.00	   58.43	 -245.26	   13.16
     60.0099	   73.00	   54.96	 -234.79	   13.16
     60.0434	   62.00	   51.29	 -242.11	   13.16
     60.0768	   48.00	   47.53	 -252.35	   13.15
     60.1102	   50.00	   43.85	 -246.67	   13.15
     60.1436	   48.00	   40.43	 -245.25	   13.15
     60.1770	   44.00	   37.38	 -246.20	   13.14
     60.2105	   36.00	   34.73	 -251.55	   13.14
     60.2439	   46.00	   32.48	 -239.30	   13.14
     60.2773	   33.00	   30.57	 -250.39	   13.14
     60.3107	   28.00	   28.97	 -253.79	   13.13
     60.3442	   34.00	   27.62	 -246.44	   13.13
     60.3776	   21.00	   26.47	 -258.29	   13.13
     60.4110	   28.00	   25.50	 -250.32	   13.12
     60.4444	   24.00	   24.66	 -253.48	   13.12
     60.4778	   25.00	   23.94	 -251.77	   13.12
     60.5113	   33.00	   23.32	 -243.14	   13.11
     60.5447	   20.00	   22.78	 -255.60	   13.11
     60.5781	   24.00	   22.28	 -251.10	   13.11
     60.6115	   27.00	   21.86	 -247.68	   13.11
     60.6450	   19.00	   21.48	 -255.30	   13.10
     60.6784	   24.00	   21.15	 -249.97	   13.10
     60.7118	   25.00	   20.84	 -248.66	   13.10
     60.7452	   12.00	   20.57	 -261.39	   13.10
     60.7786	   20.00	   20.32	 -253.14	   13.09
     60.8121	   11.00	   20.10	 -261.92	   13.09
     60.8455	   24.00	   19.90	 -248.72	   13.09
     60.8789	   16.00	   19.71	 -256.53	   13.09
     60.9123	   22.00	   19.54	 -250.36	   13.08
     60.9458	   15.00	   19.39	 -257.21	   13.08
     60.9792	   14.00	   19.25	 -258.07	   13.08
     61.0126	   20.00	   19.11	 -251.93	   13.08
     61.0460	   28.00	   18.99	 -243.81	   13.07
     61.0794	   16.00	   18.88	 -255.70	   13.07
     61.1129	   18.00	   18.78	 -253.60	   13.07
     61.1463	   17.00	   18.68	 -254.50	   13.07
     61.1797	   30.00	   18.59	 -241.41	   13.07
     61.2131	   15.00	   18.51	 -256.33	   13.06
     61.2466	   10.00	   18.43	 -261.25	   13.06
     61.2800	   22.00	   18.36	 -249.18	   13.06
     61.3134	   10.00	   18.29	 -261.11	   13.06
     61.3468	   10.00	   18.22	 -261.05	   13.06
     61.3803	   16.00	   18.16	 -254.99	   13.05
     61.4137	   17.00	   18.11	 -253.93	   13.05
     61.4471	   10.00	   18.06	 -260.88	   13.05
     61.4805	   15.00	   18.01	 -255.83	   13.05
     61.5139	   16.00	   18.00	 -254.82	   13.05
     61.5474	   16.00	   17.95	 -254.78	   13.04
     61.5808	   21.00	   17.92	 -249.74	   13.04
     61.6142	   19.00	   17.88	 -251.70	   13.04
     61.6476	   14.00	   17.85	 -256.67	   13.04
     61.6811	   17.00	   17.81	 -253.63	   13.04
     61.7145	   11.00	   17.80	 -259.62	   13.04
     61.7479	   21.00	   17.77	 -249.59	   13.03
     61.7813	   21.00	   17.75	 -249.57	   13.03
     61.8147	   16.00	   17.73	 -254.55	   13.03
     61.8482	   17.00	   17.71	 -253.53	   13.03
     61.8816	   25.00	   17.69	 -245.51	   13.03
     61.9150	   24.00	   17.67	 -246.49	   13.03
     61.9484	   18.00	   17.65	 -252.48	   13.02
     61.9819	   16.00	   17.64	 -254.46	   13.02
     62.0153	    9.00	   17.63	 -261.45	   13.02
     62.0487	   20.00	   17.62	 -250.44	   13.02
     62.0821	   20.00	   17.61	 -250.43	   13.02
     62.1155	   16.00	   17.61	 -254.43	   13.02
     62.1490	   11.00	   17.61	 -259.43	   13.02
     62.1824	   18.00	   17.60	 -252.43	   13.02
     62.2158	   12.00	   17.61	 -258.43	   13.01
     62.2492	   16.00	   17.61	 -254.43	   13.01
     62.2827	   20.00	   17.63	 -250.45	   13.01
     62.3161	   12.00	   17.64	 -258.46	   13.01
     62.3495	   17.00	   17.66	 -253.48	   13.01
     62.3829	   14.00	   17.67	 -256.49	   13.01
     62.4164	   21.00	   17.70	 -249.52	   13.01
     62.4498	   18.00	   17.72	 -252.54	   13.01
     62.4832	   15.00	   17.77	 -255.59	   13.01
     62.5166	   14.00	   17.81	 -256.63	   13.00
     62.5500	   18.00	   17.86	 -252.68	   13.00
     62.5835	   20.00	   17.92	 -250.74	   13.00
     62.6169	   16.00	   17.99	 -254.81	   13.00
     62.6503	   14.00	   18.08	 -256.90	   13.00
     62.6837	   17.00	   18.19	 -254.01	   13.00
     62.7172	   15.00	   18.31	 -256.13	   13.00
     62.7506	   15.00	   18.45	 -256.27	   13.00
     62.7840	   12.00	   18.61	 -259.43	   13.00
     62.8174	   18.00	   18.76	 -253.58	   13.00
     62.8508	   10.00	   18.89	 -261.71	   13.00
     62.8843	   18.00	   18.99	 -253.81	   13.00
     62.9177	   28.00	   19.04	 -243.86	   12.99
     62.9511	   19.00	   19.05	 -252.87	   12.99
     62.9845	   16.00	   19.02	 -255.84	   12.99
     63.0180	   18.00	   18.97	 -253.80	   12.99
     63.0514	   20.00	   18.91	 -251.73	   12.99
     63.0848	   18.00	   18.83	 -253.65	   12.99
     63.1182	   18.00	   18.74	 -253.56	   12.99
     63.1516	   25.00	   18.64	 -246.46	   12.99
     63.1851	    9.00	   18.56	 -262.38	   12.99
     63.2185	   16.00	   18.48	 -255.30	   12.99
     63.2519	   22.00	   18.42	 -249.24	   12.99
     63.2853	   15.00	   18.38	 -256.20	   12.99
     63.3188	   15.00	   18.35	 -256.17	   12.99
     63.3522	   15.00	   18.33	 -256.15	   12.99
     63.3856	   29.00	   18.33	 -242.15	   12.99
     63.4190	   12.00	   18.33	 -259.15	   12.99
     63.4524	   10.00	   18.35	 -261.17	   12.99
     63.4859	   18.00	   18.37	 -253.19	   12.99
     63.5193	   20.00	   18.40	 -251.22	   12.99
     63.5527	   23.00	   18.44	 -248.26	   12.99
     63.5861	   24.00	   18.48	 -247.30	   12.99
     63.6196	   21.00	   18.53	 -250.36	   12.99
     63.6530	   24.00	   18.59	 -247.41	   12.99
     63.6864	   17.00	   18.65	 -254.47	   12.99
     63.7198	   17.00	   18.72	 -254.54	   12.99
     63.7533	   20.00	   18.80	 -251.62	   12.99
     63.7867	   21.00	   18.88	 -250.70	   12.99
     63.8201	   18.00	   18.97	 -253.79	   12.99
     63.8535	   20.00	   19.06	 -251.88	   12.99
     63.8869	   19.00	   19.16	 -252.99	   12.99
     63.9204	   14.00	   19.28	 -258.10	   12.99
     63.9538	   27.00	   19.40	 -245.22	   12.99
     63.9872	   16.00	   19.53	 -256.35	   12.99
     64.0206	   23.00	   19.67	 -249.49	   12.99
     64.0541	   25.00	   19.82	 -247.64	   12.99
     64.0875	   21.00	   19.99	 -251.81	   12.99
     64.1209	   22.00	   20.16	 -250.98	   12.99
     64.1543	   22.00	   20.36	 -251.18	   12.99
     64.1877	   21.00	   20.56	 -252.38	   12.99
     64.2212	   17.00	   20.79	 -256.61	   12.99
     64.2546	   17.00	   21.03	 -256.85	   12.99
     64.2880	   20.00	   21.30	 -254.12	   12.99
     64.3214	   21.00	   21.59	 -253.41	   12.99
     64.3549	   23.00	   21.91	 -251.73	   12.99
     64.3883	   25.00	   22.26	 -250.08	   12.99
     64.4217	   21.00	   22.65	 -254.47	   12.99
     64.4551	   28.00	   23.08	 -247.90	   12.99
     64.4885	   28.00	   23.55	 -248.37	   12.99
     64.5220	   24.00	   24.07	 -252.89	   12.99
     64.5554	   30.00	   24.66	 -247.48	   12.99
     64.5888	   32.00	   25.31	 -246.13	   12.99
     64.6222	   23.00	   26.05	 -255.87	   12.99
     64.6557	   47.00	   26.88	 -232.70	   12.99
     64.6891	   32.00	   27.82	 -248.64	   13.00
     64.7225	   41.00	   28.90	 -240.72	   13.00
     64.7559	   42.00	   30.13	 -240.95	   13.00
     64.7894	   39.00	   31.55	 -245.37	   13.00
     64.8228	   38.00	   33.21	 -248.03	   13.00
     64.8562	   49.00	   35.14	 -238.96	   13.00
     64.8896	   52.00	   37.42	 -238.24	   13.00
     64.9230	   43.00	   40.12	 -249.94	   13.00
     64.9565	   68.00	   43.34	 -228.16	   13.00
     64.9899	   57.00	   47.20	 -243.02	   13.00
     65.0233	   73.00	   51.82	 -231.64	   13.00
     65.0567	   73.00	   57.38	 -237.20	   13.00
     65.0901	   86.00	   64.02	 -230.84	   13.00
     65.1236	  102.00	   71.90	 -222.72	   13.01
     65.1570	  111.00	   81.08	 -222.90	   13.01
     65.1904	  116.00	   91.45	 -228.27	   13.01
     65.2238	  103.00	  102.58	 -252.40	   13.01
     65.2573	  142.00	  113.55	 -224.37	   13.01
     65.2907	  146.00	  123.06	 -229.88	   13.01
     65.3241	  149.00	  129.71	 -233.53	   13.01
     65.3575	  119.00	  132.67	 -266.49	   13.01
     65.3910	  168.00	  132.09	 -216.92	   13.01
     65.4244	  142.00	  128.82	 -239.64	   13.01
     65.4578	  139.00	  123.70	 -237.53	   13.02
     65.4912	  128.00	  117.20	 -242.02	   13.02
     65.5246	  148.00	  109.45	 -214.27	   13.02
     65.5581	  122.00	  100.66	 -231.48	   13.02
     65.5915	  110.00	   91.33	 -234.15	   13.02
     65.6249	   95.00	   82.11	 -239.93	   13.02
     65.6583	  100.00	   73.54	 -226.36	   13.02
     65.6918	   97.00	   65.93	 -221.75	   13.02
     65.7252	   90.00	   59.38	 -222.20	   13.03
     65.7586	   72.00	   53.84	 -234.66	   13.03
     65.7920	   72.00	   49.21	 -230.04	   13.03
     65.8254	   69.00	   45.37	 -229.19	   13.03
     65.8589	   54.00	   42.18	 -241.00	   13.03
     65.8923	   59.00	   39.54	 -233.36	   13.03
     65.9257	   54.00	   37.35	 -236.17	   13.03
     65.9591	   47.00	   35.52	 -241.35	   13.03
     65.9926	   47.00	   34.01	 -239.83	   13.04
     66.0260	   36.00	   32.76	 -249.58	   13.04
     66.0594	   41.00	   31.73	 -243.55	   13.04
     66.0928	   29.00	   30.88	 -254.70	   13.04
     66.1263	   33.00	   30.20	 -250.02	   13.04
     66.1597	   29.00	   29.67	 -253.49	   13.04
     66.1931	   35.00	   29.27	 -247.09	   13.04
     66.2265	   32.00	   28.95	 -249.78	   13.05
     66.2599	   32.00	   28.81	 -249.63	   13.05
     66.2934	   21.00	   28.79	 -260.61	   13.05
     66.3268	   27.00	   28.89	 -254.71	   13.05
     66.3602	   41.00	   29.13	 -240.95	   13.05
     66.3936	   39.00	   29.50	 -243.32	   13.05
     66.4271	   46.00	   30.06	 -236.88	   13.06
     66.4605	   35.00	   30.81	 -248.64	   13.06
     66.4939	   45.00	   31.79	 -239.62	   13.06
     66.5273	   35.00	   33.04	 -250.86	   13.06
     66.5607	   36.00	   34.61	 -251.43	   13.06
     66.5942	   35.00	   36.54	 -254.37	   13.06
     66.6276	   52.00	   38.89	 -239.71	   13.07
     66.6610	   65.00	   41.75	 -229.57	   13.07
     66.6944	   57.00	   45.13	 -240.95	   13.07
     66.7279	   57.00	   49.01	 -244.83	   13.07
     66.7613	   37.00	   53.22	 -269.04	   13.07
     66.7947	   59.00	   57.49	 -251.32	   13.08
     66.8281	   66.00	   61.35	 -248.17	   13.08
     66.8615	   59.00	   64.26	 -258.08	   13.08
     66.8950	   78.00	   65.91	 -240.73	   13.08
     66.9284	   60.00	   66.31	 -259.13	   13.08
     66.9618	   75.00	   65.77	 -243.59	   13.08
     66.9952	   90.00	   64.65	 -227.47	   13.09
     67.0287	   83.00	   63.16	 -232.98	   13.09
     67.0621	   74.00	   61.35	 -240.17	   13.09
     67.0955	   68.00	   59.22	 -244.04	   13.09
     67.1289	   62.00	   56.85	 -247.67	   13.09
     67.1624	   57.00	   54.34	 -250.16	   13.10
     67.1958	   60.00	   51.77	 -244.59	   13.10
     67.2292	   66.00	   49.16	 -235.98	   13.10
     67.2626	   57.00	   46.56	 -242.38	   13.10
     67.2960	   45.00	   44.03	 -251.85	   13.10
     67.3295	   52.00	   41.64	 -242.46	   13.11
     67.3629	   58.00	   39.40	 -234.22	   13.11
     67.3963	   47.00	   37.30	 -243.13	   13.11
     67.4297	   38.00	   35.30	 -250.12	   13.11
     67.4632	   42.00	   33.39	 -244.21	   13.11
     67.4966	   36.00	   31.59	 -248.41	   13.12
     67.5300	   32.00	   29.94	 -250.76	   13.12
     67.5634	   32.00	   28.47	 -249.29	   13.12
     67.5968	   29.00	   27.18	 -251.00	   13.12
     67.6303	   36.00	   26.07	 -242.89	   13.13
     67.6637	   33.00	   25.11	 -244.93	   13.13
     67.6971	   28.00	   24.29	 -249.12	   13.13
     67.7305	   31.00	   23.59	 -245.41	   13.13
     67.7640	   21.00	   22.99	 -254.81	   13.13
     67.7974	   23.00	   22.46	 -252.28	   13.14
     67.8308	   19.00	   22.00	 -255.82	   13.14
     67.8642	   20.00	   21.62	 -254.44	   13.14
     67.8976	   15.00	   21.27	 -259.09	   13.14
     67.9311	   17.00	   20.96	 -256.78	   13.15
     67.9645	   21.00	   20.68	 -252.51	   13.15
     67.9979	   22.00	   20.45	 -251.27	   13.15
     68.0313	   23.00	   20.23	 -250.05	   13.15
     68.0648	   23.00	   20.03	 -249.85	   13.16
     68.0982	   14.00	   19.86	 -258.68	   13.16
     68.1316	   25.00	   19.70	 -247.52	   13.16
     68.1650	   22.00	   19.57	 -250.39	   13.16
     68.1984	   20.00	   19.44	 -252.26	   13.16
     68.2319	   23.00	   19.32	 -249.14	   13.17
     68.2653	   18.00	   19.21	 -254.03	   13.17
     68.2987	   17.00	   19.11	 -254.93	   13.17
     68.3321	   27.00	   19.02	 -244.84	   13.17
     68.3656	   24.00	   18.93	 -247.75	   13.18
     68.3990	   10.00	   18.86	 -261.68	   13.18
     68.4324	   23.00	   18.79	 -248.61	   13.18
     68.4658	    7.00	   18.73	 -264.55	   13.18
     68.4993	   12.00	   18.67	 -259.49	   13.19
     68.5327	   15.00	   18.61	 -256.43	   13.19
     68.5661	   22.00	   18.56	 -249.38	   13.19
     68.5995	   11.00	   18.55	 -260.37	   13.19
     68.6329	   20.00	   18.51	 -251.33	   13.20
     68.6664	   24.00	   18.47	 -247.29	   13.20
     68.6998	   17.00	   18.44	 -254.26	   13.20
     68.7332	   21.00	   18.41	 -250.23	   13.21
     68.7666	   22.00	   18.38	 -249.20	   13.21
     68.8000	   14.00	   18.36	 -257.18	   13.21
     68.8335	   15.00	   18.35	 -256.17	   13.21
     68.8669	   16.00	   18.33	 -255.15	   13.22
     68.9003	   20.00	   18.32	 -251.14	   13.22
     68.9337	   16.00	   18.29	 -255.11	   13.22
     68.9672	   12.00	   18.28	 -259.10	   13.22
     69.0006	   12.00	   18.27	 -259.09	   13.23
     69.0340	    8.00	   18.26	 -263.08	   13.23
     69.0674	   10.00	   18.26	 -261.08	   13.23
     69.1009	   22.00	   18.25	 -249.07	   13.23
     69.1343	   21.00	   18.25	 -250.07	   13.24
     69.1677	   22.00	   18.25	 -249.07	   13.24
     69.2011	   12.00	   18.25	 -259.08	   13.24
     69.2345	   16.00	   18.26	 -255.08	   13.25
     69.2680	   23.00	   18.27	 -248.09	   13.25
     69.3014	   16.00	   18.27	 -255.09	   13.25
     69.3348	   18.00	   18.28	 -253.10	   13.25
     69.3682	   11.00	   18.30	 -260.12	   13.26
     69.4017	   22.00	   18.32	 -249.14	   13.26
     69.4351	   18.00	   18.34	 -253.16	   13.26
     69.4685	   15.00	   18.35	 -256.17	   13.27
     69.5019	   21.00	   18.38	 -250.20	   13.27
     69.5354	   15.00	   18.40	 -256.23	   13.27
     69.5688	   20.00	   18.43	 -251.26	   13.27
     69.6022	   22.00	   18.47	 -249.29	   13.28
     69.6356	    8.00	   18.50	 -263.32	   13.28
     69.6690	   25.00	   18.54	 -246.36	   13.28
     69.7025	   16.00	   18.58	 -255.40	   13.29
     69.7359	   18.00	   18.62	 -253.44	   13.29
     69.7693	   12.00	   18.67	 -259.49	   13.29
     69.8027	   11.00	   18.72	 -260.54	   13.29
     69.8362	   16.00	   18.78	 -255.60	   13.30
     69.8696	   14.00	   18.83	 -257.65	   13.30
     69.9030	   17.00	   18.90	 -254.72	   13.30
     69.9364	   12.00	   18.97	 -259.79	   13.31
     69.9698	   14.00	   19.04	 -257.86	   13.31
     70.0033	   14.00	   19.12	 -257.94	   13.31
     70.0367	   16.00	   19.20	 -256.02	   13.31
     70.0701	   19.00	   19.28	 -253.10	   13.32
     70.1035	   21.00	   19.38	 -251.20	   13.32
     70.1370	   20.00	   19.48	 -252.30	   13.32
     70.1704	    8.00	   19.59	 -264.41	   13.33
     70.2038	   18.00	   19.70	 -254.52	   13.33
     70.2372	   24.00	   19.82	 -248.64	   13.33
     70.2706	   15.00	   19.95	 -257.77	   13.34
     70.3041	   16.00	   20.09	 -256.91	   13.34
     70.3375	   14.00	   20.25	 -259.07	   13.34
     70.3709	   21.00	   20.41	 -252.23	   13.34
     70.4043	   25.00	   20.59	 -248.41	   13.35
     70.4378	   18.00	   20.78	 -255.60	   13.35
     70.4712	   24.00	   20.99	 -249.81	   13.35
     70.5046	   24.00	   21.21	 -250.03	   13.36
     70.5380	   21.00	   21.46	 -253.28	   13.36
     70.5714	   18.00	   21.72	 -256.54	   13.36
     70.6049	   24.00	   22.01	 -250.83	   13.37
     70.6383	   29.00	   22.33	 -246.15	   13.37
     70.6717	   30.00	   22.68	 -245.50	   13.37
     70.7051	   20.00	   23.07	 -255.89	   13.38
     70.7386	   25.00	   23.50	 -251.32	   13.38
     70.7720	   15.00	   23.97	 -261.79	   13.38
     70.8054	   27.00	   24.50	 -250.32	   13.38
     70.8388	   22.00	   25.08	 -255.90	   13.39
     70.8723	   29.00	   25.74	 -249.56	   13.39
     70.9057	   23.00	   26.48	 -256.31	   13.39
     70.9391	   42.00	   27.32	 -238.14	   13.40
     70.9725	   25.00	   28.28	 -256.10	   13.40
     71.0059	   39.00	   29.37	 -243.19	   13.40
     71.0394	   39.00	   30.63	 -244.46	   13.41
     71.0728	   31.00	   32.09	 -253.91	   13.41
     71.1062	   35.00	   33.80	 -251.62	   13.41
     71.1396	   32.00	   35.79	 -256.61	   13.42
     71.1730	   35.00	   38.15	 -255.97	   13.42
     71.2065	   52.00	   40.94	 -241.76	   13.42
     71.2399	   41.00	   44.26	 -256.08	   13.43
     71.2733	   51.00	   48.21	 -250.03	   13.43
     71.3067	   64.00	   52.91	 -241.73	   13.43
     71.3402	   74.00	   58.46	 -237.28	   13.44
     71.3736	   73.00	   64.96	 -244.78	   13.44
     71.4070	   78.00	   72.38	 -247.20	   13.44
     71.4404	   81.00	   80.57	 -252.39	   13.44
     71.4739	   94.00	   89.09	 -247.91	   13.45
     71.5073	   94.00	   97.19	 -256.01	   13.45
     71.5407	  101.00	  103.88	 -255.70	   13.45
     71.5741	  127.00	  108.24	 -234.07	   13.46
     71.6075	   92.00	  109.92	 -270.74	   13.46
     71.6410	  122.00	  109.20	 -240.02	   13.46
     71.6744	  119.00	  106.81	 -240.63	   13.47
     71.7078	  112.00	  103.39	 -244.22	   13.47
     71.7412	   96.00	   99.26	 -256.08	   13.47
     71.7747	   89.00	   94.40	 -258.22	   13.48
     71.8081	   91.00	   88.81	 -250.63	   13.48
     71.8415	   95.00	   82.71	 -240.53	   13.48
     71.8749	   85.00	   76.49	 -244.31	   13.49
     71.9084	   88.00	   70.60	 -235.43	   13.49
     71.9418	   73.00	   65.40	 -245.22	   13.49
     71.9752	   62.00	   61.04	 -251.86	   13.50
     72.0086	   75.00	   57.61	 -235.43	   13.50
     72.0420	   55.00	   55.09	 -252.91	   13.50
     72.0755	   52.00	   53.45	 -254.27	   13.51
     72.1089	   75.00	   52.65	 -230.48	   13.51
     72.1423	   78.00	   52.68	 -227.50	   13.51
     72.1757	   58.00	   53.50	 -248.32	   13.52
     72.2092	   56.00	   55.07	 -251.90	   13.52
     72.2426	   58.00	   57.33	 -252.15	   13.52
     72.2760	   56.00	   60.12	 -256.94	   13.53
     72.3094	   45.00	   63.14	 -270.96	   13.53
     72.3428	   64.00	   65.95	 -254.77	   13.53
     72.3763	   73.00	   68.04	 -247.86	   13.54
     72.4097	   68.00	   69.00	 -253.82	   13.54
     72.4431	   54.00	   68.74	 -267.56	   13.54
     72.4765	   54.00	   67.45	 -266.27	   13.55
     72.5100	   47.00	   65.50	 -271.32	   13.55
     72.5434	   58.00	   63.15	 -257.98	   13.55
     72.5768	   46.00	   60.51	 -267.33	   13.56
     72.6102	   42.00	   57.53	 -268.35	   13.56
     72.6436	   56.00	   54.21	 -251.03	   13.56
     72.6771	   47.00	   50.66	 -256.48	   13.56
     72.7105	   36.00	   47.08	 -263.90	   13.57
     72.7439	   36.00	   43.67	 -260.49	   13.57
     72.7773	   41.00	   40.56	 -252.38	   13.57
     72.8108	   41.00	   37.81	 -249.64	   13.58
     72.8442	   34.00	   35.45	 -254.27	   13.58
     72.8776	   28.00	   33.42	 -258.24	   13.58
     72.9110	   35.00	   31.71	 -249.53	   13.59
     72.9445	   23.00	   30.25	 -260.07	   13.59
     72.9779	   21.00	   29.02	 -260.84	   13.59
     73.0113	   36.00	   27.98	 -244.80	   13.60
     73.0447	   27.00	   27.09	 -252.91	   13.60
     73.0781	   17.00	   26.33	 -262.15	   13.60
     73.1116	   34.00	   25.67	 -244.49	   13.61
     73.1450	   29.00	   25.11	 -248.93	   13.61
     73.1784	   31.00	   24.63	 -246.45	   13.61
     73.2118	   18.00	   24.22	 -259.04	   13.62
     73.2453	   18.00	   23.86	 -258.68	   13.62
     73.2787	   23.00	   23.56	 -253.38	   13.62
     73.3121	   23.00	   23.30	 -253.12	   13.63
     73.3455	   18.00	   23.08	 -257.90	   13.63
     73.3789	   31.00	   22.90	 -244.73	   13.63
     73.4124	   23.00	   22.76	 -252.58	   13.64
     73.4458	   21.00	   22.66	 -254.48	   13.64
     73.4792	   16.00	   22.58	 -259.40	   13.64
     73.5126	   19.00	   22.54	 -256.37	   13.65
     73.5461	   23.00	   22.54	 -252.36	   13.65
     73.5795	   19.00	   22.58	 -256.40	   13.65
     73.6129	   19.00	   22.65	 -256.47	   13.66
     73.6463	   24.00	   22.77	 -251.59	   13.66
     73.6797	   25.00	   22.94	 -250.76	   13.66
     73.7132	   32.00	   23.16	 -243.98	   13.67
     73.7466	   17.00	   23.45	 -259.28	   13.67
     73.7800	   31.00	   23.83	 -245.65	   13.67
     73.8134	   28.00	   24.29	 -249.11	   13.68
     73.8469	   25.00	   24.86	 -252.68	   13.68
     73.8803	   22.00	   25.57	 -256.39	   13.68
     73.9137	   25.00	   26.42	 -254.25	   13.69
     73.9471	   14.00	   27.46	 -266.28	   13.69
     73.9805	   32.00	   28.69	 -249.51	   13.69
     74.0140	   25.00	   30.14	 -257.96	   13.70
     74.0474	   28.00	   31.77	 -256.59	   13.70
     74.0808	   25.00	   33.54	 -261.36	   13.70
     74.1142	   32.00	   35.32	 -256.14	   13.71
     74.1477	   33.00	   36.94	 -256.76	   13.71
     74.1811	   34.00	   38.15	 -256.97	   13.71
     74.2145	   37.00	   38.80	 -254.62	   13.71
     74.2479	   27.00	   38.88	 -264.70	   13.72
     74.2813	   19.00	   38.48	 -272.30	   13.72
     74.3148	   38.00	   37.78	 -252.60	   13.72
     74.3482	   30.00	   36.90	 -259.72	   13.73
     74.3816	   41.00	   35.89	 -247.71	   13.73
     74.4150	   22.00	   34.71	 -265.53	   13.73
     74.4485	   28.00	   33.37	 -258.19	   13.74
     74.4819	   19.00	   31.90	 -265.72	   13.74
     74.5153	   27.00	   30.39	 -256.21	   13.74
     74.5487	   29.00	   28.93	 -252.75	   13.75
     74.5822	   24.00	   27.58	 -256.40	   13.75
     74.6156	   21.00	   26.39	 -258.21	   13.75
     74.6490	   27.00	   25.35	 -251.17	   13.76
     74.6824	   19.00	   24.47	 -258.29	   13.76
     74.7158	   17.00	   23.72	 -259.54	   13.76
     74.7493	   20.00	   23.08	 -255.90	   13.77
     74.7827	   15.00	   22.54	 -260.37	   13.77
     74.8161	   19.00	   22.09	 -255.91	   13.77
     74.8495	   17.00	   21.70	 -257.52	   13.77
     74.8830	   19.00	   21.37	 -255.19	   13.78
     74.9164	   23.00	   21.09	 -250.91	   13.78
     74.9498	   20.00	   20.84	 -253.66	   13.78
     74.9832	   18.00	   20.63	 -255.45	   13.79
     75.0166	   15.00	   20.44	 -258.27	   13.79
     75.0501	   16.00	   20.24	 -257.06	   13.79
     75.0835	   17.00	   20.10	 -255.92	   13.80
     75.1169	   16.00	   19.98	 -256.80	   13.80
     75.1503	   22.00	   19.87	 -250.69	   13.80
     75.1838	   20.00	   19.77	 -252.59	   13.81
     75.2172	   17.00	   19.69	 -255.51	   13.81
     75.2506	   19.00	   19.59	 -253.41	   13.81
     75.2840	   20.00	   19.53	 -252.35	   13.81
     75.3175	   12.00	   19.47	 -260.29	   13.82
     75.3509	   24.00	   19.42	 -248.24	   13.82
     75.3843	   30.00	   19.37	 -242.20	   13.82
     75.4177	   24.00	   19.34	 -248.16	   13.83
     75.4511	   19.00	   19.30	 -253.12	   13.83
     75.4846	   25.00	   19.27	 -247.10	   13.83
     75.5180	   16.00	   19.25	 -256.07	   13.84
     75.5514	   25.00	   19.23	 -247.05	   13.84
     75.5848	   18.00	   19.22	 -254.04	   13.84
     75.6183	   17.00	   19.20	 -255.02	   13.84
     75.6517	   12.00	   19.19	 -260.02	   13.85
     75.6851	   21.00	   19.19	 -251.01	   13.85
     75.7185	   16.00	   19.19	 -256.01	   13.85
     75.7519	   27.00	   19.19	 -245.01	   13.86
     75.7854	   23.00	   19.19	 -249.01	   13.86
     75.8188	   11.00	   19.20	 -261.02	   13.86
     75.8522	   18.00	   19.21	 -254.03	   13.87
     75.8856	   11.00	   19.22	 -261.04	   13.87
     75.9191	   19.00	   19.23	 -253.05	   13.87
     75.9525	   32.00	   19.25	 -240.07	   13.87
     75.9859	   18.00	   19.27	 -254.09	   13.88
     76.0193	   17.00	   19.29	 -255.11	   13.88
     76.0527	   14.00	   19.32	 -258.14	   13.88
     76.0862	   15.00	   19.34	 -257.16	   13.89
     76.1196	   23.00	   19.37	 -249.19	   13.89
     76.1530	   20.00	   19.40	 -252.23	   13.89
     76.1864	   24.00	   19.44	 -248.26	   13.89
     76.2199	   17.00	   19.48	 -255.30	   13.90
     76.2533	   24.00	   19.52	 -248.34	   13.90
     76.2867	   19.00	   19.56	 -253.38	   13.90
     76.3201	   22.00	   19.61	 -250.43	   13.91
     76.3535	   21.00	   19.66	 -251.48	   13.91
     76.3870	   27.00	   19.71	 -245.53	   13.91
     76.4204	   19.00	   19.76	 -253.58	   13.91
     76.4538	   23.00	   19.82	 -249.64	   13.92
     76.4872	   20.00	   19.88	 -252.70	   13.92
     76.5207	   25.00	   19.95	 -247.77	   13.92
     76.5541	   22.00	   20.02	 -250.84	   13.92
     76.5875	   24.00	   20.09	 -248.91	   13.93
     76.6209	   20.00	   20.17	 -252.99	   13.93
     76.6544	   18.00	   20.25	 -255.07	   13.93
     76.6878	   27.00	   20.32	 -246.14	   13.94
     76.7212	   16.00	   20.41	 -257.24	   13.94
     76.7546	   17.00	   20.51	 -256.33	   13.94
     76.7880	   14.00	   20.61	 -259.44	   13.94
     76.8215	   17.00	   20.72	 -256.54	   13.95
     76.8549	   15.00	   20.84	 -258.66	   13.95
     76.8883	   21.00	   20.95	 -252.77	   13.95
     76.9217	   21.00	   21.08	 -252.90	   13.95
     76.9552	   17.00	   21.22	 -257.04	   13.96
     76.9886	   23.00	   21.37	 -251.19	   13.96
     77.0220	   23.00	   21.52	 -251.34	   13.96
     77.0554	   25.00	   21.68	 -249.50	   13.96
     77.0888	   21.00	   21.86	 -253.68	   13.97
     77.1223	   23.00	   22.05	 -251.87	   13.97
     77.1557	   27.00	   22.25	 -248.07	   13.97
     77.1891	   19.00	   22.46	 -256.28	   13.97
     77.2225	   25.00	   22.69	 -250.51	   13.98
     77.2560	   22.00	   22.93	 -253.75	   13.98
     77.2894	   20.00	   23.20	 -256.02	   13.98
     77.3228	   17.00	   23.48	 -259.30	   13.98
     77.3562	   18.00	   23.78	 -258.60	   13.99
     77.3896	   30.00	   24.11	 -246.93	   13.99
     77.4231	   21.00	   24.47	 -256.29	   13.99
     77.4565	   34.00	   24.85	 -243.68	   13.99
     77.4899	   22.00	   25.27	 -256.09	   14.00
     77.5233	   42.00	   25.73	 -236.55	   14.00
     77.5568	   37.00	   26.23	 -242.05	   14.00
     77.5902	   28.00	   26.77	 -251.59	   14.00
     77.6236	   38.00	   27.37	 -242.19	   14.01
     77.6570	   30.00	   28.03	 -250.85	   14.01
     77.6905	   29.00	   28.76	 -252.58	   14.01
     77.7239	   35.00	   29.57	 -247.39	   14.01
     77.7573	   41.00	   30.47	 -242.29	   14.02
     77.7907	   28.00	   31.47	 -256.29	   14.02
     77.8241	   50.00	   32.61	 -235.43	   14.02
     77.8576	   38.00	   33.88	 -248.71	   14.02
     77.8910	   47.00	   35.34	 -241.16	   14.02
     77.9244	   44.00	   37.00	 -245.82	   14.03
     77.9578	   51.00	   38.90	 -240.72	   14.03
     77.9912	   75.00	   41.10	 -218.92	   14.03
     78.0247	   50.00	   43.65	 -246.47	   14.03
     78.0581	   77.00	   46.62	 -222.44	   14.04
     78.0915	   72.00	   50.08	 -230.91	   14.04
     78.1249	   66.00	   54.13	 -240.95	   14.04
     78.1584	   65.00	   58.85	 -246.67	   14.04
     78.1918	   86.00	   64.32	 -231.14	   14.04
     78.2252	   94.00	   70.59	 -229.41	   14.05
     78.2586	   96.00	   77.63	 -234.45	   14.05
     78.2921	   94.00	   85.30	 -244.12	   14.05
     78.3255	  102.00	   93.29	 -244.12	   14.05
     78.3589	  135.00	  101.19	 -219.01	   14.06
     78.3923	  121.00	  108.54	 -240.36	   14.06
     78.4257	  114.00	  115.08	 -253.91	   14.06
     78.4592	  156.00	  120.80	 -217.62	   14.06
     78.4926	  128.00	  125.83	 -250.65	   14.06
     78.5260	  122.00	  130.28	 -261.10	   14.07
     78.5594	  173.00	  134.11	 -213.94	   14.07
     78.5929	  167.00	  137.18	 -223.00	   14.07
     78.6263	  168.00	  139.30	 -224.13	   14.07
     78.6597	  161.00	  140.33	 -232.15	   14.07
     78.6931	  193.00	  140.15	 -199.97	   14.07
     78.7265	  146.00	  138.75	 -245.57	   14.08
     78.7600	  158.00	  136.26	 -231.09	   14.08
     78.7934	  159.00	  133.07	 -226.89	   14.08
     78.8268	  170.00	  129.66	 -212.49	   14.08
     78.8602	  143.00	  126.57	 -236.39	   14.08
     78.8937	  170.00	  124.16	 -206.98	   14.09
     78.9271	  150.00	  122.62	 -225.44	   14.09
     78.9605	  159.00	  122.03	 -215.85	   14.09
     78.9939	  152.00	  122.44	 -223.26	   14.09
     79.0274	  162.00	  123.89	 -214.72	   14.09
     79.0608	  184.00	  126.36	 -195.19	   14.09
     79.0942	  157.00	  129.58	 -225.40	   14.10
     79.1276	  159.00	  132.93	 -226.75	   14.10
     79.1610	  172.00	  135.54	 -216.36	   14.10
     79.1945	  157.00	  136.54	 -232.36	   14.10
     79.2279	  140.00	  135.44	 -248.26	   14.10
     79.2613	  145.00	  132.35	 -240.17	   14.10
     79.2947	  148.00	  127.90	 -232.72	   14.11
     79.3282	  145.00	  122.74	 -230.57	   14.11
     79.3616	  137.00	  117.32	 -233.14	   14.11
     79.3950	  131.00	  111.66	 -233.48	   14.11
     79.4284	  142.00	  105.59	 -216.41	   14.11
     79.4618	  100.00	   98.96	 -251.78	   14.11
     79.4953	  109.00	   91.83	 -235.65	   14.12
     79.5287	   85.00	   84.50	 -252.32	   14.12
     79.5621	   97.00	   77.35	 -233.17	   14.12
     79.5955	   91.00	   70.68	 -232.50	   14.12
     79.6290	   85.00	   64.68	 -232.50	   14.12
     79.6624	   86.00	   59.42	 -226.24	   14.12
     79.6958	   68.00	   54.86	 -239.68	   14.12
     79.7292	   81.00	   50.96	 -222.78	   14.13
     79.7626	   65.00	   47.64	 -235.46	   14.13
     79.7961	   57.00	   44.81	 -240.63	   14.13
     79.8295	   65.00	   42.40	 -230.23	   14.13
     79.8629	   56.00	   40.36	 -237.18	   14.13
     79.8963	   51.00	   38.62	 -240.44	   14.13
     79.9298	   49.00	   37.14	 -240.96	   14.13
     79.9632	   49.00	   35.89	 -239.71	   14.14
     79.9966	   38.00	   34.84	 -249.66	   14.14
     80.0300	   49.00	   33.96	 -237.78	   14.14
     80.0634	   35.00	   33.24	 -251.06	   14.14
     80.0969	   42.00	   32.69	 -243.51	   14.14
     80.1303	   43.00	   32.26	 -242.08	   14.14
     80.1637	   39.00	   31.97	 -245.79	   14.14
     80.1971	   38.00	   31.82	 -246.64	   14.14
     80.2306	   45.00	   31.82	 -239.64	   14.14
     80.2640	   36.00	   31.97	 -248.80	   14.15
     80.2974	   37.00	   32.30	 -248.12	   14.15
     80.3308	   38.00	   32.81	 -247.63	   14.15
     80.3643	   44.00	   33.54	 -242.36	   14.15
     80.3977	   31.00	   34.48	 -256.31	   14.15
     80.4311	   42.00	   35.66	 -246.48	   14.15
     80.4645	   36.00	   37.05	 -253.87	   14.15
     80.4979	   42.00	   38.60	 -249.43	   14.15
     80.5314	   49.00	   40.22	 -244.05	   14.15
     80.5648	   38.00	   41.74	 -256.56	   14.15
     80.5982	   49.00	   42.95	 -246.77	   14.16
     80.6316	   52.00	   43.66	 -244.48	   14.16
     80.6651	   57.00	   43.81	 -239.63	   14.16
     80.6985	   43.00	   43.42	 -253.24	   14.16
     80.7319	   46.00	   42.68	 -249.50	   14.16
     80.7653	   50.00	   41.74	 -244.56	   14.16
     80.7987	   39.00	   40.70	 -254.52	   14.16
     80.8322	   50.00	   39.59	 -242.41	   14.16
     80.8656	   42.00	   38.35	 -249.17	   14.16
     80.8990	   43.00	   36.95	 -246.77	   14.16
     80.9324	   38.00	   35.43	 -250.25	   14.16
     80.9659	   30.00	   33.82	 -256.64	   14.16
     80.9993	   47.00	   32.23	 -238.05	   14.16
     81.0327	   34.00	   30.73	 -249.55	   14.16
     81.0661	   25.00	   29.36	 -257.19	   14.17
     81.0995	   31.00	   28.15	 -249.97	   14.17
     81.1330	   29.00	   27.10	 -250.92	   14.17
     81.1664	   35.00	   26.18	 -244.00	   14.17
     81.1998	   23.00	   25.39	 -255.21	   14.17
     81.2332	   28.00	   24.71	 -249.53	   14.17
     81.2667	   23.00	   24.12	 -253.94	   14.17
     81.3001	   28.00	   23.61	 -248.43	   14.17
     81.3335	   28.00	   23.17	 -247.99	   14.17
     81.3669	   23.00	   22.78	 -252.60	   14.17
     81.4004	   21.00	   22.43	 -254.25	   14.17
     81.4338	   21.00	   22.13	 -253.95	   14.17
     81.4672	   19.00	   21.86	 -255.68	   14.17
     81.5006	   29.00	   21.61	 -245.43	   14.17
     81.5340	   15.00	   21.39	 -259.22	   14.17
     81.5675	   14.00	   21.20	 -260.02	   14.17
     81.6009	   21.00	   21.02	 -252.84	   14.17
     81.6343	   18.00	   20.85	 -255.68	   14.17
     81.6677	   16.00	   20.67	 -257.49	   14.17
     81.7012	   21.00	   20.54	 -252.36	   14.17
     81.7346	   15.00	   20.41	 -258.23	   14.17
     81.7680	   21.00	   20.30	 -252.12	   14.17
     81.8014	   24.00	   20.19	 -249.01	   14.17
     81.8348	   22.00	   20.09	 -250.91	   14.17
     81.8683	   21.00	   19.98	 -251.80	   14.17
     81.9017	   17.00	   19.90	 -255.72	   14.17
     81.9351	   27.00	   19.83	 -245.65	   14.17
     81.9685	   12.00	   19.75	 -260.58	   14.17
     82.0020	   19.00	   19.69	 -253.51	   14.17
     82.0354	   18.00	   19.62	 -254.45	   14.17
     82.0688	   16.00	   19.57	 -256.39	   14.17
     82.1022	   28.00	   19.51	 -244.33	   14.17
     82.1356	   15.00	   19.46	 -257.28	   14.17
     82.1691	   30.00	   19.42	 -242.24	   14.17
     82.2025	   22.00	   19.38	 -250.20	   14.17
     82.2359	   21.00	   19.34	 -251.16	   14.17
     82.2693	   11.00	   19.31	 -261.13	   14.17
     82.3028	   16.00	   19.28	 -256.10	   14.17
     82.3362	   12.00	   19.25	 -260.07	   14.17
     82.3696	   21.00	   19.23	 -251.05	   14.17
     82.4030	   15.00	   19.21	 -257.03	   14.17
     82.4364	   17.00	   19.19	 -255.01	   14.17
     82.4699	   17.00	   19.18	 -255.00	   14.17
     82.5033	   11.00	   19.18	 -261.00	   14.17
     82.5367	   11.00	   19.16	 -260.98	   14.17
     82.5701	   21.00	   19.17	 -250.99	   14.17
     82.6036	   11.00	   19.18	 -261.00	   14.17
     82.6370	   24.00	   19.20	 -248.02	   14.17
     82.6704	   10.00	   19.23	 -262.05	   14.17
     82.7038	   21.00	   19.27	 -251.09	   14.17
     82.7373	   21.00	   19.33	 -251.15	   14.16
     82.7707	   18.00	   19.39	 -254.21	   14.16
     82.8041	   20.00	   19.46	 -252.29	   14.16
     82.8375	   19.00	   19.56	 -253.38	   14.16
     82.8709	   18.00	   19.66	 -254.48	   14.16
     82.9044	   15.00	   19.77	 -257.59	   14.16
     82.9378	   15.00	   19.87	 -257.69	   14.16
     82.9712	   16.00	   19.95	 -256.77	   14.16
     83.0046	   15.00	   20.00	 -257.82	   14.16
     83.0381	   16.00	   20.02	 -256.84	   14.16
     83.0715	   11.00	   20.01	 -261.83	   14.16
     83.1049	   16.00	   19.97	 -256.79	   14.16
     83.1383	   11.00	   19.93	 -261.75	   14.15
     83.1717	   23.00	   19.87	 -249.69	   14.15
     83.2052	   17.00	   19.82	 -255.64	   14.15
     83.2386	   15.00	   19.76	 -257.58	   14.15
     83.2720	   10.00	   19.70	 -262.52	   14.15
     83.3054	   18.00	   19.62	 -254.44	   14.15
     83.3389	   20.00	   19.54	 -252.37	   14.15
     83.3723	   18.00	   19.47	 -254.29	   14.15
     83.4057	   20.00	   19.39	 -252.22	   14.15
     83.4391	   20.00	   19.33	 -252.15	   14.15
     83.4725	   23.00	   19.28	 -249.10	   14.14
     83.5060	   11.00	   19.24	 -261.06	   14.14
     83.5394	   18.00	   19.21	 -254.03	   14.14
     83.5728	   20.00	   19.19	 -252.01	   14.14
     83.6062	    9.00	   19.18	 -263.00	   14.14
     83.6397	   12.00	   19.17	 -259.99	   14.14
     83.6731	   11.00	   19.17	 -260.99	   14.14
     83.7065	   15.00	   19.17	 -256.99	   14.13
     83.7399	   14.00	   19.18	 -258.00	   14.13
     83.7734	   15.00	   19.19	 -257.01	   14.13
     83.8068	    8.00	   19.21	 -264.03	   14.13
     83.8402	   16.00	   19.23	 -256.05	   14.13
     83.8736	   14.00	   19.26	 -258.08	   14.13
     83.9070	   18.00	   19.29	 -254.11	   14.13
     83.9405	   14.00	   19.33	 -258.15	   14.12
     83.9739	   19.00	   19.38	 -253.20	   14.12
     84.0073	   18.00	   19.43	 -254.25	   14.12
     84.0407	   18.00	   19.48	 -254.31	   14.12
     84.0742	   12.00	   19.55	 -260.37	   14.12
     84.1076	   14.00	   19.62	 -258.44	   14.12
     84.1410	   18.00	   19.71	 -254.53	   14.11
     84.1744	   15.00	   19.80	 -257.62	   14.11
     84.2078	   14.00	   19.90	 -258.72	   14.11
     84.2413	   12.00	   20.02	 -260.84	   14.11
     84.2747	   14.00	   20.15	 -258.97	   14.11
     84.3081	   23.00	   20.29	 -250.12	   14.10
     84.3415	   14.00	   20.46	 -259.28	   14.10
     84.3750	   30.00	   20.64	 -243.46	   14.10
     84.4084	   19.00	   20.84	 -254.66	   14.10
     84.4418	   10.00	   21.07	 -263.89	   14.10
     84.4752	   12.00	   21.31	 -262.13	   14.09
     84.5086	   22.00	   21.60	 -252.42	   14.09
     84.5421	   15.00	   21.92	 -259.74	   14.09
     84.5755	   14.00	   22.29	 -261.11	   14.09
     84.6089	   11.00	   22.71	 -264.53	   14.08
     84.6423	   18.00	   23.20	 -258.02	   14.08
     84.6758	   29.00	   23.75	 -247.57	   14.08
     84.7092	   29.00	   24.39	 -248.21	   14.08
     84.7426	   27.00	   25.14	 -250.96	   14.08
     84.7760	   22.00	   26.01	 -256.83	   14.07
     84.8094	   24.00	   27.03	 -255.85	   14.07
     84.8429	   21.00	   28.22	 -260.05	   14.07
     84.8763	   27.00	   29.63	 -255.45	   14.07
     84.9097	   34.00	   31.28	 -250.10	   14.06
     84.9431	   36.00	   33.21	 -250.03	   14.06
     84.9766	   31.00	   35.45	 -257.27	   14.06
     85.0100	   41.00	   38.00	 -249.83	   14.06
     85.0434	   41.00	   40.87	 -252.69	   14.05
     85.0768	   41.00	   43.96	 -255.78	   14.05
     85.1103	   35.00	   47.11	 -264.93	   14.05
     85.1437	   41.00	   50.08	 -261.90	   14.04
     85.1771	   48.00	   52.53	 -257.35	   14.04
     85.2105	   56.00	   54.18	 -251.00	   14.04
     85.2439	   61.00	   54.87	 -246.69	   14.04
     85.2774	   39.00	   54.67	 -268.49	   14.03
     85.3108	   54.00	   53.82	 -252.64	   14.03
     85.3442	   36.00	   52.60	 -269.42	   14.03
     85.3776	   43.00	   51.23	 -261.05	   14.02
     85.4111	   42.00	   49.77	 -260.59	   14.02
     85.4445	   43.00	   48.18	 -258.01	   14.02
     85.4779	   39.00	   46.38	 -260.20	   14.01
     85.5113	   32.00	   44.30	 -265.12	   14.01
     85.5447	   32.00	   42.00	 -262.82	   14.01
     85.5782	   36.00	   39.58	 -256.40	   14.01
     85.6116	   39.00	   37.19	 -251.01	   14.00
     85.6450	   30.00	   34.93	 -257.76	   14.00
     85.6784	   31.00	   32.88	 -254.71	   14.00
     85.7119	   31.00	   31.07	 -252.89	   13.99
     85.7453	   23.00	   29.49	 -259.31	   13.99
     85.7787	   27.00	   28.13	 -253.95	   13.99
     85.8121	   23.00	   26.98	 -256.80	   13.98
     85.8456	   27.00	   25.98	 -251.80	   13.98
     85.8790	   20.00	   25.13	 -257.95	   13.98
     85.9124	   30.00	   24.40	 -247.22	   13.97
     85.9458	   24.00	   23.77	 -252.59	   13.97
     85.9792	   15.00	   23.23	 -261.05	   13.96
     86.0127	   17.00	   22.76	 -258.59	   13.96
     86.0461	   16.00	   22.36	 -259.18	   13.96
     86.0795	   14.00	   22.01	 -260.83	   13.95
     86.1129	   20.00	   21.72	 -254.54	   13.95
     86.1464	   29.00	   21.45	 -245.27	   13.95
     86.1798	   23.00	   21.22	 -251.05	   13.94
     86.2132	   17.00	   21.03	 -256.85	   13.94
     86.2466	   18.00	   20.85	 -255.67	   13.93
     86.2800	   23.00	   20.71	 -250.53	   13.93
     86.3135	   17.00	   20.58	 -256.40	   13.93
     86.3469	   25.00	   20.47	 -248.29	   13.92
     86.3803	   12.00	   20.39	 -261.21	   13.92
     86.4137	   22.00	   20.32	 -251.14	   13.91
     86.4472	   15.00	   20.26	 -258.08	   13.91
     86.4806	   23.00	   20.23	 -250.05	   13.91
     86.5140	   15.00	   20.22	 -258.04	   13.90
     86.5474	   18.00	   20.22	 -255.04	   13.90
     86.5808	   21.00	   20.24	 -252.06	   13.89
     86.6143	   17.00	   20.27	 -256.10	   13.89
     86.6477	   20.00	   20.33	 -253.15	   13.88
     86.6811	   19.00	   20.41	 -254.23	   13.88
     86.7145	   24.00	   20.52	 -249.34	   13.88
     86.7480	   21.00	   20.65	 -252.47	   13.87
     86.7814	   21.00	   20.82	 -252.64	   13.87
     86.8148	   18.00	   21.03	 -255.85	   13.86
     86.8482	   23.00	   21.27	 -251.10	   13.86
     86.8816	   14.00	   21.57	 -260.40	   13.85
     86.9151	   18.00	   21.93	 -256.76	   13.85
     86.9485	   27.00	   22.36	 -248.18	   13.84
     86.9819	   16.00	   22.87	 -259.69	   13.84
     87.0153	   27.00	   23.46	 -249.28	   13.83
     87.0488	   21.00	   24.15	 -255.97	   13.83
     87.0822	   18.00	   24.93	 -259.75	   13.83
     87.1156	   29.00	   25.79	 -249.61	   13.82
     87.1490	   29.00	   26.70	 -250.52	   13.82
     87.1824	   35.00	   27.60	 -245.42	   13.81
     87.2159	   37.00	   28.43	 -244.25	   13.81
     87.2493	   18.00	   29.12	 -263.94	   13.80
     87.2827	   41.00	   29.62	 -241.45	   13.80
     87.3161	   36.00	   29.96	 -246.78	   13.79
     87.3496	   35.00	   30.17	 -247.99	   13.79
     87.3830	   34.00	   30.34	 -249.16	   13.78
     87.4164	   36.00	   30.51	 -247.33	   13.77
     87.4498	   32.00	   30.69	 -251.51	   13.77
     87.4833	   27.00	   30.85	 -256.67	   13.76
     87.5167	   39.00	   30.91	 -244.74	   13.76
     87.5501	   27.00	   30.82	 -256.64	   13.75
     87.5835	   35.00	   30.50	 -248.32	   13.75
     87.6169	   29.00	   29.98	 -253.80	   13.74
     87.6504	   27.00	   29.30	 -255.13	   13.74
     87.6838	   34.00	   28.55	 -247.37	   13.73
     87.7172	   25.00	   27.78	 -255.60	   13.73
     87.7506	   25.00	   27.05	 -254.87	   13.72
     87.7841	   27.00	   26.37	 -252.19	   13.72
     87.8175	   23.00	   25.72	 -255.54	   13.71
     87.8509	   18.00	   25.08	 -259.91	   13.70
     87.8843	   30.00	   24.45	 -247.27	   13.70
     87.9177	   14.00	   23.81	 -262.63	   13.69
     87.9512	   21.00	   23.18	 -255.01	   13.69
     87.9846	   24.00	   22.59	 -251.41	   13.68
     88.0180	   28.00	   22.04	 -246.86	   13.67
     88.0514	   29.00	   21.54	 -245.36	   13.67
     88.0849	   15.00	   21.10	 -258.92	   13.66
     88.1183	   17.00	   20.71	 -256.53	   13.66
     88.1517	   12.00	   20.37	 -261.19	   13.65
     88.1851	   14.00	   20.07	 -258.90	   13.64
     88.2186	   18.00	   19.82	 -254.64	   13.64
     88.2520	   22.00	   19.60	 -250.42	   13.63
     88.2854	   18.00	   19.40	 -254.22	   13.63
     88.3188	   21.00	   19.23	 -251.05	   13.62
     88.3522	   15.00	   19.08	 -256.90	   13.61
     88.3857	   20.00	   18.95	 -251.77	   13.61
     88.4191	   19.00	   18.83	 -252.65	   13.60
     88.4525	    9.00	   18.73	 -262.55	   13.59
     88.4859	   17.00	   18.63	 -254.46	   13.59
     88.5193	   15.00	   18.55	 -256.37	   13.58
     88.5528	   16.00	   18.48	 -255.30	   13.57
     88.5862	   15.00	   18.41	 -256.23	   13.57
     88.6196	   14.00	   18.35	 -257.17	   13.56
     88.6530	   15.00	   18.29	 -256.11	   13.55
     88.6865	   20.00	   18.24	 -251.07	   13.55
     88.7199	   12.00	   18.20	 -259.02	   13.54
     88.7533	   17.00	   18.16	 -253.98	   13.53
     88.7867	   17.00	   18.12	 -253.94	   13.53
     88.8202	   14.00	   18.09	 -256.91	   13.52
     88.8536	    9.00	   18.06	 -261.88	   13.51
     88.8870	   15.00	   18.03	 -255.85	   13.51
     88.9204	    6.00	   18.01	 -264.83	   13.50
     88.9538	   20.00	   17.97	 -250.79	   13.49
     88.9873	   15.00	   17.95	 -255.77	   13.49
     89.0207	   12.00	   17.93	 -258.75	   13.48
     89.0541	   14.00	   17.91	 -256.73	   13.47
     89.0875	   21.00	   17.90	 -249.72	   13.46
     89.1210	   14.00	   17.88	 -256.70	   13.46
     89.1544	   15.00	   17.87	 -255.69	   13.45
     89.1878	   14.00	   17.86	 -256.68	   13.44
     89.2212	   14.00	   17.84	 -256.67	   13.43
     89.2546	   18.00	   17.84	 -252.66	   13.43
     89.2881	    9.00	   17.84	 -261.66	   13.42
     89.3215	   16.00	   17.82	 -254.64	   13.41
     89.3549	   17.00	   17.82	 -253.64	   13.40
     89.3883	   12.00	   17.82	 -258.64	   13.40
     89.4218	   15.00	   17.82	 -255.64	   13.39
     89.4552	    9.00	   17.82	 -261.65	   13.38
     89.4886	   11.00	   17.83	 -259.65	   13.37
     89.5220	   14.00	   17.84	 -256.66	   13.37
     89.5555	   18.00	   17.84	 -252.66	   13.36
     89.5889	   12.00	   17.85	 -258.67	   13.35
     89.6223	   18.00	   17.87	 -252.69	   13.34
     89.6557	   10.00	   17.88	 -260.70	   13.33
     89.6891	   16.00	   17.90	 -254.72	   13.33
     89.7226	   19.00	   17.92	 -251.74	   13.32
     89.7560	   16.00	   17.94	 -254.76	   13.31
     89.7894	   18.00	   17.96	 -252.78	   13.30
     89.8228	   14.00	   17.95	 -256.77	   13.29
     89.8563	   14.00	   17.97	 -256.80	   13.28
     89.8897	   15.00	   18.00	 -255.82	   13.28
     89.9231	   22.00	   18.03	 -248.85	   13.27
     89.9565	   11.00	   18.07	 -259.89	   13.26
     89.9899	   16.00	   18.10	 -254.92	   13.25
     90.0234	   16.00	   18.14	 -254.96	   13.24
     90.0568	   19.00	   18.18	 -252.00	   13.23
     90.0902	   17.00	   18.21	 -254.03	   13.23
     90.1236	   10.00	   18.26	 -261.08	   13.22
     90.1571	   16.00	   18.31	 -255.13	   13.21
     90.1905	   18.00	   18.36	 -253.18	   13.20
     90.2239	   16.00	   18.42	 -255.24	   13.19
     90.2573	   10.00	   18.48	 -261.30	   13.18
     90.2907	   16.00	   18.55	 -255.37	   13.17
     90.3242	   16.00	   18.62	 -255.44	   13.16
     90.3576	   14.00	   18.70	 -257.52	   13.16
     90.3910	   12.00	   18.78	 -259.60	   13.15
     90.4244	   28.00	   18.87	 -243.69	   13.14
     90.4579	   21.00	   18.96	 -250.78	   13.13
     90.4913	   10.00	   19.06	 -261.89	   13.12
     90.5247	   18.00	   19.17	 -253.99	   13.11
     90.5581	   24.00	   19.29	 -248.11	   13.10
     90.5915	   17.00	   19.42	 -255.24	   13.09
     90.6250	   23.00	   19.55	 -249.38	   13.08
     90.6584	   23.00	   19.70	 -249.52	   13.07
     90.6918	   28.00	   19.86	 -244.68	   13.06
     90.7252	   20.00	   20.03	 -252.85	   13.05
     90.7587	   19.00	   20.22	 -254.04	   13.04
     90.7921	   17.00	   20.42	 -256.25	   13.03
     90.8255	   25.00	   20.65	 -248.47	   13.02
     90.8589	   28.00	   20.89	 -245.71	   13.01
     90.8923	   25.00	   21.15	 -248.97	   13.01
     90.9258	   20.00	   21.44	 -254.26	   13.00
     90.9592	   22.00	   21.76	 -252.58	   12.99
     90.9926	   30.00	   22.11	 -244.93	   12.98
     91.0260	   25.00	   22.50	 -250.32	   12.97
     91.0595	   28.00	   22.93	 -247.75	   12.96
     91.0929	   20.00	   23.40	 -256.22	   12.95
     91.1263	   20.00	   23.93	 -256.76	   12.94
     91.1597	   29.00	   24.53	 -248.35	   12.93
     91.1932	   34.00	   25.20	 -244.02	   12.92
     91.2266	   24.00	   25.96	 -254.78	   12.91
     91.2600	   30.00	   26.82	 -249.64	   12.90
     91.2934	   34.00	   27.80	 -246.63	   12.88
     91.3268	   39.00	   28.93	 -242.75	   12.87
     91.3603	   35.00	   30.21	 -248.04	   12.86
     91.3937	   33.00	   31.70	 -251.53	   12.85
     91.4271	   45.00	   33.43	 -241.25	   12.84
     91.4605	   46.00	   35.42	 -242.24	   12.83
     91.4940	   54.00	   37.73	 -236.55	   12.82
     91.5274	   51.00	   40.39	 -242.21	   12.81
     91.5608	   59.00	   43.44	 -237.26	   12.80
     91.5942	   43.00	   46.91	 -256.73	   12.79
     91.6276	   41.00	   50.79	 -262.61	   12.78
     91.6611	   48.00	   55.02	 -259.84	   12.77
     91.6945	   70.00	   59.45	 -242.27	   12.76
     91.7279	   83.00	   63.86	 -233.68	   12.75
     91.7613	   69.00	   67.95	 -251.77	   12.74
     91.7948	   68.00	   71.37	 -256.19	   12.72
     91.8282	   69.00	   73.92	 -257.74	   12.71
     91.8616	   77.00	   75.55	 -251.37	   12.70
     91.8950	  101.00	   76.37	 -228.19	   12.69
     91.9285	   79.00	   76.59	 -250.41	   12.68
     91.9619	   86.00	   76.42	 -243.24	   12.67
     91.9953	   89.00	   75.99	 -239.82	   12.66
     92.0287	   72.00	   75.39	 -256.21	   12.65
     92.0621	   70.00	   74.62	 -257.44	   12.63
     92.0956	   65.00	   73.69	 -261.51	   12.62
     92.1290	   78.00	   72.62	 -247.44	   12.61
     92.1624	   84.00	   71.49	 -240.31	   12.60
     92.1958	   81.00	   70.40	 -242.23	   12.59
     92.2293	   63.00	   69.49	 -259.31	   12.58
     92.2627	   79.00	   68.82	 -242.64	   12.56
     92.2961	   68.00	   68.39	 -253.22	   12.55
     92.3295	   71.00	   68.17	 -249.99	   12.54
     92.3629	   76.00	   67.98	 -244.80	   12.53
     92.3964	   66.00	   67.64	 -254.46	   12.52
     92.4298	   79.00	   66.93	 -240.75	   12.50
     92.4632	   73.00	   65.71	 -245.53	   12.49
     92.4966	   61.00	   63.99	 -255.82	   12.48
     92.5301	   72.00	   61.91	 -242.73	   12.47
     92.5635	   51.00	   59.66	 -261.48	   12.46
     92.5969	   69.00	   57.42	 -241.24	   12.44
     92.6303	   61.00	   55.32	 -247.14	   12.43
     92.6637	   47.00	   53.34	 -259.16	   12.42
     92.6972	   46.00	   51.41	 -258.23	   12.41
     92.7306	   49.00	   49.43	 -253.25	   12.39
     92.7640	   36.00	   47.32	 -264.14	   12.38
     92.7974	   39.00	   45.07	 -258.89	   12.37
     92.8309	   39.00	   42.74	 -256.56	   12.36
     92.8643	   33.00	   40.42	 -260.24	   12.34
     92.8977	   37.00	   38.20	 -254.02	   12.33
     92.9311	   27.00	   36.15	 -261.97	   12.32
     92.9645	   43.00	   34.31	 -244.13	   12.30
     92.9980	   39.00	   32.68	 -246.50	   12.29
     93.0314	   23.00	   31.27	 -261.09	   12.28
     93.0648	   33.00	   30.06	 -249.88	   12.27
     93.0982	   35.00	   29.03	 -246.85	   12.25
     93.1317	   25.00	   28.17	 -255.99	   12.24
     93.1651	   35.00	   27.45	 -245.27	   12.23
     93.1985	   39.00	   26.86	 -240.68	   12.21
     93.2319	   31.00	   26.39	 -248.21	   12.20
     93.2654	   20.00	   26.03	 -258.85	   12.19
     93.2988	   24.00	   25.78	 -254.60	   12.17
     93.3322	   24.00	   25.63	 -254.45	   12.16
     93.3656	   28.00	   25.58	 -250.40	   12.15
     93.3990	   28.00	   25.64	 -250.46	   12.13
     93.4325	   23.00	   25.80	 -255.62	   12.12
     93.4659	   23.00	   26.08	 -255.90	   12.10
     93.4993	   31.00	   26.48	 -248.30	   12.09
     93.5327	   17.00	   27.02	 -262.84	   12.08
     93.5662	   42.00	   27.71	 -238.53	   12.06
     93.5996	   36.00	   28.55	 -245.37	   12.05
     93.6330	   34.00	   29.55	 -248.37	   12.04
     93.6664	   29.00	   30.71	 -254.53	   12.02
     93.6998	   23.00	   31.99	 -261.81	   12.01
     93.7333	   27.00	   33.35	 -259.17	   11.99
     93.7667	   43.00	   34.69	 -244.51	   11.98
     93.8001	   37.00	   35.90	 -251.72	   11.96
     93.8335	   30.00	   36.86	 -259.68	   11.95
     93.8670	   25.00	   37.48	 -265.30	   11.94
     93.9004	   43.00	   37.75	 -247.57	   11.92
     93.9338	   43.00	   37.73	 -247.55	   11.91
     93.9672	   33.00	   37.52	 -257.35	   11.89
     94.0006	   29.00	   37.26	 -261.08	   11.88
     94.0341	   35.00	   36.99	 -254.81	   11.86
     94.0675	   25.00	   36.73	 -264.55	   11.85
     94.1009	   32.00	   36.43	 -257.25	   11.83
     94.1343	   34.00	   36.00	 -254.83	   11.82
     94.1678	   29.00	   35.38	 -259.20	   11.80
     94.2012	   21.00	   34.52	 -266.34	   11.79
     94.2346	   36.00	   33.46	 -250.28	   11.77
     94.2680	   32.00	   32.25	 -253.07	   11.76
     94.3015	   27.00	   30.99	 -256.82	   11.74
     94.3349	   28.00	   29.77	 -254.59	   11.73
     94.3683	   36.00	   28.62	 -245.44	   11.71
     94.4017	   35.00	   27.56	 -245.39	   11.70
     94.4351	   25.00	   26.60	 -254.42	   11.68
     94.4686	   22.00	   25.70	 -256.52	   11.67
     94.5020	   32.00	   24.84	 -245.67	   11.65
     94.5354	   32.00	   24.03	 -244.85	   11.64
     94.5688	   24.00	   23.26	 -252.08	   11.62
     94.6022	   30.00	   22.54	 -245.36	   11.61
     94.6357	   19.00	   21.87	 -255.69	   11.59
     94.6691	   32.00	   21.26	 -242.08	   11.57
     94.7025	   18.00	   20.71	 -255.54	   11.56
     94.7359	   27.00	   20.23	 -246.05	   11.54
     94.7694	   20.00	   19.79	 -252.61	   11.53
     94.8028	   20.00	   19.41	 -252.23	   11.51
     94.8362	   20.00	   19.07	 -251.89	   11.49
     94.8696	   24.00	   18.76	 -247.58	   11.48
     94.9031	   20.00	   18.49	 -251.31	   11.46
     94.9365	   25.00	   18.25	 -246.07	   11.45
     94.9699	   10.00	   18.03	 -260.86	   11.43
     95.0033	   17.00	   17.84	 -253.66	   11.41
     95.0367	   17.00	   17.66	 -253.48	   11.40
     95.0702	   16.00	   17.50	 -254.32	   11.38
     95.1036	   19.00	   17.35	 -251.18	   11.36
     95.1370	   19.00	   17.22	 -251.04	   11.35
     95.1704	   12.00	   17.10	 -257.92	   11.33
     95.2039	   23.00	   16.98	 -246.81	   11.31
     95.2373	   18.00	   16.88	 -251.70	   11.30
     95.2707	   11.00	   16.78	 -258.60	   11.28
     95.3041	   18.00	   16.69	 -251.52	   11.26
     95.3375	   12.00	   16.61	 -257.43	   11.25
     95.3710	   17.00	   16.53	 -252.35	   11.23
     95.4044	   22.00	   16.46	 -247.28	   11.21
     95.4378	   21.00	   16.40	 -248.22	   11.20
     95.4712	   14.00	   16.33	 -255.15	   11.18
     95.5047	   15.00	   16.27	 -254.09	   11.16
     95.5381	   17.00	   16.22	 -252.04	   11.14
     95.5715	    9.00	   16.17	 -259.99	   11.13
     95.6049	   15.00	   16.12	 -253.94	   11.11
     95.6384	   11.00	   16.08	 -257.90	   11.09
     95.6718	   15.00	   16.04	 -253.86	   11.07
     95.7052	   15.00	   16.00	 -253.82	   11.06
     95.7386	   14.00	   15.96	 -254.78	   11.04
     95.7720	   11.00	   15.93	 -257.75	   11.02
     95.8055	   11.00	   15.90	 -257.72	   11.00
     95.8389	   16.00	   15.87	 -252.69	   10.99
     95.8723	   11.00	   15.84	 -257.66	   10.97
     95.9057	   16.00	   15.82	 -252.64	   10.95
     95.9392	   17.00	   15.80	 -251.62	   10.93
     95.9726	   20.00	   15.78	 -248.60	   10.91
     96.0060	   17.00	   15.77	 -251.59	   10.90
     96.0394	   12.00	   15.75	 -256.57	   10.88
     96.0728	   21.00	   15.74	 -247.56	   10.86
     96.1063	   19.00	   15.73	 -249.55	   10.84
     96.1397	    9.00	   15.72	 -259.54	   10.82
     96.1731	   22.00	   15.72	 -246.54	   10.80
     96.2065	    8.00	   15.72	 -260.54	   10.79
     96.2400	    9.00	   15.72	 -259.54	   10.77
     96.2734	   17.00	   15.72	 -251.54	   10.75
     96.3068	   17.00	   15.73	 -251.55	   10.73
     96.3402	   28.00	   15.72	 -240.55	   10.71
     96.3736	   17.00	   15.74	 -251.56	   10.69
     96.4071	   11.00	   15.75	 -257.58	   10.67
     96.4405	   11.00	   15.78	 -257.60	   10.65
     96.4739	   11.00	   15.80	 -257.62	   10.64
     96.5073	   15.00	   15.83	 -253.65	   10.62
     96.5408	   18.00	   15.87	 -250.69	   10.60
     96.5742	   14.00	   15.91	 -254.73	   10.58
     96.6076	   20.00	   15.95	 -248.77	   10.56
     96.6410	   18.00	   16.00	 -250.82	   10.54
     96.6745	   18.00	   16.06	 -250.88	   10.52
     96.7079	   12.00	   16.12	 -256.94	   10.50
     96.7413	   17.00	   16.19	 -252.01	   10.48
     96.7747	   22.00	   16.26	 -247.08	   10.46
     96.8081	   25.00	   16.33	 -244.15	   10.44
     96.8416	   18.00	   16.40	 -251.22	   10.42
     96.8750	   22.00	   16.47	 -247.29	   10.40
     96.9084	   21.00	   16.53	 -248.35	   10.38
     96.9418	   18.00	   16.60	 -251.42	   10.36
     96.9753	   21.00	   16.66	 -248.49	   10.34
     97.0087	   14.00	   16.74	 -255.56	   10.32
     97.0421	   18.00	   16.82	 -251.64	   10.30
     97.0755	   20.00	   16.91	 -249.73	   10.28
     97.1089	   23.00	   17.01	 -246.83	   10.26
     97.1424	   20.00	   17.12	 -249.94	   10.24
     97.1758	   23.00	   17.24	 -247.06	   10.22
     97.2092	   17.00	   17.37	 -253.19	   10.20
     97.2426	   18.00	   17.51	 -252.33	   10.18
     97.2761	   20.00	   17.67	 -250.49	   10.16
     97.3095	   19.00	   17.84	 -251.66	   10.14
     97.3429	   30.00	   18.04	 -240.86	   10.12
     97.3763	   21.00	   18.26	 -250.08	   10.10
     97.4097	   17.00	   18.51	 -254.33	   10.08
     97.4432	   22.00	   18.79	 -249.61	   10.06
     97.4766	   20.00	   19.10	 -251.92	   10.04
     97.5100	   30.00	   19.45	 -242.27	   10.01
     97.5434	   27.00	   19.85	 -245.67	    9.99
     97.5769	   45.00	   20.30	 -228.12	    9.97
     97.6103	   36.00	   20.80	 -237.62	    9.95
     97.6437	   35.00	   21.37	 -239.19	    9.93
     97.6771	   23.00	   22.02	 -251.84	    9.91
     97.7105	   27.00	   22.76	 -248.58	    9.89
     97.7440	   29.00	   23.61	 -247.43	    9.87
     97.7774	   39.00	   24.58	 -238.40	    9.84
     97.8108	   47.00	   25.69	 -231.51	    9.82
     97.8442	   34.00	   26.97	 -245.80	    9.80
     97.8777	   39.00	   28.45	 -242.27	    9.78
     97.9111	   39.00	   30.15	 -243.97	    9.76
     97.9445	   47.00	   32.11	 -237.93	    9.74
     97.9779	   56.00	   34.35	 -231.17	    9.71
     98.0114	   38.00	   36.89	 -251.71	    9.69
     98.0448	   49.00	   39.76	 -243.58	    9.67
     98.0782	   49.00	   42.92	 -246.74	    9.65
     98.1116	   61.00	   46.32	 -238.14	    9.63
     98.1450	   58.00	   49.83	 -244.65	    9.60
     98.1785	   69.00	   53.26	 -237.08	    9.58
     98.2119	   98.00	   56.34	 -211.16	    9.56
     98.2453	   63.00	   58.79	 -248.61	    9.54
     98.2787	   75.00	   60.39	 -238.21	    9.51
     98.3122	   74.00	   61.07	 -239.89	    9.49
     98.3456	   65.00	   60.93	 -248.75	    9.47
     98.3790	   65.00	   60.20	 -248.02	    9.45
     98.4124	   58.00	   59.16	 -253.98	    9.42
     98.4458	   65.00	   58.06	 -245.89	    9.40
     98.4793	   81.00	   57.05	 -228.87	    9.38
     98.5127	   78.00	   56.14	 -230.97	    9.35
     98.5461	   77.00	   55.29	 -231.11	    9.33
     98.5795	   73.00	   54.39	 -234.21	    9.31
     98.6130	   87.00	   53.35	 -219.17	    9.28
     98.6464	   73.00	   52.14	 -231.96	    9.26
     98.6798	   66.00	   50.82	 -237.64	    9.24
     98.7132	   78.00	   49.51	 -224.33	    9.21
     98.7467	   70.00	   48.34	 -231.16	    9.19
     98.7801	   75.00	   47.45	 -225.27	    9.17
     98.8135	   71.00	   46.92	 -228.74	    9.14
     98.8469	   84.00	   46.80	 -215.62	    9.12
     98.8803	   61.00	   47.07	 -238.90	    9.10
     98.9138	   74.00	   47.69	 -226.51	    9.07
     98.9472	   70.00	   48.55	 -231.37	    9.05
     98.9806	   73.00	   49.47	 -229.29	    9.02
     99.0140	   90.00	   50.26	 -213.09	    9.00
     99.0474	   64.00	   50.72	 -239.54	    8.98
     99.0809	   51.00	   50.69	 -252.51	    8.95
     99.1143	   51.00	   50.13	 -251.95	    8.93
     99.1477	   73.00	   49.11	 -228.93	    8.90
     99.1811	   56.00	   47.78	 -244.61	    8.88
     99.2146	   70.00	   46.33	 -229.15	    8.85
     99.2480	   47.00	   44.88	 -250.70	    8.83
     99.2814	   55.00	   43.50	 -241.33	    8.81
     99.3148	   75.00	   42.21	 -220.03	    8.78
     99.3483	   49.00	   40.94	 -244.76	    8.76
     99.3817	   57.00	   39.60	 -235.42	    8.73
     99.4151	   46.00	   38.12	 -244.94	    8.71
     99.4485	   45.00	   36.48	 -244.30	    8.68
     99.4819	   45.00	   34.70	 -242.52	    8.66
     99.5154	   57.00	   32.84	 -228.66	    8.63
     99.5488	   38.00	   30.99	 -245.81	    8.61
     99.5822	   57.00	   29.21	 -225.03	    8.58
     99.6156	   46.00	   27.55	 -234.37	    8.55
     99.6491	   43.00	   26.04	 -235.86	    8.53
     99.6825	   42.00	   24.68	 -235.50	    8.50
     99.7159	   43.00	   23.47	 -233.29	    8.48
     99.7493	   42.00	   22.40	 -233.22	    8.45
     99.7827	   37.00	   21.46	 -237.28	    8.43
     99.8162	   19.00	   20.64	 -254.46	    8.40
     99.8496	   28.00	   19.91	 -244.73	    8.38
     99.8830	   32.00	   19.27	 -240.09	    8.35
     99.9164	   25.00	   18.70	 -246.52	    8.32
     99.9499	   30.00	   18.20	 -241.02	    8.30
     99.9833	   34.00	   17.76	 -236.58	    8.27
     15.8741	        	        	        	        	       0	(  0  1  0)	  0  1 :  1
     15.9135	        	        	        	        	       0	(  0  1  0)	  0  2 :  1
     27.7076	        	        	        	        	       0	(  1  1  0)	  0  1 :  1
     27.7773	        	        	        	        	       0	(  1  1  0)	  0  2 :  1
     28.7012	        	        	        	        	       0	(  0  1  1)	  0  1 :  1
     28.7734	        	        	        	        	       0	(  0  1  1)	  0  2 :  1
     32.1085	        	        	        	        	       0	(  0  2  0)	  0  1 :  1
     32.1898	        	        	        	        	       0	(  0  2  0)	  0  2 :  1
     36.8177	        	        	        	        	       0	(  1  1  1)	  0  1 :  1
     36.9116	        	        	        	        	       0	(  1  1  1)	  0  2 :  1
     40.3377	        	        	        	        	       0	(  0  2  1)	  0  1 :  1
     40.4414	        	        	        	        	       0	(  0  2  1)	  0  2 :  1
     42.9343	        	        	        	        	       0	(  1  2  0)	  0  1 :  1
     42.9343	        	        	        	        	       0	(  2  1  0)	  0  1 :  1
     43.0453	        	        	        	        	       0	(  1  2  0)	  0  2 :  1
     43.0453	        	        	        	        	       0	(  2  1  0)	  0  2 :  1
     48.6226	        	        	        	        	       0	(  0  0  2)	  0  1 :  1
     48.7501	        	        	        	        	       0	(  0  0  2)	  0  2 :  1
     49.0418	        	        	        	        	       0	(  0  3  0)	  0  1 :  1
     49.1705	        	        	        	        	       0	(  0  3  0)	  0  2 :  1
     49.6612	        	        	        	        	       0	(  1  2  1)	  0  1 :  1
     49.6612	        	        	        	        	       0	(  2  1  1)	  0  1 :  1
     49.7918	        	        	        	        	       0	(  1  2  1)	  0  2 :  1
     49.7918	        	        	        	        	       0	(  2  1  1)	  0  2 :  1
     51.4865	        	        	        	        	       0	(  0  1  2)	  0  1 :  1
     51.6226	        	        	        	        	       0	(  0  1  2)	  0  2 :  1
     55.2032	        	        	        	        	       0	(  0  3  1)	  0  1 :  1
     55.3508	        	        	        	        	       0	(  0  3  1)	  0  2 :  1
     56.9031	        	        	        	        	       0	(  1  1  2)	  0  1 :  1
     57.0560	        	        	        	        	       0	(  1  1  2)	  0  2 :  1
     57.2790	        	        	        	        	       0	(  2  2  0)	  0  1 :  1
     57.4331	        	        	        	        	       0	(  2  2  0)	  0  2 :  1
     59.4871	        	        	        	        	       0	(  0  2  2)	  0  1 :  1
     59.6483	        	        	        	        	       0	(  0  2  2)	  0  2 :  1
     59.8527	        	        	        	        	       0	(  1  3  0)	  0  1 :  1
     59.8527	        	        	        	        	       0	(  3  1  0)	  0  1 :  1
     60.0152	        	        	        	        	       0	(  1  3  0)	  0  2 :  1
     60.0152	        	        	        	        	       0	(  3  1  0)	  0  2 :  1
     62.8904	        	        	        	        	       0	(  2  2  1)	  0  1 :  1
     63.0630	        	        	        	        	       0	(  2  2  1)	  0  2 :  1
     65.3316	        	        	        	        	       0	(  1  3  1)	  0  1 :  1
     65.3316	        	        	        	        	       0	(  3  1  1)	  0  1 :  1
     65.5126	        	        	        	        	       0	(  1  3  1)	  0  2 :  1
     65.5126	        	        	        	        	       0	(  3  1  1)	  0  2 :  1
     66.8743	        	        	        	        	       0	(  1  2  2)	  0  1 :  1
     66.8743	        	        	        	        	       0	(  2  1  2)	  0  1 :  1
     67.0607	        	        	        	        	       0	(  1  2  2)	  0  2 :  1
     67.0607	        	        	        	        	       0	(  2  1  2)	  0  2 :  1
     67.2171	        	        	        	        	       0	(  0  4  0)	  0  1 :  1
     67.4047	        	        	        	        	       0	(  0  4  0)	  0  2 :  1
     71.5736	        	        	        	        	       0	(  0  3  2)	  0  1 :  1
     71.7771	        	        	        	        	       0	(  0  3  2)	  0  2 :  1
     72.3999	        	        	        	        	       0	(  0  4  1)	  0  1 :  1
     72.6066	        	        	        	        	       0	(  0  4  1)	  0  2 :  1
     74.2022	        	        	        	        	       0	(  2  3  0)	  0  1 :  1
     74.2022	        	        	        	        	       0	(  3  2  0)	  0  1 :  1
     74.4158	        	        	        	        	       0	(  2  3  0)	  0  2 :  1
     74.4158	        	        	        	        	       0	(  3  2  0)	  0  2 :  1
     78.3998	        	        	        	        	       0	(  2  2  2)	  0  1 :  1
     78.5575	        	        	        	        	       0	(  0  1  3)	  0  1 :  1
     78.6301	        	        	        	        	       0	(  2  2  2)	  0  2 :  1
     78.7219	        	        	        	        	       0	(  1  4  0)	  0  1 :  1
     78.7219	        	        	        	        	       0	(  4  1  0)	  0  1 :  1
     78.7884	        	        	        	        	       0	(  0  1  3)	  0  2 :  1
     78.9535	        	        	        	        	       0	(  1  4  0)	  0  2 :  1
     78.9535	        	        	        	        	       0	(  4  1  0)	  0  2 :  1
     79.2010	        	        	        	        	       0	(  2  3  1)	  0  1 :  1
     79.2010	        	        	        	        	       0	(  3  2  1)	  0  1 :  1
     79.4346	        	        	        	        	       0	(  2  3  1)	  0  2 :  1
     79.4346	        	        	        	        	       0	(  3  2  1)	  0  2 :  1
     80.6338	        	        	        	        	       0	(  1  3  2)	  0  1 :  1
     80.6338	        	        	        	        	       0	(  3  1  2)	  0  1 :  1
     80.8734	        	        	        	        	       0	(  1  3  2)	  0  2 :  1
     80.8734	        	        	        	        	       0	(  3  1  2)	  0  2 :  1
     83.0093	        	        	        	        	       0	(  1  1  3)	  0  1 :  1
     83.2592	        	        	        	        	       0	(  1  1  3)	  0  2 :  1
     83.6450	        	        	        	        	       0	(  1  4  1)	  0  1 :  1
     83.6450	        	        	        	        	       0	(  4  1  1)	  0  1 :  1
     83.8977	        	        	        	        	       0	(  1  4  1)	  0  2 :  1
     83.8977	        	        	        	        	       0	(  4  1  1)	  0  2 :  1
     85.2178	        	        	        	        	       0	(  0  2  3)	  0  1 :  1
     85.4775	        	        	        	        	       0	(  0  2  3)	  0  2 :  1
     87.2645	        	        	        	        	       0	(  0  4  2)	  0  1 :  1
     87.5338	        	        	        	        	       0	(  0  4  2)	  0  2 :  1
     87.5806	        	        	        	        	       0	(  0  5  0)	  0  1 :  1
     87.8513	        	        	        	        	       0	(  0  5  0)	  0  2 :  1
     91.8140	        	        	        	        	       0	(  1  2  3)	  0  1 :  1
     91.8140	        	        	        	        	       0	(  2  1  3)	  0  1 :  1
     91.9754	        	        	        	        	       0	(  3  3  0)	  0  1 :  1
     92.1056	        	        	        	        	       0	(  1  2  3)	  0  2 :  1
     92.1056	        	        	        	        	       0	(  2  1  3)	  0  2 :  1
     92.2678	        	        	        	        	       0	(  3  3  0)	  0  2 :  1
     92.4460	        	        	        	        	       0	(  0  5  1)	  0  1 :  1
     92.7408	        	        	        	        	       0	(  0  5  1)	  0  2 :  1
     93.8591	        	        	        	        	       0	(  3  2  2)	  0  1 :  1
     93.8591	        	        	        	        	       0	(  2  3  2)	  0  1 :  1
     94.1613	        	        	        	        	       0	(  3  2  2)	  0  2 :  1
     94.1613	        	        	        	        	       0	(  2  3  2)	  0  2 :  1
     94.1756	        	        	        	        	       0	(  2  4  0)	  0  1 :  1
     94.1756	        	        	        	        	       0	(  4  2  0)	  0  1 :  1
     94.4795	        	        	        	        	       0	(  2  4  0)	  0  2 :  1
     94.4795	        	        	        	        	       0	(  4  2  0)	  0  2 :  1
     96.2199	        	        	        	        	       0	(  0  3  3)	  0  1 :  1
     96.5349	        	        	        	        	       0	(  0  3  3)	  0  2 :  1
     96.8556	        	        	        	        	       0	(  3  3  1)	  0  1 :  1
     97.1741	        	        	        	        	       0	(  3  3  1)	  0  2 :  1
     98.2789	        	        	        	        	       0	(  1  4  2)	  0  1 :  1
     98.2789	        	        	        	        	       0	(  4  1  2)	  0  1 :  1
     98.6056	        	        	        	        	       0	(  1  4  2)	  0  2 :  1
     98.6056	        	        	        	        	       0	(  4  1  2)	  0  2 :  1
     99.0741	        	        	        	        	       0	(  2  4  1)	  0  1 :  1
     99.0741	        	        	        	        	       0	(  4  2  1)	  0  1 :  1
     99.4054	        	        	        	        	       0	(  2  4  1)	  0  2 :  1
     99.4054	        	        	        	        	       0	(  4  2  1)	  0  2 :  1
    100.8273	        	        	        	        	       0	(  1  5  0)	  0  1 :  1
    100.8273	        	        	        	        	       0	(  5  1  0)	  0  1 :  1
    101.1691	        	        	        	        	       0	(  1  5  0)	  0  2 :  1
    101.1691	        	        	        	        	       0	(  5  1  0)	  0  2 :  1
    102.9078	        	        	        	        	       0	(  2  2  3)	  0  1 :  1
    103.2626	        	        	        	        	       0	(  2  2  3)	  0  2 :  1
    105.1727	        	        	        	        	       0	(  1  3  3)	  0  1 :  1
    105.1727	        	        	        	        	       0	(  3  1  3)	  0  1 :  1
    105.5423	        	        	        	        	       0	(  1  3  3)	  0  2 :  1
    105.5423	        	        	        	        	       0	(  3  1  3)	  0  2 :  1
    105.8282	        	        	        	        	       0	(  5  1  1)	  0  1 :  1
    105.8282	        	        	        	        	       0	(  1  5  1)	  0  1 :  1
    106.2022	        	        	        	        	       0	(  5  1  1)	  0  2 :  1
    106.2022	        	        	        	        	       0	(  1  5  1)	  0  2 :  1
    107.3004	        	        	        	        	       0	(  0  5  2)	  0  1 :  1
    107.6846	        	        	        	        	       0	(  0  5  2)	  0  2 :  1
    110.9495	        	        	        	        	       0	(  0  0  4)	  0  1 :  1
    111.3606	        	        	        	        	       0	(  0  0  4)	  0  2 :  1
    111.9675	        	        	        	        	       0	(  3  3  2)	  0  1 :  1
    112.1342	        	        	        	        	       0	(  0  4  3)	  0  1 :  1
    112.3084	        	        	        	        	       0	(  0  6  0)	  0  1 :  1
    112.3866	        	        	        	        	       0	(  3  3  2)	  0  2 :  1
    112.5547	        	        	        	        	       0	(  0  4  3)	  0  2 :  1
    112.7303	        	        	        	        	       0	(  0  6  0)	  0  2 :  1
    113.3218	        	        	        	        	       0	(  0  1  4)	  0  1 :  1
    113.7519	        	        	        	        	       0	(  0  1  4)	  0  2 :  1
    114.3576	        	        	        	        	       0	(  2  4  2)	  0  1 :  1
    114.3576	        	        	        	        	       0	(  4  2  2)	  0  1 :  1
    114.7048	        	        	        	        	       0	(  3  4  0)	  0  1 :  1
    114.7048	        	        	        	        	       0	(  4  3  0)	  0  1 :  1
    114.7963	        	        	        	        	       0	(  2  4  2)	  0  2 :  1
    114.7963	        	        	        	        	       0	(  4  2  2)	  0  2 :  1
    115.1465	        	        	        	        	       0	(  3  4  0)	  0  2 :  1
    115.1465	        	        	        	        	       0	(  4  3  0)	  0  2 :  1
    117.6782	        	        	        	        	       0	(  0  6  1)	  0  1 :  1
    118.1463	        	        	        	        	       0	(  0  6  1)	  0  2 :  1
    118.2030	        	        	        	        	       0	(  1  1  4)	  0  1 :  1
    118.6761	        	        	        	        	       0	(  1  1  4)	  0  2 :  1
    119.4611	        	        	        	        	       0	(  2  3  3)	  0  1 :  1
    119.4611	        	        	        	        	       0	(  3  2  3)	  0  1 :  1
    119.6465	        	        	        	        	       0	(  2  5  0)	  0  1 :  1
    119.6465	        	        	        	        	       0	(  5  2  0)	  0  1 :  1
    119.9462	        	        	        	        	       0	(  2  3  3)	  0  2 :  1
    119.9462	        	        	        	        	       0	(  3  2  3)	  0  2 :  1
    120.1334	        	        	        	        	       0	(  2  5  0)	  0  2 :  1
    120.1334	        	        	        	        	       0	(  5  2  0)	  0  2 :  1
    120.1892	        	        	        	        	       0	(  3  4  1)	  0  1 :  1
    120.1892	        	        	        	        	       0	(  4  3  1)	  0  1 :  1
    120.6815	        	        	        	        	       0	(  3  4  1)	  0  2 :  1
    120.6815	        	        	        	        	       0	(  4  3  1)	  0  2 :  1
    120.7271	        	        	        	        	       0	(  0  2  4)	  0  1 :  1
    121.2249	        	        	        	        	       0	(  0  2  4)	  0  2 :  1
    121.8358	        	        	        	        	       0	(  1  5  2)	  0  1 :  1
    121.8358	        	        	        	        	       0	(  5  1  2)	  0  1 :  1
    122.3451	        	        	        	        	       0	(  1  5  2)	  0  2 :  1
    122.3451	        	        	        	        	       0	(  5  1  2)	  0  2 :  1
    124.6484	        	        	        	        	       0	(  1  4  3)	  0  1 :  1
    124.6484	        	        	        	        	       0	(  4  1  3)	  0  1 :  1
    125.1887	        	        	        	        	       0	(  1  4  3)	  0  2 :  1
    125.1887	        	        	        	        	       0	(  4  1  3)	  0  2 :  1
    125.4199	        	        	        	        	       0	(  2  5  1)	  0  1 :  1
    125.4199	        	        	        	        	       0	(  5  2  1)	  0  1 :  1
    125.9692	        	        	        	        	       0	(  2  5  1)	  0  2 :  1
    125.9692	        	        	        	        	       0	(  5  2  1)	  0  2 :  1
    128.7565	        	        	        	        	       0	(  1  2  4)	  0  1 :  1
    128.7565	        	        	        	        	       0	(  2  1  4)	  0  1 :  1
    129.3479	        	        	        	        	       0	(  1  2  4)	  0  2 :  1
    129.3479	        	        	        	        	       0	(  2  1  4)	  0  2 :  1
