 Nd hydroxide   Chi2:  2.6868  CELL:    6.42555   6.42555   3.74098   90.0000   90.0000  120.0000   SPGR: P 63/m                 TEMP:      0.00
  1   2693     1.54060     1.54439     0.00000    -0.03175     0.00000    0
   182     0     1
       0.00000      14.00000
 2Theta	Yobs	Ycal	Yobs-Ycal	Backg	Posr	(hkl)	K
     10.0098	  258.00	  115.92	 -292.75	  112.97
     10.0432	  266.00	  115.77	 -292.75	  112.82
     10.0767	  243.00	  115.61	 -292.75	  112.67
     10.1101	  266.00	  115.46	 -292.75	  112.52
     10.1435	  245.00	  115.31	 -292.75	  112.37
     10.1769	  243.00	  115.16	 -292.75	  112.21
     10.2103	  265.00	  115.01	 -292.75	  112.06
     10.2438	  263.00	  114.86	 -292.75	  111.91
     10.2772	  242.00	  114.71	 -292.75	  111.76
     10.3106	  256.00	  114.55	 -292.75	  111.61
     10.3440	  240.00	  114.40	 -292.75	  111.46
     10.3775	  253.00	  114.25	 -292.75	  111.31
     10.4109	  229.00	  114.10	 -292.75	  111.16
     10.4443	  269.00	  113.95	 -292.75	  111.01
     10.4777	  235.00	  113.80	 -292.75	  110.86
     10.5111	  246.00	  113.65	 -292.75	  110.71
     10.5446	  221.00	  113.50	 -292.75	  110.56
     10.5780	  245.00	  113.35	 -292.75	  110.41
     10.6114	  236.00	  113.20	 -292.75	  110.26
     10.6448	  216.00	  113.05	 -292.75	  110.11
     10.6783	  250.00	  112.90	 -292.75	  109.96
     10.7117	  257.00	  112.76	 -292.75	  109.81
     10.7451	  242.00	  112.61	 -292.75	  109.66
     10.7785	  227.00	  112.46	 -292.75	  109.51
     10.8120	  247.00	  112.31	 -292.75	  109.36
     10.8454	  248.00	  112.16	 -292.75	  109.22
     10.8788	  231.00	  112.01	 -292.75	  109.07
     10.9122	  245.00	  111.86	 -292.75	  108.92
     10.9456	  226.00	  111.72	 -292.75	  108.77
     10.9791	  233.00	  111.57	 -292.75	  108.62
     11.0125	  232.00	  111.42	 -292.75	  108.47
     11.0459	  249.00	  111.27	 -292.75	  108.33
     11.0793	  231.00	  111.13	 -292.75	  108.18
     11.1128	  218.00	  110.98	 -292.75	  108.03
     11.1462	  243.00	  110.83	 -292.75	  107.89
     11.1796	  216.00	  110.68	 -292.75	  107.74
     11.2130	  222.00	  110.54	 -292.75	  107.59
     11.2464	  220.00	  110.39	 -292.75	  107.45
     11.2799	  219.00	  110.24	 -292.75	  107.30
     11.3133	  211.00	  110.10	 -292.75	  107.15
     11.3467	  190.00	  109.95	 -292.75	  107.01
     11.3801	  234.00	  109.81	 -292.75	  106.86
     11.4136	  238.00	  109.66	 -292.75	  106.71
     11.4470	  183.00	  109.51	 -292.75	  106.57
     11.4804	  202.00	  109.37	 -292.75	  106.42
     11.5138	  246.00	  109.22	 -292.75	  106.28
     11.5472	  220.00	  109.08	 -292.75	  106.13
     11.5807	  203.00	  108.93	 -292.75	  105.99
     11.6141	  208.00	  108.79	 -292.75	  105.84
     11.6475	  189.00	  108.64	 -292.75	  105.70
     11.6809	  232.00	  108.50	 -292.75	  105.55
     11.7144	  208.00	  108.35	 -292.75	  105.41
     11.7478	  202.00	  108.21	 -292.75	  105.26
     11.7812	  217.00	  108.07	 -292.75	  105.12
     11.8146	  222.00	  107.92	 -292.75	  104.98
     11.8481	  216.00	  107.78	 -292.75	  104.83
     11.8815	  194.00	  107.63	 -292.75	  104.69
     11.9149	  196.00	  107.49	 -292.75	  104.54
     11.9483	  206.00	  107.35	 -292.75	  104.40
     11.9817	  213.00	  107.20	 -292.75	  104.26
     12.0152	  212.00	  107.06	 -292.75	  104.11
     12.0486	  219.00	  106.92	 -292.75	  103.97
     12.0820	  218.00	  106.77	 -292.75	  103.83
     12.1154	  169.00	  106.63	 -292.75	  103.68
     12.1489	  191.00	  106.49	 -292.75	  103.54
     12.1823	  199.00	  106.35	 -292.75	  103.40
     12.2157	  211.00	  106.20	 -292.75	  103.26
     12.2491	  178.00	  106.06	 -292.75	  103.12
     12.2825	  194.00	  105.92	 -292.75	  102.97
     12.3160	  215.00	  105.78	 -292.75	  102.83
     12.3494	  220.00	  105.64	 -292.75	  102.69
     12.3828	  189.00	  105.49	 -292.75	  102.55
     12.4162	  184.00	  105.35	 -292.75	  102.41
     12.4497	  209.00	  105.21	 -292.75	  102.27
     12.4831	  209.00	  105.07	 -292.75	  102.12
     12.5165	  178.00	  104.93	 -292.75	  101.98
     12.5499	  184.00	  104.79	 -292.75	  101.84
     12.5833	  191.00	  104.65	 -292.75	  101.70
     12.6168	  179.00	  104.51	 -292.75	  101.56
     12.6502	  202.00	  104.37	 -292.75	  101.42
     12.6836	  203.00	  104.23	 -292.75	  101.28
     12.7170	  186.00	  104.09	 -292.75	  101.14
     12.7505	  189.00	  103.95	 -292.75	  101.00
     12.7839	  190.00	  103.81	 -292.75	  100.86
     12.8173	  185.00	  103.67	 -292.75	  100.72
     12.8507	  209.00	  103.53	 -292.75	  100.58
     12.8841	  199.00	  103.39	 -292.75	  100.44
     12.9176	  194.00	  103.25	 -292.75	  100.30
     12.9510	  168.00	  103.11	 -292.75	  100.16
     12.9844	  176.00	  102.97	 -292.75	  100.03
     13.0178	  200.00	  102.83	 -292.75	   99.89
     13.0513	  175.00	  102.69	 -292.75	   99.75
     13.0847	  182.00	  102.56	 -292.75	   99.61
     13.1181	  198.00	  102.42	 -292.75	   99.47
     13.1515	  206.00	  102.28	 -292.75	   99.33
     13.1850	  169.00	  102.14	 -292.75	   99.20
     13.2184	  168.00	  102.00	 -292.75	   99.06
     13.2518	  185.00	  101.87	 -292.75	   98.92
     13.2852	  183.00	  101.73	 -292.75	   98.78
     13.3186	  177.00	  101.59	 -292.75	   98.65
     13.3521	  205.00	  101.45	 -292.75	   98.51
     13.3855	  184.00	  101.32	 -292.75	   98.37
     13.4189	  176.00	  101.18	 -292.75	   98.23
     13.4523	  184.00	  101.04	 -292.75	   98.10
     13.4858	  164.00	  100.91	 -292.75	   97.96
     13.5192	  179.00	  100.77	 -292.75	   97.82
     13.5526	  185.00	  100.63	 -292.75	   97.69
     13.5860	  175.00	  100.50	 -292.75	   97.55
     13.6194	  178.00	  100.36	 -292.75	   97.42
     13.6529	  158.00	  100.23	 -292.75	   97.28
     13.6863	  199.00	  100.09	 -292.75	   97.14
     13.7197	  157.00	   99.95	 -292.75	   97.01
     13.7531	  179.00	   99.82	 -292.75	   96.87
     13.7866	  172.00	   99.68	 -292.75	   96.74
     13.8200	  189.00	   99.55	 -292.75	   96.60
     13.8534	  167.00	   99.41	 -292.75	   96.47
     13.8868	  166.00	   99.28	 -292.75	   96.33
     13.9202	  181.00	   99.14	 -292.75	   96.20
     13.9537	  186.00	   99.01	 -292.75	   96.06
     13.9871	  172.00	   98.87	 -292.75	   95.93
     14.0205	  180.00	  108.39	 -221.14	   95.79
     14.0539	  164.00	  108.61	 -237.36	   95.66
     14.0874	  150.00	  108.84	 -251.59	   95.53
     14.1208	  165.00	  109.10	 -236.85	   95.39
     14.1542	  161.00	  109.38	 -241.13	   95.26
     14.1876	  155.00	  109.68	 -247.43	   95.12
     14.2211	  141.00	  110.01	 -261.76	   94.99
     14.2545	  181.00	  110.36	 -222.11	   94.86
     14.2879	  171.00	  110.75	 -232.50	   94.72
     14.3213	  188.00	  111.17	 -215.92	   94.59
     14.3547	  175.00	  111.62	 -229.37	   94.46
     14.3882	  175.00	  112.12	 -229.87	   94.33
     14.4216	  175.00	  112.65	 -230.40	   94.19
     14.4550	  138.00	  113.23	 -267.98	   94.06
     14.4884	  152.00	  113.86	 -254.61	   93.93
     14.5219	  180.00	  114.55	 -227.30	   93.80
     14.5553	  184.00	  115.30	 -224.05	   93.66
     14.5887	  173.00	  116.11	 -235.86	   93.53
     14.6221	  190.00	  117.00	 -219.75	   93.40
     14.6555	  154.00	  117.97	 -256.72	   93.27
     14.6890	  175.00	  119.02	 -236.77	   93.14
     14.7224	  179.00	  120.18	 -233.93	   93.01
     14.7558	  178.00	  121.45	 -236.20	   92.87
     14.7892	  181.00	  122.83	 -234.58	   92.74
     14.8227	  172.00	  124.36	 -245.11	   92.61
     14.8561	  156.00	  126.04	 -262.79	   92.48
     14.8895	  170.00	  127.90	 -250.65	   92.35
     14.9229	  161.00	  129.95	 -261.70	   92.22
     14.9563	  154.00	  132.23	 -270.98	   92.09
     14.9898	  178.00	  134.76	 -249.51	   91.96
     15.0232	  185.00	  137.58	 -245.33	   91.83
     15.0566	  170.00	  140.74	 -263.49	   91.70
     15.0900	  171.00	  144.28	 -266.03	   91.57
     15.1235	  170.00	  148.27	 -271.02	   91.44
     15.1569	  163.00	  152.77	 -282.52	   91.31
     15.1903	  178.00	  157.89	 -272.64	   91.18
     15.2237	  194.00	  163.72	 -262.47	   91.05
     15.2571	  167.00	  170.40	 -296.15	   90.92
     15.2906	  195.00	  178.10	 -275.85	   90.80
     15.3240	  185.00	  187.03	 -294.78	   90.67
     15.3574	  192.00	  197.43	 -298.18	   90.54
     15.3908	  236.00	  209.66	 -266.41	   90.41
     15.4243	  223.00	  224.10	 -293.85	   90.28
     15.4577	  256.00	  241.29	 -278.04	   90.15
     15.4911	  226.00	  261.89	 -328.64	   90.03
     15.5245	  253.00	  286.70	 -326.45	   89.90
     15.5580	  271.00	  316.71	 -338.46	   89.77
     15.5914	  298.00	  353.10	 -347.85	   89.64
     15.6248	  313.00	  397.19	 -376.94	   89.51
     15.6582	  328.00	  450.36	 -415.11	   89.39
     15.6916	  365.00	  513.68	 -441.43	   89.26
     15.7251	  426.00	  587.36	 -454.11	   89.13
     15.7585	  515.00	  669.55	 -447.30	   89.01
     15.7919	  554.00	  754.90	 -493.65	   88.88
     15.8253	  675.00	  833.31	 -451.06	   88.75
     15.8588	  761.00	  890.86	 -422.61	   88.63
     15.8922	  814.00	  914.25	 -393.00	   88.50
     15.9256	  785.00	  897.37	 -405.12	   88.37
     15.9590	  692.00	  844.76	 -445.51	   88.25
     15.9924	  596.00	  768.91	 -465.66	   88.12
     16.0259	  562.00	  683.90	 -414.65	   88.00
     16.0593	  420.00	  600.53	 -473.28	   87.87
     16.0927	  373.00	  524.95	 -444.70	   87.74
     16.1261	  328.00	  459.50	 -424.25	   87.62
     16.1596	  318.00	  404.30	 -379.05	   87.49
     16.1930	  273.00	  358.39	 -378.14	   87.37
     16.2264	  274.00	  320.43	 -339.18	   87.24
     16.2598	  252.00	  289.08	 -329.83	   87.12
     16.2932	  219.00	  263.14	 -336.89	   86.99
     16.3267	  212.00	  241.57	 -322.32	   86.87
     16.3601	  226.00	  223.55	 -290.30	   86.75
     16.3935	  184.00	  208.38	 -317.13	   86.62
     16.4269	  179.00	  195.53	 -309.28	   86.50
     16.4604	  162.00	  184.56	 -315.31	   86.37
     16.4938	  180.00	  175.13	 -287.88	   86.25
     16.5272	  169.00	  166.97	 -290.72	   86.13
     16.5606	  139.00	  159.86	 -313.61	   86.00
     16.5941	  154.00	  153.63	 -292.38	   85.88
     16.6275	  167.00	  148.14	 -273.89	   85.76
     16.6609	  135.00	  143.27	 -301.02	   85.63
     16.6943	  148.00	  138.94	 -283.69	   85.51
     16.7277	  135.00	  135.07	 -292.82	   85.39
     16.7612	  159.00	  131.60	 -265.35	   85.26
     16.7946	  162.00	  128.46	 -259.21	   85.14
     16.8280	  122.00	  125.63	 -296.38	   85.02
     16.8614	  141.00	  123.06	 -274.81	   84.90
     16.8949	  137.00	  120.71	 -276.46	   84.78
     16.9283	  137.00	  118.57	 -274.32	   84.65
     16.9617	  131.00	  116.60	 -278.35	   84.53
     16.9951	  140.00	  114.79	 -267.54	   84.41
     17.0285	  121.00	  113.13	 -284.88	   84.29
     17.0620	  145.00	  111.59	 -259.34	   84.17
     17.0954	  125.00	  110.16	 -277.91	   84.05
     17.1288	  119.00	  108.83	 -282.58	   83.92
     17.1622	  124.00	  107.60	 -276.35	   83.80
     17.1957	  135.00	  106.44	 -264.19	   83.68
     17.2291	  104.00	  105.37	 -294.12	   83.56
     17.2625	  128.00	  104.35	 -269.10	   83.44
     17.2959	  138.00	  103.40	 -258.15	   83.32
     17.3293	  113.00	  102.51	 -282.26	   83.20
     17.3628	  121.00	  101.67	 -273.42	   83.08
     17.3962	  130.00	  100.87	 -263.62	   82.96
     17.4296	  105.00	  100.12	 -287.87	   82.84
     17.4630	  125.00	   99.40	 -267.15	   82.72
     17.4965	  113.00	   98.72	 -278.47	   82.60
     17.5299	  106.00	   98.08	 -284.83	   82.48
     17.5633	  126.00	   97.46	 -264.21	   82.36
     17.5967	  110.00	   96.88	 -279.63	   82.24
     17.6301	  117.00	   96.32	 -272.07	   82.12
     17.6636	  111.00	   95.79	 -277.54	   82.00
     17.6970	   96.00	   95.27	 -292.02	   81.88
     17.7304	  103.00	   94.78	 -284.53	   81.77
     17.7638	  115.00	   94.31	 -272.06	   81.65
     17.7973	  108.00	   93.86	 -278.61	   81.53
     17.8307	  128.00	   93.42	 -258.17	   81.41
     17.8641	  109.00	   93.00	 -276.75	   81.29
     17.8975	  116.00	   92.60	 -269.35	   81.17
     17.9310	   83.00	   92.21	 -301.96	   81.06
     17.9644	  114.00	   91.83	 -270.58	   80.94
     17.9978	   96.00	   91.46	 -288.21	   80.82
     18.0312	   91.00	   91.11	 -292.86	   80.70
     18.0646	   96.00	   90.76	 -287.51	   80.59
     18.0981	   99.00	   90.43	 -284.18	   80.47
     18.1315	  109.00	   90.11	 -273.86	   80.35
     18.1649	  108.00	   89.79	 -274.54	   80.24
     18.1983	   87.00	   89.49	 -295.24	   80.12
     18.2318	  126.00	   89.19	 -255.94	   80.00
     18.2652	  102.00	   88.90	 -279.65	   79.89
     18.2986	   97.00	   88.62	 -284.37	   79.77
     18.3320	   92.00	   88.34	 -289.09	   79.65
     18.3654	   97.00	   88.07	 -283.82	   79.54
     18.3989	  106.00	   87.81	 -274.56	   79.42
     18.4323	   88.00	   87.55	 -292.30	   79.30
     18.4657	  111.00	   87.30	 -269.05	   79.19
     18.4991	  103.00	   87.27	 -277.02	   79.07
     18.5326	  101.00	   87.03	 -278.78	   78.96
     18.5660	   77.00	   86.91	 -302.66	   78.84
     18.5994	   95.00	   86.68	 -284.43	   78.73
     18.6328	   91.00	   86.45	 -288.20	   78.61
     18.6662	  100.00	   86.23	 -278.98	   78.50
     18.6997	   95.00	   86.01	 -283.76	   78.38
     18.7331	  110.00	   85.80	 -268.55	   78.27
     18.7665	  102.00	   85.59	 -276.34	   78.15
     18.7999	   84.00	   85.39	 -294.14	   78.04
     18.8334	   92.00	   85.18	 -285.93	   77.92
     18.8668	   83.00	   84.98	 -294.73	   77.81
     18.9002	   91.00	   84.79	 -286.54	   77.70
     18.9336	   74.00	   84.59	 -303.34	   77.58
     18.9671	   84.00	   84.40	 -293.15	   77.47
     19.0005	   84.00	   84.21	 -292.96	   77.36
     19.0339	   94.00	   84.03	 -282.78	   77.24
     19.0673	   88.00	   83.85	 -288.60	   77.13
     19.1007	   86.00	   83.67	 -290.42	   77.02
     19.1342	  114.00	   83.49	 -262.24	   76.90
     19.1676	   75.00	   83.31	 -301.06	   76.79
     19.2010	   66.00	   83.14	 -309.89	   76.68
     19.2344	  103.00	   82.97	 -272.72	   76.56
     19.2679	   84.00	   82.80	 -291.55	   76.45
     19.3013	   85.00	   82.63	 -290.38	   76.34
     19.3347	   83.00	   82.46	 -292.21	   76.23
     19.3681	  100.00	   82.30	 -275.05	   76.12
     19.4015	   98.00	   82.14	 -276.89	   76.00
     19.4350	   92.00	   81.98	 -282.73	   75.89
     19.4684	  101.00	   82.18	 -273.93	   75.78
     19.5018	   86.00	   82.02	 -288.77	   75.67
     19.5352	   89.00	   82.05	 -285.80	   75.56
     19.5687	   87.00	   81.90	 -287.65	   75.45
     19.6021	   98.00	   81.75	 -276.50	   75.33
     19.6355	   87.00	   81.60	 -287.35	   75.22
     19.6689	   95.00	   81.45	 -279.20	   75.11
     19.7023	   88.00	   81.31	 -286.06	   75.00
     19.7358	  102.00	   81.16	 -271.91	   74.89
     19.7692	   74.00	   81.02	 -299.77	   74.78
     19.8026	   75.00	   80.88	 -298.63	   74.67
     19.8360	   82.00	   80.74	 -291.49	   74.56
     19.8695	  103.00	   80.60	 -270.35	   74.45
     19.9029	   85.00	   80.46	 -288.21	   74.34
     19.9363	   90.00	   80.33	 -283.08	   74.23
     19.9697	   85.00	   80.19	 -287.94	   74.12
     20.0032	   89.00	   80.06	 -283.81	   74.01
     20.0366	   81.00	   79.93	 -291.68	   73.90
     20.0700	   71.00	   79.79	 -301.54	   73.79
     20.1034	   69.00	   79.66	 -303.41	   73.68
     20.1368	   91.00	   79.53	 -281.28	   73.57
     20.1703	   94.00	   79.40	 -278.15	   73.46
     20.2037	   94.00	   79.27	 -278.02	   73.36
     20.2371	   81.00	   79.15	 -290.90	   73.25
     20.2705	   81.00	   79.02	 -290.77	   73.14
     20.3040	   76.00	   78.89	 -295.64	   73.03
     20.3374	   77.00	   78.77	 -294.52	   72.92
     20.3708	   91.00	   78.64	 -280.39	   72.81
     20.4042	   87.00	   78.52	 -284.27	   72.70
     20.4376	   82.00	   78.40	 -289.15	   72.60
     20.4711	   73.00	   78.28	 -298.03	   72.49
     20.5045	   78.00	   78.16	 -292.91	   72.38
     20.5379	   70.00	   78.04	 -300.79	   72.27
     20.5713	   58.00	   77.92	 -312.67	   72.17
     20.6048	   77.00	   77.80	 -293.55	   72.06
     20.6382	   81.00	   77.68	 -289.43	   71.95
     20.6716	   76.00	   77.56	 -294.31	   71.85
     20.7050	   78.00	   77.45	 -292.20	   71.74
     20.7384	   71.00	   77.33	 -299.08	   71.63
     20.7719	   74.00	   77.22	 -295.97	   71.53
     20.8053	   84.00	   77.10	 -285.85	   71.42
     20.8387	   83.00	   76.99	 -286.74	   71.31
     20.8721	   87.00	   76.88	 -282.63	   71.21
     20.9056	   79.00	   76.76	 -290.51	   71.10
     20.9390	   76.00	   76.65	 -293.40	   70.99
     20.9724	   70.00	   76.54	 -299.29	   70.89
     21.0058	   69.00	   76.43	 -300.18	   70.78
     21.0392	   68.00	   76.32	 -301.07	   70.68
     21.0727	   79.00	   76.21	 -289.96	   70.57
     21.1061	   76.00	   76.10	 -292.85	   70.47
     21.1395	   60.00	   76.00	 -308.75	   70.36
     21.1729	   74.00	   75.89	 -294.64	   70.26
     21.2064	   85.00	   75.78	 -283.53	   70.15
     21.2398	   68.00	   75.68	 -300.43	   70.05
     21.2732	   64.00	   75.57	 -304.32	   69.94
     21.3066	   91.00	   75.47	 -277.22	   69.84
     21.3401	   85.00	   75.36	 -283.11	   69.73
     21.3735	   73.00	   75.26	 -295.01	   69.63
     21.4069	   70.00	   75.16	 -297.91	   69.52
     21.4403	   62.00	   75.05	 -305.80	   69.42
     21.4737	   71.00	   74.95	 -296.70	   69.32
     21.5072	   57.00	   74.85	 -310.60	   69.21
     21.5406	   70.00	   74.75	 -297.50	   69.11
     21.5740	   69.00	   74.65	 -298.40	   69.01
     21.6074	   65.00	   74.55	 -302.30	   68.90
     21.6409	   74.00	   74.45	 -293.20	   68.80
     21.6743	   57.00	   74.35	 -310.10	   68.70
     21.7077	   65.00	   74.26	 -302.01	   68.59
     21.7411	   76.00	   74.16	 -290.91	   68.49
     21.7745	   70.00	   74.06	 -296.81	   68.39
     21.8080	   61.00	   73.97	 -305.72	   68.28
     21.8414	   77.00	   73.87	 -289.62	   68.18
     21.8748	   66.00	   73.78	 -300.53	   68.08
     21.9082	   56.00	   73.68	 -310.43	   67.98
     21.9417	   68.00	   73.59	 -298.34	   67.87
     21.9751	   69.00	   73.50	 -297.25	   67.77
     22.0085	   73.00	   73.41	 -293.16	   67.67
     22.0419	   76.00	   73.32	 -290.07	   67.57
     22.0753	   73.00	   73.22	 -292.97	   67.47
     22.1088	   69.00	   73.13	 -296.88	   67.37
     22.1422	   68.00	   73.04	 -297.79	   67.26
     22.1756	   69.00	   72.96	 -296.71	   67.16
     22.2090	   77.00	   72.87	 -288.62	   67.06
     22.2425	   82.00	   72.78	 -283.53	   66.96
     22.2759	   72.00	   72.69	 -293.44	   66.86
     22.3093	   73.00	   72.61	 -292.36	   66.76
     22.3427	   66.00	   72.52	 -299.27	   66.66
     22.3762	   86.00	   72.44	 -279.19	   66.56
     22.4096	   79.00	   72.35	 -286.10	   66.46
     22.4430	   75.00	   72.27	 -290.02	   66.36
     22.4764	   55.00	   72.18	 -309.93	   66.26
     22.5098	   63.00	   72.10	 -301.85	   66.16
     22.5433	   79.00	   72.02	 -285.77	   66.06
     22.5767	   66.00	   71.94	 -298.69	   65.96
     22.6101	   63.00	   71.86	 -301.61	   65.86
     22.6435	   71.00	   71.78	 -293.53	   65.76
     22.6770	   68.00	   71.70	 -296.45	   65.66
     22.7104	   63.00	   71.62	 -301.37	   65.56
     22.7438	   77.00	   71.55	 -287.30	   65.46
     22.7772	   68.00	   71.54	 -296.29	   65.36
     22.8106	   66.00	   71.47	 -298.22	   65.26
     22.8441	   70.00	   71.39	 -294.14	   65.16
     22.8775	   65.00	   71.35	 -299.10	   65.07
     22.9109	   83.00	   71.28	 -281.03	   64.97
     22.9443	   69.00	   71.21	 -294.96	   64.87
     22.9778	   68.00	   71.14	 -295.89	   64.77
     23.0112	   75.00	   71.07	 -288.82	   64.67
     23.0446	   86.00	   71.00	 -277.75	   64.57
     23.0780	   66.00	   70.93	 -297.68	   64.48
     23.1114	   68.00	   70.87	 -295.62	   64.38
     23.1449	   63.00	   70.80	 -300.55	   64.28
     23.1783	   71.00	   70.73	 -292.48	   64.18
     23.2117	   73.00	   70.67	 -290.42	   64.09
     23.2451	   79.00	   70.61	 -284.36	   63.99
     23.2786	   73.00	   70.54	 -290.29	   63.89
     23.3120	   68.00	   70.48	 -295.23	   63.80
     23.3454	   63.00	   70.42	 -300.17	   63.70
     23.3788	   55.00	   70.36	 -308.11	   63.60
     23.4122	   75.00	   70.31	 -288.06	   63.51
     23.4457	   71.00	   70.25	 -292.00	   63.41
     23.4791	   71.00	   70.19	 -291.94	   63.31
     23.5125	   65.00	   70.14	 -297.89	   63.22
     23.5459	   61.00	   70.08	 -301.83	   63.12
     23.5794	   85.00	   70.03	 -277.78	   63.02
     23.6128	   75.00	   69.98	 -287.73	   62.93
     23.6462	   63.00	   69.93	 -299.68	   62.83
     23.6796	   83.00	   69.88	 -279.63	   62.74
     23.7131	   77.00	   69.84	 -285.59	   62.64
     23.7465	   76.00	   69.79	 -286.54	   62.55
     23.7799	   72.00	   69.75	 -290.50	   62.45
     23.8133	   74.00	   69.70	 -288.45	   62.36
     23.8467	   62.00	   69.66	 -300.41	   62.26
     23.8802	   66.00	   69.62	 -296.37	   62.17
     23.9136	   70.00	   69.59	 -292.34	   62.07
     23.9470	   68.00	   69.55	 -294.30	   61.98
     23.9804	   73.00	   69.51	 -289.26	   61.88
     24.0139	   70.00	   69.48	 -292.23	   61.79
     24.0473	   61.00	   69.45	 -301.20	   61.69
     24.0807	   71.00	   69.42	 -291.17	   61.60
     24.1141	   70.00	   69.39	 -292.14	   61.50
     24.1475	   62.00	   69.37	 -300.12	   61.41
     24.1810	   69.00	   69.35	 -293.10	   61.32
     24.2144	   62.00	   69.32	 -300.07	   61.22
     24.2478	   62.00	   69.30	 -300.05	   61.13
     24.2812	   77.00	   69.29	 -285.04	   61.04
     24.3147	   70.00	   69.27	 -292.02	   60.94
     24.3481	   68.00	   69.26	 -294.01	   60.85
     24.3815	   59.00	   69.25	 -303.00	   60.76
     24.4149	   62.00	   69.24	 -299.99	   60.66
     24.4483	   72.00	   69.24	 -289.99	   60.57
     24.4818	   62.00	   69.24	 -299.99	   60.48
     24.5152	   66.00	   69.24	 -295.99	   60.38
     24.5486	   63.00	   69.24	 -298.99	   60.29
     24.5820	   60.00	   69.25	 -302.00	   60.20
     24.6155	   69.00	   69.25	 -293.00	   60.11
     24.6489	   60.00	   69.27	 -302.02	   60.02
     24.6823	   68.00	   69.28	 -294.03	   59.92
     24.7157	   76.00	   69.30	 -286.05	   59.83
     24.7491	   44.00	   69.33	 -318.08	   59.74
     24.7826	   51.00	   69.35	 -311.10	   59.65
     24.8160	   72.00	   69.38	 -290.13	   59.56
     24.8494	   64.00	   69.42	 -298.17	   59.47
     24.8828	   63.00	   69.46	 -299.21	   59.37
     24.9163	   58.00	   69.50	 -304.25	   59.28
     24.9497	   58.00	   69.55	 -304.30	   59.19
     24.9831	   58.00	   69.18	 -303.93	   59.10
     25.0165	   69.00	   69.25	 -293.00	   59.01
     25.0500	   59.00	   69.31	 -303.06	   58.92
     25.0834	   61.00	   69.38	 -301.13	   58.83
     25.1168	   64.00	   69.46	 -298.21	   58.74
     25.1502	   69.00	   69.54	 -293.29	   58.65
     25.1836	   68.00	   69.63	 -294.38	   58.56
     25.2171	   63.00	   69.72	 -299.47	   58.47
     25.2505	   66.00	   69.83	 -296.58	   58.38
     25.2839	   76.00	   69.93	 -286.68	   58.29
     25.3173	   73.00	   70.05	 -289.80	   58.20
     25.3508	   77.00	   70.17	 -285.92	   58.11
     25.3842	   62.00	   70.31	 -301.06	   58.02
     25.4176	   64.00	   70.45	 -299.20	   57.93
     25.4510	   56.00	   70.60	 -307.35	   57.84
     25.4844	   58.00	   70.76	 -305.51	   57.75
     25.5179	   54.00	   70.93	 -309.68	   57.66
     25.5513	   77.00	   71.11	 -286.86	   57.57
     25.5847	   56.00	   71.30	 -308.05	   57.48
     25.6181	   57.00	   71.50	 -307.25	   57.40
     25.6516	   58.00	   71.71	 -306.46	   57.31
     25.6850	   65.00	   71.94	 -299.69	   57.22
     25.7184	   83.00	   72.18	 -281.93	   57.13
     25.7518	   56.00	   72.44	 -309.19	   57.04
     25.7852	   65.00	   72.71	 -300.46	   56.95
     25.8187	   70.00	   73.00	 -295.75	   56.87
     25.8521	   73.00	   73.31	 -293.06	   56.78
     25.8855	   64.00	   73.64	 -302.39	   56.69
     25.9189	   70.00	   73.98	 -296.73	   56.60
     25.9524	   81.00	   74.35	 -286.10	   56.52
     25.9858	   62.00	   74.74	 -305.49	   56.43
     26.0192	   89.00	   75.16	 -278.91	   56.34
     26.0526	   55.00	   75.60	 -313.35	   56.25
     26.0861	   71.00	   76.07	 -297.82	   56.17
     26.1195	   69.00	   76.57	 -300.32	   56.08
     26.1529	   56.00	   77.11	 -313.86	   55.99
     26.1863	   69.00	   77.68	 -301.43	   55.91
     26.2197	   78.00	   78.28	 -293.03	   55.82
     26.2532	   64.00	   78.93	 -307.68	   55.73
     26.2866	   84.00	   79.63	 -288.38	   55.65
     26.3200	   98.00	   80.37	 -275.12	   55.56
     26.3534	   78.00	   81.16	 -295.91	   55.47
     26.3869	   72.00	   82.01	 -302.76	   55.39
     26.4203	   74.00	   82.93	 -301.68	   55.30
     26.4537	   64.00	   83.91	 -312.66	   55.22
     26.4871	   78.00	   84.97	 -299.72	   55.13
     26.5205	   77.00	   86.11	 -301.86	   55.05
     26.5540	   92.00	   87.35	 -288.10	   54.96
     26.5874	   83.00	   88.68	 -298.43	   54.88
     26.6208	   98.00	   90.13	 -284.88	   54.79
     26.6542	   97.00	   91.70	 -287.45	   54.70
     26.6877	  100.00	   93.40	 -286.15	   54.62
     26.7211	   75.00	   95.27	 -313.02	   54.54
     26.7545	   86.00	   97.30	 -304.05	   54.45
     26.7879	  105.00	   99.53	 -287.28	   54.37
     26.8213	   99.00	  101.99	 -295.74	   54.28
     26.8548	   97.00	  104.69	 -300.44	   54.20
     26.8882	  105.00	  107.68	 -295.43	   54.11
     26.9216	  116.00	  110.99	 -287.74	   54.03
     26.9550	  121.00	  114.68	 -286.43	   53.94
     26.9885	  110.00	  118.81	 -301.56	   53.86
     27.0219	  125.00	  123.44	 -291.19	   53.78
     27.0553	  143.00	  128.66	 -278.41	   53.69
     27.0887	  151.00	  134.59	 -276.34	   53.61
     27.1222	  146.00	  141.33	 -288.08	   53.53
     27.1556	  132.00	  149.07	 -309.82	   53.44
     27.1890	  124.00	  158.00	 -326.75	   53.36
     27.2224	  150.00	  168.37	 -311.12	   53.28
     27.2558	  171.00	  180.49	 -302.24	   53.19
     27.2893	  157.00	  194.77	 -330.52	   53.11
     27.3227	  196.00	  211.70	 -308.45	   53.03
     27.3561	  242.00	  231.88	 -282.63	   52.95
     27.3895	  213.00	  256.05	 -335.80	   52.86
     27.4230	  300.00	  285.05	 -277.80	   52.78
     27.4564	  297.00	  319.87	 -315.62	   52.70
     27.4898	  320.00	  361.47	 -334.22	   52.62
     27.5232	  407.00	  410.62	 -296.37	   52.53
     27.5566	  472.00	  467.43	 -288.18	   52.45
     27.5901	  535.00	  530.65	 -288.40	   52.37
     27.6235	  624.00	  596.60	 -265.35	   52.29
     27.6569	  758.00	  658.53	 -193.28	   52.21
     27.6903	  798.00	  707.19	 -201.94	   52.13
     27.7238	  850.00	  733.60	 -176.35	   52.04
     27.7572	  833.00	  732.80	 -192.55	   51.96
     27.7906	  772.00	  706.02	 -226.77	   51.88
     27.8240	  690.00	  659.85	 -262.60	   51.80
     27.8574	  623.00	  603.26	 -273.01	   51.72
     27.8909	  524.00	  544.58	 -313.33	   51.64
     27.9243	  500.00	  489.72	 -282.47	   51.56
     27.9577	  427.00	  441.86	 -307.61	   51.48
     27.9911	  391.00	  402.12	 -303.87	   51.40
     28.0246	  377.00	  370.43	 -286.18	   51.32
     28.0580	  343.00	  346.16	 -295.91	   51.24
     28.0914	  319.00	  328.55	 -302.30	   51.16
     28.1248	  285.00	  316.92	 -324.67	   51.08
     28.1582	  287.00	  310.72	 -316.47	   51.00
     28.1917	  288.00	  309.61	 -314.36	   50.92
     28.2251	  276.00	  313.47	 -330.22	   50.84
     28.2585	  338.00	  322.39	 -277.14	   50.76
     28.2919	  280.00	  336.71	 -349.46	   50.68
     28.3254	  327.00	  357.00	 -322.75	   50.60
     28.3588	  376.00	  384.08	 -300.83	   50.52
     28.3922	  366.00	  419.05	 -345.80	   50.44
     28.4256	  386.00	  463.22	 -369.97	   50.36
     28.4591	  434.00	  518.04	 -376.79	   50.28
     28.4925	  490.00	  584.88	 -387.63	   50.20
     28.5259	  545.00	  664.50	 -412.25	   50.12
     28.5593	  641.00	  756.10	 -407.85	   50.05
     28.5927	  835.00	  855.91	 -313.66	   49.97
     28.6262	  904.00	  955.65	 -344.40	   49.89
     28.6596	 1028.00	 1042.18	 -306.93	   49.81
     28.6930	 1132.00	 1100.03	 -260.78	   49.73
     28.7264	 1147.00	 1117.01	 -262.76	   49.65
     28.7599	 1171.00	 1089.55	 -211.30	   49.58
     28.7933	 1065.00	 1023.78	 -251.53	   49.50
     28.8267	  927.00	  932.41	 -298.16	   49.42
     28.8601	  795.00	  829.72	 -327.47	   49.34
     28.8935	  673.00	  727.51	 -347.26	   49.27
     28.9270	  599.00	  633.25	 -327.00	   49.19
     28.9604	  513.00	  550.38	 -330.13	   49.11
     28.9938	  380.00	  479.61	 -392.36	   49.03
     29.0272	  339.00	  420.14	 -373.89	   48.96
     29.0607	  304.00	  370.56	 -359.31	   48.88
     29.0941	  291.00	  329.33	 -331.08	   48.80
     29.1275	  235.00	  295.00	 -352.75	   48.73
     29.1609	  245.00	  266.32	 -314.07	   48.65
     29.1943	  206.00	  242.24	 -328.99	   48.57
     29.2278	  207.00	  221.91	 -307.66	   48.50
     29.2612	  175.00	  204.62	 -322.37	   48.42
     29.2946	  165.00	  189.81	 -317.56	   48.34
     29.3280	  154.00	  177.05	 -315.80	   48.27
     29.3615	  164.00	  165.99	 -294.74	   48.19
     29.3949	  125.00	  156.32	 -324.07	   48.12
     29.4283	  112.00	  147.84	 -328.59	   48.04
     29.4617	  118.00	  140.35	 -315.10	   47.97
     29.4951	  135.00	  133.71	 -291.46	   47.89
     29.5286	  128.00	  127.79	 -292.54	   47.81
     29.5620	  100.00	  122.49	 -315.24	   47.74
     29.5954	  103.00	  117.73	 -307.48	   47.66
     29.6288	  116.00	  113.43	 -290.18	   47.59
     29.6623	   96.00	  109.55	 -306.30	   47.51
     29.6957	   87.00	  106.02	 -311.77	   47.44
     29.7291	   75.00	  102.81	 -320.56	   47.36
     29.7625	   90.00	   99.88	 -302.63	   47.29
     29.7960	  113.00	   97.19	 -276.94	   47.22
     29.8294	   81.00	   94.73	 -306.48	   47.14
     29.8628	   91.00	   92.46	 -294.21	   47.07
     29.8962	   83.00	   90.38	 -300.13	   46.99
     29.9296	   79.00	   88.45	 -302.20	   46.92
     29.9631	   77.00	   86.66	 -302.41	   46.84
     29.9965	   73.00	   85.01	 -304.76	   46.77
     30.0299	   81.00	   83.47	 -295.22	   46.70
     30.0633	   65.00	   82.04	 -309.79	   46.62
     30.0968	   68.00	   80.72	 -305.47	   46.55
     30.1302	   65.00	   79.48	 -307.23	   46.48
     30.1636	   69.00	   78.32	 -302.07	   46.40
     30.1970	   75.00	   77.25	 -295.00	   46.33
     30.2304	   64.00	   76.24	 -304.99	   46.26
     30.2639	   68.00	   75.30	 -300.05	   46.18
     30.2973	   73.00	   74.42	 -294.17	   46.11
     30.3307	   54.00	   73.60	 -312.35	   46.04
     30.3641	   65.00	   72.83	 -300.58	   45.96
     30.3976	   70.00	   72.11	 -294.86	   45.89
     30.4310	   56.00	   71.44	 -308.19	   45.82
     30.4644	   61.00	   70.82	 -302.57	   45.75
     30.4978	   54.00	   70.24	 -308.99	   45.67
     30.5312	   60.00	   69.70	 -302.45	   45.60
     30.5647	   61.00	   69.20	 -300.95	   45.53
     30.5981	   57.00	   68.74	 -304.49	   45.46
     30.6315	   77.00	   68.32	 -284.07	   45.39
     30.6649	   64.00	   67.93	 -296.68	   45.32
     30.6984	   63.00	   67.58	 -297.33	   45.24
     30.7318	   57.00	   67.27	 -303.02	   45.17
     30.7652	   56.00	   66.99	 -303.74	   45.10
     30.7986	   48.00	   66.98	 -311.73	   45.03
     30.8321	   72.00	   66.77	 -287.52	   44.96
     30.8655	   59.00	   66.61	 -300.36	   44.89
     30.8989	   61.00	   66.59	 -298.34	   44.82
     30.9323	   65.00	   66.50	 -294.25	   44.75
     30.9657	   71.00	   66.46	 -288.21	   44.67
     30.9992	   50.00	   66.46	 -309.21	   44.60
     31.0326	   59.00	   66.50	 -300.25	   44.53
     31.0660	   64.00	   66.59	 -295.34	   44.46
     31.0994	   61.00	   66.74	 -298.49	   44.39
     31.1329	   64.00	   66.95	 -295.70	   44.32
     31.1663	   47.00	   67.22	 -312.97	   44.25
     31.1997	   42.00	   67.56	 -318.31	   44.18
     31.2331	   66.00	   67.98	 -294.73	   44.11
     31.2665	   60.00	   68.49	 -301.24	   44.04
     31.3000	   73.00	   69.09	 -288.84	   43.97
     31.3334	   63.00	   69.81	 -299.56	   43.90
     31.3668	   59.00	   70.66	 -304.41	   43.83
     31.4002	   58.00	   71.66	 -306.41	   43.76
     31.4337	   63.00	   72.83	 -302.58	   43.69
     31.4671	   60.00	   74.20	 -306.95	   43.63
     31.5005	   65.00	   75.81	 -303.56	   43.56
     31.5339	   59.00	   77.70	 -311.45	   43.49
     31.5673	   70.00	   79.93	 -302.68	   43.42
     31.6008	   73.00	   82.57	 -302.32	   43.35
     31.6342	   61.00	   85.70	 -317.45	   43.28
     31.6676	   85.00	   89.44	 -297.19	   43.21
     31.7010	   68.00	   93.91	 -318.66	   43.14
     31.7345	   90.00	   99.30	 -302.05	   43.08
     31.7679	   92.00	  105.80	 -306.55	   43.01
     31.8013	   81.00	  113.66	 -325.41	   42.94
     31.8347	  102.00	  123.17	 -313.92	   42.87
     31.8682	  109.00	  134.63	 -318.38	   42.80
     31.9016	  113.00	  148.34	 -328.09	   42.73
     31.9350	  132.00	  164.46	 -325.21	   42.67
     31.9684	  161.00	  182.91	 -314.66	   42.60
     32.0018	  139.00	  203.01	 -356.76	   42.53
     32.0353	  186.00	  223.29	 -330.04	   42.46
     32.0687	  199.00	  241.32	 -335.07	   42.40
     32.1021	  233.00	  254.14	 -313.89	   42.33
     32.1355	  231.00	  259.31	 -321.06	   42.26
     32.1690	  192.00	  255.89	 -356.64	   42.20
     32.2024	  206.00	  244.70	 -331.45	   42.13
     32.2358	  173.00	  227.91	 -347.66	   42.06
     32.2692	  151.00	  208.15	 -349.90	   41.99
     32.3026	  154.00	  187.84	 -326.59	   41.93
     32.3361	  114.00	  168.66	 -347.41	   41.86
     32.3695	  130.00	  151.52	 -314.27	   41.80
     32.4029	  104.00	  136.73	 -325.48	   41.73
     32.4363	   97.00	  124.20	 -319.95	   41.66
     32.4698	   81.00	  113.71	 -325.46	   41.60
     32.5032	   81.00	  104.97	 -316.72	   41.53
     32.5366	   68.00	   97.67	 -322.42	   41.46
     32.5700	   69.00	   91.57	 -315.32	   41.40
     32.6034	   70.00	   86.45	 -309.20	   41.33
     32.6369	   78.00	   82.12	 -296.87	   41.27
     32.6703	   57.00	   78.44	 -314.19	   41.20
     32.7037	   62.00	   75.28	 -306.03	   41.14
     32.7371	   46.00	   72.56	 -319.31	   41.07
     32.7706	   52.00	   70.20	 -310.95	   41.01
     32.8040	   50.00	   68.13	 -310.88	   40.94
     32.8374	   46.00	   66.31	 -313.06	   40.88
     32.8708	   42.00	   64.70	 -315.45	   40.81
     32.9043	   41.00	   63.27	 -315.02	   40.75
     32.9377	   47.00	   61.99	 -307.74	   40.68
     32.9711	   49.00	   60.83	 -304.58	   40.62
     33.0045	   39.00	   59.79	 -313.54	   40.55
     33.0379	   50.00	   58.85	 -301.60	   40.49
     33.0714	   44.00	   57.99	 -306.74	   40.42
     33.1048	   39.00	   57.20	 -310.95	   40.36
     33.1382	   30.00	   56.48	 -319.23	   40.30
     33.1716	   43.00	   55.82	 -305.57	   40.23
     33.2051	   46.00	   55.21	 -301.96	   40.17
     33.2385	   43.00	   54.64	 -304.39	   40.10
     33.2719	   51.00	   54.11	 -295.86	   40.04
     33.3053	   39.00	   53.67	 -307.42	   39.98
     33.3387	   42.00	   53.21	 -303.96	   39.91
     33.3722	   49.00	   52.78	 -296.53	   39.85
     33.4056	   45.00	   52.40	 -300.15	   39.79
     33.4390	   24.00	   52.02	 -320.77	   39.72
     33.4724	   46.00	   51.66	 -298.41	   39.66
     33.5059	   42.00	   51.33	 -302.08	   39.60
     33.5393	   38.00	   51.01	 -305.76	   39.53
     33.5727	   51.00	   50.71	 -292.46	   39.47
     33.6061	   44.00	   50.42	 -299.17	   39.41
     33.6395	   44.00	   50.15	 -298.90	   39.35
     33.6730	   34.00	   49.89	 -308.64	   39.28
     33.7064	   45.00	   49.64	 -297.39	   39.22
     33.7398	   43.00	   49.40	 -299.15	   39.16
     33.7732	   30.00	   49.18	 -311.93	   39.10
     33.8067	   39.00	   48.96	 -302.71	   39.03
     33.8401	   48.00	   48.75	 -293.50	   38.97
     33.8735	   44.00	   48.55	 -297.30	   38.91
     33.9069	   34.00	   48.36	 -307.11	   38.85
     33.9403	   38.00	   48.18	 -302.93	   38.79
     33.9738	   44.00	   48.00	 -296.75	   38.73
     34.0072	   36.00	   47.83	 -304.58	   38.66
     34.0406	   36.00	   47.66	 -304.41	   38.60
     34.0740	   46.00	   47.50	 -294.25	   38.54
     34.1075	   54.00	   47.35	 -286.10	   38.48
     34.1409	   41.00	   47.20	 -298.95	   38.42
     34.1743	   43.00	   47.05	 -296.80	   38.36
     34.2077	   29.00	   46.91	 -310.66	   38.30
     34.2411	   37.00	   46.78	 -302.53	   38.24
     34.2746	   47.00	   46.64	 -292.39	   38.18
     34.3080	   46.00	   46.52	 -293.27	   38.12
     34.3414	   29.00	   46.39	 -310.14	   38.05
     34.3748	   52.00	   46.27	 -287.02	   37.99
     34.4083	   33.00	   46.16	 -305.91	   37.93
     34.4417	   35.00	   46.05	 -303.80	   37.87
     34.4751	   43.00	   45.94	 -295.69	   37.81
     34.5085	   39.00	   45.83	 -299.58	   37.75
     34.5420	   42.00	   45.73	 -296.48	   37.69
     34.5754	   35.00	   45.63	 -303.38	   37.63
     34.6088	   44.00	   45.53	 -294.28	   37.57
     34.6422	   39.00	   45.44	 -299.19	   37.51
     34.6756	   38.00	   45.35	 -300.10	   37.45
     34.7091	   32.00	   45.26	 -306.01	   37.40
     34.7425	   29.00	   45.18	 -308.93	   37.34
     34.7759	   39.00	   45.09	 -298.84	   37.28
     34.8093	   31.00	   45.01	 -306.76	   37.22
     34.8428	   35.00	   44.94	 -302.69	   37.16
     34.8762	   27.00	   44.86	 -310.61	   37.10
     34.9096	   24.00	   44.79	 -313.54	   37.04
     34.9430	   32.00	   44.73	 -305.48	   36.98
     34.9764	   41.00	   44.66	 -296.41	   36.92
     35.0099	   33.00	   44.60	 -304.35	   36.86
     35.0433	   38.00	   44.54	 -299.29	   36.81
     35.0767	   29.00	   44.49	 -308.24	   36.75
     35.1101	   31.00	   44.43	 -306.18	   36.69
     35.1436	   42.00	   44.38	 -295.13	   36.63
     35.1770	   33.00	   44.34	 -304.09	   36.57
     35.2104	   32.00	   44.30	 -305.05	   36.51
     35.2438	   44.00	   44.26	 -293.01	   36.46
     35.2773	   41.00	   44.22	 -295.97	   36.40
     35.3107	   32.00	   44.19	 -304.94	   36.34
     35.3441	   32.00	   44.16	 -304.91	   36.28
     35.3775	   25.00	   44.14	 -311.89	   36.23
     35.4109	   35.00	   44.12	 -301.87	   36.17
     35.4444	   17.00	   44.11	 -319.86	   36.11
     35.4778	   38.00	   44.11	 -298.86	   36.05
     35.5112	   31.00	   44.10	 -305.85	   36.00
     35.5446	   37.00	   44.11	 -299.86	   35.94
     35.5781	   31.00	   44.12	 -305.87	   35.88
     35.6115	   37.00	   44.14	 -299.89	   35.83
     35.6449	   29.00	   44.17	 -307.92	   35.77
     35.6783	   37.00	   44.20	 -299.95	   35.71
     35.7117	   34.00	   44.25	 -303.00	   35.66
     35.7452	   35.00	   44.31	 -302.06	   35.60
     35.7786	   30.00	   44.37	 -307.12	   35.54
     35.8120	   32.00	   44.45	 -305.20	   35.49
     35.8454	   30.00	   44.55	 -307.30	   35.43
     35.8789	   36.00	   44.66	 -301.41	   35.37
     35.9123	   29.00	   44.79	 -308.54	   35.32
     35.9457	   39.00	   44.94	 -298.69	   35.26
     35.9791	   44.00	   45.12	 -293.87	   35.21
     36.0125	   56.00	   45.32	 -282.07	   35.15
     36.0460	   37.00	   45.55	 -301.30	   35.10
     36.0794	   41.00	   45.82	 -297.57	   35.04
     36.1128	   41.00	   46.13	 -297.88	   34.98
     36.1462	   51.00	   46.49	 -288.24	   34.93
     36.1797	   36.00	   46.90	 -303.65	   34.87
     36.2131	   41.00	   47.38	 -299.13	   34.82
     36.2465	   50.00	   47.94	 -290.69	   34.76
     36.2799	   36.00	   48.60	 -305.35	   34.71
     36.3133	   56.00	   49.37	 -286.12	   34.65
     36.3468	   47.00	   50.29	 -296.04	   34.60
     36.3802	   47.00	   51.37	 -297.12	   34.54
     36.4136	   51.00	   52.67	 -294.42	   34.49
     36.4470	   48.00	   54.22	 -298.97	   34.43
     36.4805	   30.00	   56.09	 -318.84	   34.38
     36.5139	   46.00	   58.35	 -305.10	   34.33
     36.5473	   59.00	   61.06	 -294.81	   34.27
     36.5807	   66.00	   64.31	 -291.06	   34.22
     36.6142	   86.00	   68.17	 -274.92	   34.16
     36.6476	   65.00	   72.65	 -300.40	   34.11
     36.6810	   73.00	   77.70	 -297.45	   34.06
     36.7144	   87.00	   83.09	 -288.84	   34.00
     36.7478	   87.00	   88.36	 -294.11	   33.95
     36.7813	   91.00	   92.84	 -294.59	   33.89
     36.8147	  105.00	   95.80	 -283.55	   33.84
     36.8481	  129.00	   96.73	 -260.48	   33.79
     36.8815	   96.00	   95.51	 -292.26	   33.73
     36.9150	   97.00	   92.43	 -288.18	   33.68
     36.9484	  108.00	   88.01	 -272.76	   33.63
     36.9818	   78.00	   82.66	 -297.41	   33.57
     37.0152	   89.00	   77.38	 -281.13	   33.52
     37.0486	   62.00	   72.27	 -303.02	   33.47
     37.0821	   62.00	   67.79	 -298.54	   33.42
     37.1155	   54.00	   63.90	 -302.65	   33.36
     37.1489	   57.00	   60.60	 -296.35	   33.31
     37.1823	   48.00	   57.84	 -302.59	   33.26
     37.2158	   47.00	   55.53	 -301.28	   33.21
     37.2492	   45.00	   53.62	 -301.37	   33.15
     37.2826	   45.00	   52.02	 -299.77	   33.10
     37.3160	   45.00	   50.68	 -298.43	   33.05
     37.3494	   52.00	   49.56	 -290.31	   33.00
     37.3829	   45.00	   48.61	 -296.36	   32.95
     37.4163	   43.00	   47.81	 -297.56	   32.89
     37.4497	   37.00	   47.12	 -302.87	   32.84
     37.4831	   37.00	   46.54	 -302.29	   32.79
     37.5166	   52.00	   46.04	 -286.79	   32.74
     37.5500	   38.00	   45.61	 -300.36	   32.69
     37.5834	   36.00	   45.24	 -301.99	   32.64
     37.6168	   37.00	   44.92	 -300.67	   32.58
     37.6502	   44.00	   44.64	 -293.39	   32.53
     37.6837	   46.00	   44.41	 -291.16	   32.48
     37.7171	   43.00	   44.21	 -293.96	   32.43
     37.7505	   32.00	   44.03	 -304.78	   32.38
     37.7839	   49.00	   43.89	 -287.64	   32.33
     37.8174	   47.00	   43.77	 -289.52	   32.28
     37.8508	   33.00	   43.67	 -303.42	   32.23
     37.8842	   38.00	   43.60	 -298.35	   32.18
     37.9176	   34.00	   43.54	 -302.29	   32.13
     37.9510	   34.00	   43.50	 -302.25	   32.08
     37.9845	   34.00	   43.12	 -301.87	   32.03
     38.0179	   39.00	   43.12	 -296.87	   31.97
     38.0513	   44.00	   42.95	 -291.70	   31.92
     38.0847	   36.00	   42.98	 -299.73	   31.87
     38.1182	   42.00	   43.02	 -293.77	   31.82
     38.1516	   36.00	   43.08	 -299.83	   31.77
     38.1850	   27.00	   43.15	 -308.90	   31.73
     38.2184	   45.00	   43.24	 -290.99	   31.68
     38.2519	   37.00	   43.34	 -299.09	   31.63
     38.2853	   35.00	   43.45	 -301.20	   31.58
     38.3187	   47.00	   43.58	 -289.33	   31.53
     38.3521	   39.00	   43.72	 -297.47	   31.48
     38.3855	   47.00	   43.88	 -289.63	   31.43
     38.4190	   44.00	   44.06	 -292.81	   31.38
     38.4524	   42.00	   44.25	 -295.00	   31.33
     38.4858	   38.00	   44.47	 -299.22	   31.28
     38.5192	   32.00	   44.70	 -305.45	   31.23
     38.5527	   34.00	   44.95	 -303.70	   31.18
     38.5861	   52.00	   45.22	 -285.97	   31.13
     38.6195	   45.00	   45.51	 -293.26	   31.09
     38.6529	   34.00	   45.82	 -304.57	   31.04
     38.6863	   46.00	   46.16	 -292.91	   30.99
     38.7198	   30.00	   46.53	 -309.28	   30.94
     38.7532	   61.00	   46.93	 -278.68	   30.89
     38.7866	   54.00	   47.39	 -286.14	   30.84
     38.8200	   48.00	   47.85	 -292.60	   30.80
     38.8535	   54.00	   48.34	 -287.09	   30.75
     38.8869	   60.00	   48.88	 -281.63	   30.70
     38.9203	   61.00	   49.47	 -281.22	   30.65
     38.9537	   48.00	   50.09	 -294.84	   30.60
     38.9872	   61.00	   50.77	 -282.52	   30.56
     39.0206	   54.00	   51.49	 -290.24	   30.51
     39.0540	   59.00	   52.28	 -286.03	   30.46
     39.0874	   60.00	   53.13	 -285.88	   30.41
     39.1208	   56.00	   54.06	 -290.81	   30.37
     39.1543	   59.00	   55.06	 -288.81	   30.32
     39.1877	   58.00	   56.23	 -290.98	   30.27
     39.2211	   58.00	   57.43	 -292.18	   30.22
     39.2545	   71.00	   58.73	 -280.48	   30.18
     39.2880	   61.00	   60.15	 -291.90	   30.13
     39.3214	   65.00	   61.75	 -289.50	   30.08
     39.3548	   63.00	   63.47	 -293.22	   30.04
     39.3882	   79.00	   65.36	 -279.11	   29.99
     39.4216	   68.00	   67.44	 -292.19	   29.94
     39.4551	   79.00	   69.75	 -283.50	   29.90
     39.4885	   70.00	   72.32	 -295.07	   29.85
     39.5219	   76.00	   75.17	 -291.92	   29.80
     39.5553	   83.00	   78.37	 -288.12	   29.76
     39.5888	   84.00	   81.95	 -290.70	   29.71
     39.6222	   86.00	   85.98	 -292.73	   29.67
     39.6556	  102.00	   90.55	 -281.30	   29.62
     39.6890	  102.00	   95.73	 -286.48	   29.57
     39.7224	   89.00	  101.66	 -305.41	   29.53
     39.7559	  135.00	  108.46	 -266.21	   29.48
     39.7893	  112.00	  116.48	 -297.23	   29.44
     39.8227	  124.00	  125.60	 -294.35	   29.39
     39.8561	  129.00	  136.27	 -300.02	   29.35
     39.8896	  161.00	  148.82	 -280.57	   29.30
     39.9230	  188.00	  163.76	 -268.51	   29.25
     39.9564	  163.00	  181.42	 -311.17	   29.21
     39.9898	  220.00	  202.52	 -275.27	   29.16
     40.0233	  242.00	  227.78	 -278.53	   29.12
     40.0567	  274.00	  258.04	 -276.79	   29.07
     40.0901	  279.00	  294.20	 -307.95	   29.03
     40.1235	  360.00	  337.06	 -269.81	   28.98
     40.1569	  403.00	  387.05	 -276.80	   28.94
     40.1904	  504.00	  443.79	 -232.54	   28.90
     40.2238	  517.00	  505.25	 -281.00	   28.85
     40.2572	  585.00	  567.09	 -274.84	   28.81
     40.2906	  709.00	  622.42	 -206.17	   28.76
     40.3241	  728.00	  663.15	 -227.90	   28.72
     40.3575	  766.00	  682.67	 -209.42	   28.67
     40.3909	  746.00	  678.32	 -225.07	   28.63
     40.4243	  717.00	  651.86	 -227.61	   28.59
     40.4577	  648.00	  608.00	 -252.75	   28.54
     40.4912	  594.00	  552.95	 -251.70	   28.50
     40.5246	  511.00	  493.14	 -274.89	   28.45
     40.5580	  501.00	  434.03	 -225.78	   28.41
     40.5914	  414.00	  379.34	 -258.09	   28.37
     40.6249	  357.00	  330.89	 -266.64	   28.32
     40.6583	  312.00	  289.19	 -269.94	   28.28
     40.6917	  280.00	  253.88	 -266.63	   28.24
     40.7251	  238.00	  224.26	 -279.01	   28.19
     40.7585	  245.00	  199.48	 -247.23	   28.15
     40.7920	  189.00	  178.76	 -282.51	   28.11
     40.8254	  171.00	  161.39	 -283.14	   28.06
     40.8588	  151.00	  146.77	 -288.52	   28.02
     40.8922	  146.00	  134.40	 -281.15	   27.98
     40.9257	  124.00	  123.87	 -292.62	   27.93
     40.9591	  126.00	  114.85	 -281.60	   27.89
     40.9925	   98.00	  107.09	 -301.84	   27.85
     41.0259	   99.00	  100.36	 -294.11	   27.81
     41.0593	  121.00	   94.49	 -266.24	   27.76
     41.0928	   79.00	   89.36	 -303.11	   27.72
     41.1262	   95.00	   84.83	 -282.58	   27.68
     41.1596	   89.00	   80.83	 -284.58	   27.64
     41.1930	   79.00	   77.28	 -291.03	   27.59
     41.2265	   81.00	   74.11	 -285.86	   27.55
     41.2599	   86.00	   71.28	 -278.03	   27.51
     41.2933	   74.00	   68.74	 -287.49	   27.47
     41.3267	   70.00	   66.46	 -289.21	   27.43
     41.3602	   74.00	   64.40	 -283.15	   27.39
     41.3936	   62.00	   62.54	 -293.29	   27.34
     41.4270	   63.00	   60.86	 -290.61	   27.30
     41.4604	   69.00	   59.26	 -283.01	   27.26
     41.4938	   64.00	   57.87	 -286.62	   27.22
     41.5273	   52.00	   56.64	 -297.39	   27.18
     41.5607	   48.00	   55.47	 -300.22	   27.14
     41.5941	   63.00	   54.43	 -284.18	   27.10
     41.6275	   59.00	   53.50	 -287.25	   27.05
     41.6610	   62.00	   52.66	 -283.41	   27.01
     41.6944	   51.00	   51.90	 -293.65	   26.97
     41.7278	   57.00	   51.21	 -286.96	   26.93
     41.7612	   61.00	   50.60	 -282.35	   26.89
     41.7946	   49.00	   50.06	 -293.81	   26.85
     41.8281	   49.00	   49.58	 -293.33	   26.81
     41.8615	   52.00	   49.17	 -289.92	   26.77
     41.8949	   55.00	   48.83	 -286.58	   26.73
     41.9283	   51.00	   48.55	 -290.30	   26.69
     41.9618	   54.00	   48.33	 -287.08	   26.65
     41.9952	   34.00	   48.17	 -306.92	   26.61
     42.0286	   72.00	   48.09	 -268.84	   26.57
     42.0620	   44.00	   48.07	 -296.82	   26.53
     42.0954	   54.00	   48.13	 -286.88	   26.49
     42.1289	   42.00	   48.26	 -299.01	   26.45
     42.1623	   43.00	   48.48	 -298.23	   26.41
     42.1957	   36.00	   48.80	 -305.55	   26.37
     42.2291	   49.00	   49.23	 -292.98	   26.33
     42.2626	   43.00	   49.77	 -299.52	   26.29
     42.2960	   50.00	   50.45	 -293.20	   26.25
     42.3294	   44.00	   51.28	 -300.03	   26.21
     42.3628	   68.00	   52.31	 -277.06	   26.17
     42.3963	   59.00	   53.54	 -287.29	   26.13
     42.4297	   57.00	   55.04	 -290.79	   26.09
     42.4631	   77.00	   56.85	 -272.60	   26.05
     42.4965	   66.00	   59.03	 -285.78	   26.01
     42.5299	   64.00	   61.67	 -290.42	   25.97
     42.5634	   57.00	   64.86	 -300.61	   25.94
     42.5968	   81.00	   68.72	 -280.47	   25.90
     42.6302	   79.00	   73.39	 -287.14	   25.86
     42.6636	   89.00	   79.02	 -282.77	   25.82
     42.6971	  112.00	   85.77	 -266.52	   25.78
     42.7305	   91.00	   93.77	 -295.52	   25.74
     42.7639	   90.00	  103.08	 -305.83	   25.70
     42.7973	  111.00	  113.58	 -295.33	   25.67
     42.8307	  132.00	  124.81	 -285.56	   25.63
     42.8642	  125.00	  135.90	 -303.65	   25.59
     42.8976	  159.00	  145.53	 -279.28	   25.55
     42.9310	  167.00	  152.27	 -278.02	   25.51
     42.9644	  163.00	  155.06	 -284.81	   25.48
     42.9979	  196.00	  153.60	 -250.35	   25.44
     43.0313	  166.00	  148.30	 -275.05	   25.40
     43.0647	  168.00	  140.02	 -264.77	   25.36
     43.0981	  126.00	  129.81	 -296.56	   25.32
     43.1315	  108.00	  118.76	 -303.51	   25.29
     43.1650	  130.00	  107.84	 -270.59	   25.25
     43.1984	   91.00	   97.69	 -299.44	   25.21
     43.2318	   89.00	   88.66	 -292.41	   25.17
     43.2652	   82.00	   80.85	 -291.60	   25.14
     43.2987	   74.00	   74.21	 -292.96	   25.10
     43.3321	   81.00	   68.61	 -280.36	   25.06
     43.3655	   59.00	   63.90	 -297.65	   25.03
     43.3989	   61.00	   59.94	 -291.69	   24.99
     43.4324	   46.00	   56.60	 -303.35	   24.95
     43.4658	   64.00	   53.78	 -282.53	   24.92
     43.4992	   58.00	   51.37	 -286.12	   24.88
     43.5326	   44.00	   49.31	 -298.06	   24.84
     43.5660	   47.00	   47.53	 -293.28	   24.81
     43.5995	   46.00	   45.99	 -292.74	   24.77
     43.6329	   57.00	   44.64	 -280.39	   24.73
     43.6663	   50.00	   43.45	 -286.20	   24.70
     43.6997	   50.00	   42.41	 -285.16	   24.66
     43.7332	   35.00	   41.48	 -299.23	   24.62
     43.7666	   54.00	   40.65	 -279.40	   24.59
     43.8000	   43.00	   39.90	 -289.65	   24.55
     43.8334	   41.00	   39.23	 -290.98	   24.52
     43.8668	   56.00	   38.62	 -275.37	   24.48
     43.9003	   48.00	   38.07	 -282.82	   24.44
     43.9337	   45.00	   37.56	 -285.31	   24.41
     43.9671	   29.00	   37.10	 -300.85	   24.37
     44.0005	   41.00	   36.68	 -288.43	   24.34
     44.0340	   44.00	   36.29	 -285.04	   24.30
     44.0674	   44.00	   35.93	 -284.68	   24.27
     44.1008	   44.00	   35.60	 -284.35	   24.23
     44.1342	   46.00	   35.29	 -282.04	   24.20
     44.1676	   34.00	   35.00	 -293.75	   24.16
     44.2011	   39.00	   34.73	 -288.48	   24.13
     44.2345	   43.00	   34.48	 -284.23	   24.09
     44.2679	   33.00	   34.25	 -294.00	   24.06
     44.3013	   35.00	   34.03	 -291.78	   24.02
     44.3348	   37.00	   33.83	 -289.58	   23.99
     44.3682	   29.00	   33.63	 -297.38	   23.95
     44.4016	   30.00	   33.45	 -296.20	   23.92
     44.4350	   43.00	   33.28	 -283.03	   23.88
     44.4684	   33.00	   33.12	 -292.87	   23.85
     44.5019	   24.00	   32.97	 -301.72	   23.81
     44.5353	   35.00	   32.82	 -290.57	   23.78
     44.5687	   32.00	   32.68	 -293.43	   23.74
     44.6021	   34.00	   32.55	 -291.30	   23.71
     44.6356	   28.00	   32.43	 -297.18	   23.68
     44.6690	   35.00	   32.32	 -290.07	   23.64
     44.7024	   35.00	   32.20	 -289.95	   23.61
     44.7358	   39.00	   32.10	 -285.85	   23.57
     44.7692	   36.00	   32.00	 -288.75	   23.54
     44.8027	   35.00	   31.91	 -289.66	   23.51
     44.8361	   30.00	   31.82	 -294.57	   23.47
     44.8695	   45.00	   31.73	 -279.48	   23.44
     44.9029	   31.00	   31.65	 -293.40	   23.41
     44.9364	   35.00	   31.57	 -289.32	   23.37
     44.9698	   43.00	   31.50	 -281.25	   23.34
     45.0032	   31.00	   31.43	 -293.18	   23.30
     45.0366	   24.00	   31.36	 -300.11	   23.27
     45.0701	   38.00	   31.30	 -286.05	   23.24
     45.1035	   31.00	   31.24	 -292.99	   23.21
     45.1369	   32.00	   31.19	 -291.94	   23.17
     45.1703	   32.00	   31.14	 -291.89	   23.14
     45.2037	   33.00	   31.09	 -290.84	   23.11
     45.2372	   31.00	   31.04	 -292.79	   23.07
     45.2706	   29.00	   31.00	 -294.75	   23.04
     45.3040	   28.00	   30.96	 -295.71	   23.01
     45.3374	   30.00	   30.92	 -293.67	   22.98
     45.3709	   44.00	   30.89	 -279.64	   22.94
     45.4043	   27.00	   30.85	 -296.60	   22.91
     45.4377	   37.00	   30.82	 -286.57	   22.88
     45.4711	   31.00	   30.80	 -292.55	   22.85
     45.5045	   42.00	   30.77	 -281.52	   22.81
     45.5380	   44.00	   30.75	 -279.50	   22.78
     45.5714	   21.00	   30.74	 -302.49	   22.75
     45.6048	   32.00	   30.72	 -291.47	   22.72
     45.6382	   31.00	   30.71	 -292.46	   22.68
     45.6717	   30.00	   30.70	 -293.45	   22.65
     45.7051	   47.00	   30.69	 -276.44	   22.62
     45.7385	   32.00	   30.68	 -291.43	   22.59
     45.7719	   32.00	   30.68	 -291.43	   22.56
     45.8053	   37.00	   30.68	 -286.43	   22.53
     45.8388	   30.00	   30.69	 -293.44	   22.49
     45.8722	   33.00	   30.69	 -290.44	   22.46
     45.9056	   24.00	   30.70	 -299.45	   22.43
     45.9390	   31.00	   30.71	 -292.46	   22.40
     45.9725	   35.00	   30.73	 -288.48	   22.37
     46.0059	   33.00	   30.75	 -290.50	   22.34
     46.0393	   23.00	   30.77	 -300.52	   22.31
     46.0727	   30.00	   30.79	 -293.54	   22.28
     46.1062	   30.00	   30.82	 -293.57	   22.24
     46.1396	   25.00	   30.85	 -298.60	   22.21
     46.1730	   30.00	   30.89	 -293.64	   22.18
     46.2064	   39.00	   30.92	 -284.67	   22.15
     46.2398	   27.00	   30.97	 -296.72	   22.12
     46.2733	   36.00	   31.01	 -287.76	   22.09
     46.3067	   32.00	   31.04	 -291.79	   22.06
     46.3401	   41.00	   31.10	 -282.85	   22.03
     46.3735	   30.00	   31.15	 -293.90	   22.00
     46.4070	   33.00	   31.21	 -290.96	   21.97
     46.4404	   38.00	   31.28	 -286.03	   21.94
     46.4738	   28.00	   31.35	 -296.10	   21.91
     46.5072	   35.00	   31.43	 -289.18	   21.88
     46.5406	   31.00	   31.51	 -293.26	   21.85
     46.5741	   33.00	   31.60	 -291.35	   21.82
     46.6075	   32.00	   31.69	 -292.44	   21.79
     46.6409	   41.00	   31.79	 -283.54	   21.76
     46.6743	   37.00	   31.90	 -287.65	   21.73
     46.7078	   35.00	   32.07	 -289.82	   21.70
     46.7412	   39.00	   32.19	 -285.94	   21.67
     46.7746	   45.00	   32.32	 -280.07	   21.64
     46.8080	   44.00	   32.45	 -281.20	   21.61
     46.8414	   43.00	   32.62	 -282.37	   21.58
     46.8749	   43.00	   32.78	 -282.53	   21.55
     46.9083	   36.00	   32.94	 -289.69	   21.52
     46.9417	   20.00	   33.11	 -305.86	   21.49
     46.9751	   44.00	   33.30	 -282.05	   21.46
     47.0086	   32.00	   33.49	 -294.24	   21.43
     47.0420	   33.00	   33.70	 -293.45	   21.40
     47.0754	   30.00	   33.95	 -296.70	   21.38
     47.1088	   34.00	   34.18	 -292.93	   21.35
     47.1423	   37.00	   34.43	 -290.18	   21.32
     47.1757	   36.00	   34.69	 -291.44	   21.29
     47.2091	   48.00	   34.98	 -279.73	   21.26
     47.2425	   47.00	   35.28	 -281.03	   21.23
     47.2759	   41.00	   35.59	 -287.34	   21.20
     47.3094	   51.00	   35.93	 -277.68	   21.17
     47.3428	   47.00	   36.29	 -282.04	   21.15
     47.3762	   59.00	   36.67	 -270.42	   21.12
     47.4096	   43.00	   37.08	 -286.83	   21.09
     47.4431	   42.00	   37.52	 -288.27	   21.06
     47.4765	   45.00	   37.98	 -285.73	   21.03
     47.5099	   57.00	   38.49	 -274.24	   21.00
     47.5433	   54.00	   39.03	 -277.78	   20.98
     47.5767	   43.00	   39.60	 -289.35	   20.95
     47.6102	   47.00	   40.23	 -285.98	   20.92
     47.6436	   49.00	   40.90	 -284.65	   20.89
     47.6770	   41.00	   41.63	 -293.38	   20.87
     47.7104	   63.00	   42.42	 -272.17	   20.84
     47.7439	   63.00	   43.27	 -273.02	   20.81
     47.7773	   58.00	   44.20	 -278.95	   20.78
     47.8107	   63.00	   45.21	 -274.96	   20.75
     47.8441	   49.00	   46.32	 -290.07	   20.73
     47.8775	   83.00	   47.54	 -257.29	   20.70
     47.9110	   63.00	   48.88	 -278.63	   20.67
     47.9444	   78.00	   50.36	 -265.11	   20.65
     47.9778	   60.00	   52.00	 -284.75	   20.62
     48.0112	   85.00	   53.83	 -261.58	   20.59
     48.0447	   71.00	   55.88	 -277.63	   20.56
     48.0781	   81.00	   58.18	 -269.93	   20.54
     48.1115	   76.00	   60.79	 -277.54	   20.51
     48.1449	   84.00	   63.75	 -272.50	   20.48
     48.1783	   84.00	   67.13	 -275.88	   20.46
     48.2118	   92.00	   71.02	 -271.77	   20.43
     48.2452	   99.00	   75.52	 -269.27	   20.40
     48.2786	  103.00	   80.73	 -270.48	   20.38
     48.3120	  109.00	   86.81	 -270.56	   20.35
     48.3455	  110.00	   93.88	 -276.63	   20.32
     48.3789	  122.00	  102.10	 -272.85	   20.30
     48.4123	  151.00	  111.58	 -253.33	   20.27
     48.4457	  155.00	  122.37	 -260.12	   20.24
     48.4792	  188.00	  134.34	 -239.09	   20.22
     48.5126	  156.00	  147.09	 -283.84	   20.19
     48.5460	  199.00	  159.93	 -253.68	   20.17
     48.5794	  234.00	  171.94	 -230.69	   20.14
     48.6128	  232.00	  182.27	 -243.02	   20.11
     48.6463	  225.00	  190.52	 -258.27	   20.09
     48.6797	  248.00	  196.89	 -241.64	   20.06
     48.7131	  258.00	  202.05	 -236.80	   20.04
     48.7465	  258.00	  206.85	 -241.60	   20.01
     48.7800	  289.00	  212.24	 -215.99	   19.98
     48.8134	  294.00	  219.22	 -217.97	   19.96
     48.8468	  292.00	  228.64	 -229.39	   19.93
     48.8802	  276.00	  241.03	 -257.78	   19.91
     48.9136	  318.00	  256.29	 -231.04	   19.88
     48.9471	  312.00	  273.55	 -254.30	   19.86
     48.9805	  317.00	  291.07	 -266.82	   19.83
     49.0139	  353.00	  306.50	 -246.25	   19.81
     49.0473	  374.00	  317.57	 -236.32	   19.78
     49.0808	  361.00	  322.98	 -254.73	   19.76
     49.1142	  371.00	  322.74	 -244.49	   19.73
     49.1476	  373.00	  317.84	 -237.59	   19.71
     49.1810	  351.00	  309.76	 -251.51	   19.68
     49.2144	  331.00	  300.14	 -261.89	   19.66
     49.2479	  359.00	  290.80	 -224.55	   19.63
     49.2813	  336.00	  283.58	 -240.33	   19.61
     49.3147	  345.00	  280.03	 -227.78	   19.58
     49.3481	  350.00	  281.30	 -224.05	   19.56
     49.3816	  329.00	  288.18	 -251.93	   19.53
     49.4150	  339.00	  301.18	 -254.93	   19.51
     49.4484	  410.00	  320.57	 -203.32	   19.49
     49.4818	  428.00	  346.27	 -211.02	   19.46
     49.5153	  446.00	  377.54	 -224.29	   19.44
     49.5487	  508.00	  412.59	 -197.34	   19.41
     49.5821	  560.00	  448.17	 -180.92	   19.39
     49.6155	  581.00	  479.69	 -191.44	   19.36
     49.6489	  547.00	  502.13	 -247.88	   19.34
     49.6824	  659.00	  511.77	 -145.52	   19.32
     49.7158	  618.00	  507.46	 -182.21	   19.29
     49.7492	  598.00	  490.36	 -185.11	   19.27
     49.7826	  557.00	  462.90	 -198.65	   19.24
     49.8161	  552.00	  427.89	 -168.64	   19.22
     49.8495	  471.00	  388.41	 -210.16	   19.20
     49.8829	  457.00	  347.61	 -183.36	   19.17
     49.9163	  385.00	  307.95	 -215.70	   19.15
     49.9497	  365.00	  271.75	 -199.50	   19.13
     49.9832	  314.00	  239.68	 -218.43	   19.10
     50.0166	  265.00	  211.82	 -239.57	   19.08
     50.0500	  221.00	  188.14	 -259.89	   19.06
     50.0834	  211.00	  168.08	 -249.83	   19.03
     50.1169	  184.00	  151.14	 -259.89	   19.01
     50.1503	  162.00	  136.82	 -267.57	   18.99
     50.1837	  159.00	  124.70	 -258.45	   18.96
     50.2171	  164.00	  114.39	 -243.14	   18.94
     50.2505	  156.00	  105.58	 -242.33	   18.92
     50.2840	  146.00	   98.02	 -244.77	   18.90
     50.3174	  128.00	   91.50	 -256.25	   18.87
     50.3508	  119.00	   85.84	 -259.59	   18.85
     50.3842	  100.00	   80.92	 -273.67	   18.83
     50.4177	   88.00	   76.61	 -281.36	   18.81
     50.4511	   81.00	   72.82	 -284.57	   18.78
     50.4845	   77.00	   69.49	 -285.24	   18.76
     50.5179	   96.00	   66.54	 -263.29	   18.74
     50.5513	   71.00	   63.94	 -285.69	   18.72
     50.5848	   89.00	   61.64	 -265.39	   18.69
     50.6182	   75.00	   59.61	 -277.36	   18.67
     50.6516	   86.00	   57.82	 -264.57	   18.65
     50.6850	   63.00	   56.25	 -286.00	   18.63
     50.7185	   68.00	   54.89	 -279.64	   18.60
     50.7519	   84.00	   53.71	 -262.46	   18.58
     50.7853	   60.00	   52.72	 -285.47	   18.56
     50.8187	   65.00	   51.90	 -279.65	   18.54
     50.8521	   65.00	   51.26	 -279.01	   18.52
     50.8856	   70.00	   50.80	 -273.55	   18.49
     50.9190	   70.00	   50.52	 -273.27	   18.47
     50.9524	   64.00	   50.44	 -279.19	   18.45
     50.9858	   59.00	   50.58	 -284.33	   18.43
     51.0193	   58.00	   50.96	 -285.71	   18.41
     51.0527	   51.00	   51.61	 -293.36	   18.39
     51.0861	   61.00	   52.58	 -284.33	   18.37
     51.1195	   55.00	   53.91	 -291.66	   18.34
     51.1530	   61.00	   55.66	 -287.41	   18.32
     51.1864	   76.00	   57.91	 -274.66	   18.30
     51.2198	   62.00	   60.71	 -291.46	   18.28
     51.2532	   59.00	   64.15	 -297.90	   18.26
     51.2866	   84.00	   68.23	 -276.98	   18.24
     51.3201	   96.00	   72.93	 -269.68	   18.22
     51.3535	  110.00	   78.06	 -260.81	   18.20
     51.3869	   94.00	   83.27	 -282.02	   18.18
     51.4203	  118.00	   87.99	 -262.74	   18.15
     51.4538	  123.00	   91.57	 -261.32	   18.13
     51.4872	  138.00	   93.47	 -248.22	   18.11
     51.5206	  131.00	   93.48	 -255.23	   18.09
     51.5540	  129.00	   91.69	 -255.44	   18.07
     51.5874	  125.00	   88.42	 -256.17	   18.05
     51.6209	   99.00	   84.00	 -277.75	   18.03
     51.6543	  102.00	   78.83	 -269.58	   18.01
     51.6877	   94.00	   73.30	 -272.05	   17.99
     51.7211	   81.00	   67.81	 -279.56	   17.97
     51.7546	   69.00	   62.65	 -286.40	   17.95
     51.7880	   79.00	   57.99	 -271.74	   17.93
     51.8214	   89.00	   53.90	 -257.65	   17.91
     51.8548	   72.00	   50.37	 -271.12	   17.89
     51.8883	   70.00	   47.35	 -270.10	   17.87
     51.9217	   52.00	   44.77	 -285.52	   17.85
     51.9551	   47.00	   42.57	 -288.32	   17.83
     51.9885	   48.00	   40.69	 -285.44	   17.81
     52.0219	   51.00	   39.08	 -280.83	   17.79
     52.0554	   50.00	   37.69	 -280.44	   17.77
     52.0888	   41.00	   36.48	 -288.23	   17.75
     52.1222	   33.00	   35.42	 -295.17	   17.73
     52.1556	   44.00	   34.49	 -283.24	   17.71
     52.1891	   27.00	   33.66	 -299.41	   17.69
     52.2225	   41.00	   32.93	 -284.68	   17.67
     52.2559	   46.00	   32.27	 -279.02	   17.65
     52.2893	   33.00	   31.68	 -291.43	   17.63
     52.3227	   33.00	   31.14	 -290.89	   17.61
     52.3562	   43.00	   30.65	 -280.40	   17.59
     52.3896	   43.00	   30.21	 -279.96	   17.58
     52.4230	   35.00	   29.80	 -287.55	   17.56
     52.4564	   37.00	   29.43	 -285.18	   17.54
     52.4899	   33.00	   29.08	 -288.83	   17.52
     52.5233	   31.00	   28.76	 -290.51	   17.50
     52.5567	   38.00	   28.46	 -283.21	   17.48
     52.5901	   37.00	   28.14	 -283.89	   17.46
     52.6235	   23.00	   27.88	 -297.63	   17.44
     52.6570	   29.00	   27.64	 -291.39	   17.42
     52.6904	   22.00	   27.41	 -298.16	   17.40
     52.7238	   28.00	   27.17	 -291.92	   17.39
     52.7572	   21.00	   26.97	 -298.72	   17.37
     52.7907	   22.00	   26.78	 -297.53	   17.35
     52.8241	   29.00	   26.60	 -290.35	   17.33
     52.8575	   24.00	   26.44	 -295.19	   17.31
     52.8909	   33.00	   26.27	 -286.02	   17.29
     52.9244	   24.00	   26.12	 -294.87	   17.28
     52.9578	   31.00	   25.98	 -287.73	   17.26
     52.9912	   27.00	   25.84	 -291.59	   17.24
     53.0246	   34.00	   25.71	 -284.46	   17.22
     53.0580	   23.00	   25.59	 -295.34	   17.20
     53.0915	   25.00	   25.47	 -293.22	   17.18
     53.1249	   24.00	   25.35	 -294.10	   17.17
     53.1583	   29.00	   25.25	 -289.00	   17.15
     53.1917	   17.00	   25.14	 -300.89	   17.13
     53.2252	   31.00	   25.05	 -286.80	   17.11
     53.2586	   19.00	   24.95	 -298.70	   17.10
     53.2920	   30.00	   24.86	 -287.61	   17.08
     53.3254	   29.00	   24.78	 -288.53	   17.06
     53.3588	   28.00	   24.69	 -289.44	   17.04
     53.3923	   27.00	   24.62	 -290.37	   17.02
     53.4257	   22.00	   24.54	 -295.29	   17.01
     53.4591	   24.00	   24.47	 -293.22	   16.99
     53.4925	   24.00	   24.40	 -293.15	   16.97
     53.5260	   24.00	   24.34	 -293.09	   16.95
     53.5594	   20.00	   24.27	 -297.02	   16.94
     53.5928	   21.00	   24.21	 -295.96	   16.92
     53.6262	   32.00	   24.16	 -284.91	   16.90
     53.6596	   37.00	   24.10	 -279.85	   16.89
     53.6931	   29.00	   24.05	 -287.80	   16.87
     53.7265	   20.00	   24.00	 -296.75	   16.85
     53.7599	   28.00	   23.96	 -288.71	   16.83
     53.7933	   17.00	   23.91	 -299.66	   16.82
     53.8268	   23.00	   23.87	 -293.62	   16.80
     53.8602	   22.00	   23.83	 -294.58	   16.78
     53.8936	   29.00	   23.80	 -287.55	   16.77
     53.9270	   30.00	   23.76	 -286.51	   16.75
     53.9604	   23.00	   23.73	 -293.48	   16.73
     53.9939	   28.00	   23.70	 -288.45	   16.72
     54.0273	   35.00	   23.67	 -281.42	   16.70
     54.0607	   20.00	   23.65	 -296.40	   16.68
     54.0941	   18.00	   23.63	 -298.38	   16.67
     54.1276	   29.00	   23.61	 -287.36	   16.65
     54.1610	   24.00	   23.59	 -292.34	   16.64
     54.1944	   23.00	   23.57	 -293.32	   16.62
     54.2278	   15.00	   23.56	 -301.31	   16.60
     54.2612	   22.00	   23.55	 -294.30	   16.59
     54.2947	   25.00	   23.54	 -291.29	   16.57
     54.3281	   24.00	   23.53	 -292.28	   16.55
     54.3615	   27.00	   23.53	 -289.28	   16.54
     54.3949	   30.00	   23.53	 -286.28	   16.52
     54.4284	   18.00	   23.53	 -298.28	   16.51
     54.4618	   23.00	   23.53	 -293.28	   16.49
     54.4952	   25.00	   23.54	 -291.29	   16.47
     54.5286	   24.00	   23.55	 -292.30	   16.46
     54.5621	   24.00	   23.56	 -292.31	   16.44
     54.5955	   23.00	   23.58	 -293.33	   16.43
     54.6289	   27.00	   23.60	 -289.35	   16.41
     54.6623	   23.00	   23.62	 -293.37	   16.40
     54.6957	   23.00	   23.69	 -293.44	   16.38
     54.7292	   27.00	   23.72	 -289.47	   16.36
     54.7626	   24.00	   23.76	 -292.51	   16.35
     54.7960	   24.00	   23.80	 -292.55	   16.33
     54.8294	   19.00	   23.84	 -297.59	   16.32
     54.8629	   20.00	   23.91	 -296.66	   16.30
     54.8963	   28.00	   23.96	 -288.71	   16.29
     54.9297	   22.00	   24.01	 -294.76	   16.27
     54.9631	   20.00	   24.08	 -296.83	   16.26
     54.9965	   23.00	   24.14	 -293.89	   16.24
     55.0300	   31.00	   24.22	 -285.97	   16.23
     55.0634	   29.00	   24.29	 -288.04	   16.21
     55.0968	   30.00	   24.38	 -287.13	   16.20
     55.1302	   28.00	   24.47	 -289.22	   16.18
     55.1637	   20.00	   24.57	 -297.32	   16.17
     55.1971	   33.00	   24.67	 -284.42	   16.15
     55.2305	   32.00	   24.78	 -285.53	   16.14
     55.2639	   25.00	   24.90	 -292.65	   16.12
     55.2973	   36.00	   25.02	 -281.77	   16.11
     55.3308	   34.00	   25.15	 -283.90	   16.09
     55.3642	   31.00	   25.29	 -287.04	   16.08
     55.3976	   28.00	   25.44	 -290.19	   16.06
     55.4310	   34.00	   25.60	 -284.35	   16.05
     55.4645	   24.00	   25.78	 -294.53	   16.04
     55.4979	   34.00	   25.96	 -284.71	   16.02
     55.5313	   19.00	   26.17	 -299.92	   16.01
     55.5647	   29.00	   26.39	 -290.14	   15.99
     55.5982	   39.00	   26.63	 -280.38	   15.98
     55.6316	   34.00	   26.89	 -285.64	   15.96
     55.6650	   36.00	   27.17	 -283.92	   15.95
     55.6984	   37.00	   27.47	 -283.22	   15.94
     55.7318	   34.00	   27.80	 -286.55	   15.92
     55.7653	   21.00	   28.16	 -299.91	   15.91
     55.7987	   42.00	   28.55	 -279.30	   15.89
     55.8321	   25.00	   28.98	 -296.73	   15.88
     55.8655	   29.00	   29.44	 -293.19	   15.87
     55.8990	   43.00	   29.95	 -279.70	   15.85
     55.9324	   35.00	   30.51	 -288.26	   15.84
     55.9658	   33.00	   31.12	 -290.87	   15.83
     55.9992	   34.00	   31.79	 -290.54	   15.81
     56.0326	   46.00	   32.53	 -279.28	   15.80
     56.0661	   38.00	   33.36	 -288.11	   15.78
     56.0995	   36.00	   34.27	 -291.02	   15.77
     56.1329	   42.00	   35.30	 -286.05	   15.76
     56.1663	   38.00	   36.43	 -291.18	   15.74
     56.1998	   46.00	   37.70	 -284.45	   15.73
     56.2332	   37.00	   39.13	 -294.88	   15.72
     56.2666	   37.00	   40.75	 -296.50	   15.70
     56.3000	   55.00	   42.59	 -280.34	   15.69
     56.3334	   48.00	   44.69	 -289.44	   15.68
     56.3669	   62.00	   47.10	 -277.85	   15.66
     56.4003	   50.00	   49.88	 -292.63	   15.65
     56.4337	   59.00	   53.11	 -286.86	   15.64
     56.4671	   64.00	   56.88	 -285.63	   15.63
     56.5006	   61.00	   61.28	 -293.03	   15.61
     56.5340	   76.00	   66.46	 -283.21	   15.60
     56.5674	   91.00	   72.55	 -274.30	   15.59
     56.6008	   98.00	   79.72	 -274.47	   15.57
     56.6343	  102.00	   88.14	 -278.89	   15.56
     56.6677	  121.00	   97.96	 -269.71	   15.55
     56.7011	  121.00	  109.24	 -280.99	   15.54
     56.7345	  128.00	  121.91	 -286.66	   15.52
     56.7679	  152.00	  135.61	 -276.36	   15.51
     56.8014	  162.00	  149.59	 -280.34	   15.50
     56.8348	  193.00	  162.73	 -262.48	   15.48
     56.8682	  190.00	  173.73	 -276.48	   15.47
     56.9016	  199.00	  181.55	 -275.30	   15.46
     56.9351	  221.00	  185.82	 -257.57	   15.45
     56.9685	  211.00	  186.89	 -268.64	   15.44
     57.0019	  230.00	  185.48	 -248.23	   15.42
     57.0353	  217.00	  182.36	 -258.11	   15.41
     57.0687	  224.00	  178.21	 -246.96	   15.40
     57.1022	  191.00	  173.73	 -275.48	   15.39
     57.1356	  167.00	  169.55	 -295.30	   15.37
     57.1690	  197.00	  166.08	 -261.83	   15.36
     57.2024	  177.00	  163.26	 -279.01	   15.35
     57.2359	  170.00	  160.61	 -283.36	   15.34
     57.2693	  157.00	  157.40	 -293.15	   15.33
     57.3027	  159.00	  153.00	 -286.75	   15.31
     57.3361	  175.00	  147.20	 -264.95	   15.30
     57.3695	  119.00	  140.12	 -313.87	   15.29
     57.4030	  159.00	  132.03	 -265.78	   15.28
     57.4364	  116.00	  123.21	 -299.96	   15.27
     57.4698	   97.00	  113.91	 -309.66	   15.26
     57.5032	  114.00	  104.50	 -283.25	   15.24
     57.5367	  105.00	   95.33	 -283.08	   15.23
     57.5701	   96.00	   86.75	 -283.50	   15.22
     57.6035	   83.00	   79.00	 -288.75	   15.21
     57.6369	   66.00	   72.14	 -298.89	   15.20
     57.6703	   78.00	   66.19	 -280.94	   15.19
     57.7038	   78.00	   61.06	 -275.81	   15.18
     57.7372	   60.00	   56.67	 -289.42	   15.16
     57.7706	   54.00	   52.91	 -291.66	   15.15
     57.8040	   63.00	   49.68	 -279.43	   15.14
     57.8375	   61.00	   46.91	 -278.66	   15.13
     57.8709	   58.00	   44.53	 -279.28	   15.12
     57.9043	   52.00	   42.46	 -283.21	   15.11
     57.9377	   39.00	   40.67	 -294.42	   15.10
     57.9712	   54.00	   39.10	 -277.85	   15.09
     58.0046	   59.00	   37.74	 -271.49	   15.07
     58.0380	   37.00	   36.53	 -292.28	   15.06
     58.0714	   34.00	   35.47	 -294.22	   15.05
     58.1048	   32.00	   34.54	 -295.29	   15.04
     58.1383	   33.00	   33.71	 -293.46	   15.03
     58.1717	   45.00	   32.98	 -280.73	   15.02
     58.2051	   34.00	   32.34	 -291.09	   15.01
     58.2385	   33.00	   31.77	 -291.52	   15.00
     58.2720	   33.00	   31.27	 -291.02	   14.99
     58.3054	   28.00	   30.83	 -295.58	   14.98
     58.3388	   32.00	   30.45	 -291.20	   14.97
     58.3722	   31.00	   30.12	 -291.87	   14.96
     58.4056	   37.00	   29.84	 -285.59	   14.95
     58.4391	   32.00	   29.61	 -290.36	   14.94
     58.4725	   22.00	   29.43	 -300.18	   14.93
     58.5059	   32.00	   29.25	 -290.00	   14.92
     58.5393	   38.00	   29.16	 -283.91	   14.90
     58.5728	   30.00	   29.11	 -291.86	   14.89
     58.6062	   41.00	   29.09	 -280.84	   14.88
     58.6396	   25.00	   29.13	 -296.88	   14.87
     58.6730	   27.00	   29.23	 -294.98	   14.86
     58.7064	   27.00	   29.37	 -295.12	   14.85
     58.7399	   34.00	   29.58	 -288.33	   14.84
     58.7733	   33.00	   29.84	 -289.59	   14.83
     58.8067	   31.00	   30.18	 -291.93	   14.82
     58.8401	   41.00	   30.59	 -282.34	   14.81
     58.8736	   30.00	   31.09	 -293.84	   14.80
     58.9070	   35.00	   31.70	 -289.45	   14.79
     58.9404	   37.00	   32.34	 -288.09	   14.78
     58.9738	   33.00	   33.21	 -292.96	   14.77
     59.0073	   32.00	   34.24	 -294.99	   14.76
     59.0407	   27.00	   35.46	 -301.21	   14.75
     59.0741	   34.00	   36.88	 -295.63	   14.75
     59.1075	   28.00	   38.61	 -303.36	   14.74
     59.1409	   57.00	   40.67	 -276.42	   14.73
     59.1744	   39.00	   43.11	 -296.86	   14.72
     59.2078	   37.00	   45.99	 -301.74	   14.71
     59.2412	   41.00	   49.37	 -301.12	   14.70
     59.2746	   54.00	   53.28	 -292.03	   14.69
     59.3081	   57.00	   57.72	 -293.47	   14.68
     59.3415	   63.00	   62.58	 -292.33	   14.67
     59.3749	   65.00	   67.64	 -295.39	   14.66
     59.4083	   77.00	   72.56	 -288.31	   14.65
     59.4417	   74.00	   76.88	 -295.63	   14.64
     59.4752	   78.00	   80.21	 -294.96	   14.63
     59.5086	   77.00	   82.36	 -298.11	   14.62
     59.5420	   83.00	   83.40	 -293.15	   14.61
     59.5754	   75.00	   83.41	 -301.16	   14.60
     59.6089	   88.00	   82.99	 -287.74	   14.60
     59.6423	   97.00	   82.20	 -277.95	   14.59
     59.6757	   90.00	   81.25	 -284.00	   14.58
     59.7091	   75.00	   80.22	 -297.97	   14.57
     59.7425	   77.00	   79.39	 -295.14	   14.56
     59.7760	   83.00	   78.68	 -288.43	   14.55
     59.8094	   76.00	   77.88	 -294.63	   14.54
     59.8428	   90.00	   76.75	 -279.50	   14.53
     59.8762	   84.00	   75.06	 -283.81	   14.52
     59.9097	   86.00	   72.74	 -279.49	   14.52
     59.9431	   63.00	   69.88	 -299.63	   14.51
     59.9765	   59.00	   66.60	 -300.35	   14.50
     60.0099	   60.00	   63.01	 -295.76	   14.49
     60.0434	   55.00	   59.19	 -296.94	   14.48
     60.0768	   55.00	   55.29	 -293.04	   14.47
     60.1102	   54.00	   51.43	 -290.18	   14.46
     60.1436	   58.00	   47.78	 -282.53	   14.46
     60.1770	   46.00	   44.44	 -291.19	   14.45
     60.2105	   61.00	   41.45	 -273.20	   14.44
     60.2439	   42.00	   38.84	 -289.59	   14.43
     60.2773	   41.00	   36.57	 -288.32	   14.42
     60.3107	   31.00	   34.62	 -296.37	   14.41
     60.3442	   28.00	   32.95	 -297.70	   14.41
     60.3776	   33.00	   31.50	 -291.25	   14.40
     60.4110	   28.00	   30.26	 -295.01	   14.39
     60.4444	   31.00	   29.18	 -290.93	   14.38
     60.4778	   38.00	   28.24	 -282.99	   14.37
     60.5113	   27.00	   27.45	 -293.20	   14.37
     60.5447	   33.00	   26.73	 -286.48	   14.36
     60.5781	   23.00	   26.09	 -295.84	   14.35
     60.6115	   22.00	   25.53	 -296.28	   14.34
     60.6450	   18.00	   25.02	 -299.77	   14.33
     60.6784	   33.00	   24.57	 -284.32	   14.33
     60.7118	   20.00	   24.18	 -296.93	   14.32
     60.7452	   25.00	   23.81	 -291.56	   14.31
     60.7786	   21.00	   23.48	 -295.23	   14.30
     60.8121	   20.00	   23.18	 -295.93	   14.30
     60.8455	   19.00	   22.90	 -296.65	   14.29
     60.8789	   20.00	   22.65	 -295.40	   14.28
     60.9123	   22.00	   22.41	 -293.16	   14.27
     60.9458	   27.00	   22.20	 -287.95	   14.26
     60.9792	   22.00	   22.00	 -292.75	   14.26
     61.0126	   21.00	   21.82	 -293.57	   14.25
     61.0460	   27.00	   21.65	 -287.40	   14.24
     61.0794	   20.00	   21.49	 -294.24	   14.23
     61.1129	   21.00	   21.35	 -293.10	   14.23
     61.1463	   21.00	   21.21	 -292.96	   14.22
     61.1797	   20.00	   21.09	 -293.84	   14.21
     61.2131	   17.00	   20.97	 -296.72	   14.21
     61.2466	   19.00	   20.86	 -294.61	   14.20
     61.2800	   29.00	   20.77	 -284.52	   14.19
     61.3134	   18.00	   20.68	 -295.43	   14.18
     61.3468	   21.00	   20.59	 -292.34	   14.18
     61.3803	   20.00	   20.51	 -293.26	   14.17
     61.4137	   28.00	   20.43	 -285.18	   14.16
     61.4471	   27.00	   20.35	 -286.10	   14.16
     61.4805	   15.00	   20.27	 -298.02	   14.15
     61.5139	   17.00	   20.21	 -295.96	   14.14
     61.5474	   18.00	   20.14	 -294.89	   14.13
     61.5808	   19.00	   20.09	 -293.84	   14.13
     61.6142	   21.00	   20.02	 -291.77	   14.12
     61.6476	   27.00	   19.98	 -285.73	   14.11
     61.6811	   29.00	   19.93	 -283.68	   14.11
     61.7145	   16.00	   19.89	 -296.64	   14.10
     61.7479	    7.00	   19.85	 -305.60	   14.09
     61.7813	   25.00	   19.81	 -287.56	   14.09
     61.8147	   23.00	   19.78	 -289.53	   14.08
     61.8482	   18.00	   19.75	 -294.50	   14.07
     61.8816	   25.00	   19.72	 -287.47	   14.07
     61.9150	   19.00	   19.69	 -293.44	   14.06
     61.9484	   16.00	   19.67	 -296.42	   14.05
     61.9819	   22.00	   19.65	 -290.40	   14.05
     62.0153	   11.00	   19.63	 -301.38	   14.04
     62.0487	   16.00	   19.62	 -296.37	   14.03
     62.0821	   16.00	   19.61	 -296.36	   14.03
     62.1155	   15.00	   19.60	 -297.35	   14.02
     62.1490	   16.00	   19.60	 -296.35	   14.02
     62.1824	   21.00	   19.60	 -291.35	   14.01
     62.2158	   21.00	   19.60	 -291.35	   14.00
     62.2492	   21.00	   19.61	 -291.36	   14.00
     62.2827	    8.00	   19.62	 -304.37	   13.99
     62.3161	   15.00	   19.64	 -297.39	   13.98
     62.3495	   16.00	   19.66	 -296.41	   13.98
     62.3829	   24.00	   19.69	 -288.44	   13.97
     62.4164	   17.00	   19.72	 -295.47	   13.97
     62.4498	   14.00	   19.77	 -298.52	   13.96
     62.4832	   14.00	   19.82	 -298.57	   13.95
     62.5166	   19.00	   19.89	 -293.64	   13.95
     62.5500	   16.00	   19.97	 -296.72	   13.94
     62.5835	   22.00	   20.07	 -290.82	   13.94
     62.6169	   22.00	   20.18	 -290.93	   13.93
     62.6503	   16.00	   20.31	 -297.06	   13.92
     62.6837	   15.00	   20.47	 -298.22	   13.92
     62.7172	   24.00	   20.64	 -289.39	   13.91
     62.7506	   20.00	   20.83	 -293.58	   13.91
     62.7840	   29.00	   21.03	 -284.78	   13.90
     62.8174	   15.00	   21.22	 -298.97	   13.90
     62.8508	   22.00	   21.38	 -292.13	   13.89
     62.8843	   20.00	   21.50	 -294.25	   13.88
     62.9177	   16.00	   21.56	 -298.31	   13.88
     62.9511	   17.00	   21.58	 -297.33	   13.87
     62.9845	   22.00	   21.55	 -292.30	   13.87
     63.0180	   20.00	   21.48	 -294.23	   13.86
     63.0514	   19.00	   21.39	 -295.14	   13.86
     63.0848	   21.00	   21.28	 -293.03	   13.85
     63.1182	   23.00	   21.15	 -290.90	   13.85
     63.1516	   16.00	   21.03	 -297.78	   13.84
     63.1851	    9.00	   20.90	 -304.65	   13.83
     63.2185	   20.00	   20.79	 -293.54	   13.83
     63.2519	   19.00	   20.70	 -294.45	   13.82
     63.2853	   12.00	   20.62	 -301.37	   13.82
     63.3188	   21.00	   20.57	 -292.32	   13.81
     63.3522	   22.00	   20.53	 -291.28	   13.81
     63.3856	   20.00	   20.51	 -293.26	   13.80
     63.4190	   22.00	   20.51	 -291.26	   13.80
     63.4524	   25.00	   20.52	 -288.27	   13.79
     63.4859	   24.00	   20.54	 -289.29	   13.79
     63.5193	   23.00	   20.57	 -290.32	   13.78
     63.5527	   23.00	   20.61	 -290.36	   13.78
     63.5861	   15.00	   20.66	 -298.41	   13.77
     63.6196	   25.00	   20.73	 -288.48	   13.77
     63.6530	   27.00	   20.80	 -286.55	   13.76
     63.6864	   22.00	   20.88	 -291.63	   13.76
     63.7198	   21.00	   20.96	 -292.71	   13.75
     63.7533	   21.00	   21.06	 -292.81	   13.75
     63.7867	   30.00	   21.17	 -283.92	   13.74
     63.8201	   16.00	   21.29	 -298.04	   13.74
     63.8535	   18.00	   21.41	 -296.16	   13.73
     63.8869	   22.00	   21.55	 -292.30	   13.73
     63.9204	   23.00	   21.70	 -291.45	   13.72
     63.9538	   15.00	   21.86	 -299.61	   13.72
     63.9872	   31.00	   22.04	 -283.79	   13.71
     64.0206	   21.00	   22.23	 -293.98	   13.71
     64.0541	   29.00	   22.44	 -286.19	   13.71
     64.0875	   25.00	   22.66	 -290.41	   13.70
     64.1209	   19.00	   22.90	 -296.65	   13.70
     64.1543	   29.00	   23.16	 -286.91	   13.69
     64.1877	   14.00	   23.45	 -302.20	   13.69
     64.2212	   29.00	   23.76	 -287.51	   13.68
     64.2546	   16.00	   24.09	 -300.84	   13.68
     64.2880	   31.00	   24.46	 -286.21	   13.67
     64.3214	   24.00	   24.86	 -293.61	   13.67
     64.3549	   29.00	   25.31	 -289.06	   13.67
     64.3883	   23.00	   25.79	 -295.54	   13.66
     64.4217	   28.00	   26.32	 -291.07	   13.66
     64.4551	   17.00	   26.91	 -302.66	   13.65
     64.4885	   27.00	   27.56	 -293.31	   13.65
     64.5220	   27.00	   28.28	 -294.03	   13.64
     64.5554	   27.00	   29.08	 -294.83	   13.64
     64.5888	   27.00	   29.98	 -295.73	   13.64
     64.6222	   35.00	   30.99	 -288.74	   13.63
     64.6557	   36.00	   32.12	 -288.87	   13.63
     64.6891	   34.00	   33.40	 -292.15	   13.62
     64.7225	   39.00	   34.86	 -288.61	   13.62
     64.7559	   35.00	   36.53	 -294.28	   13.62
     64.7894	   49.00	   38.44	 -282.19	   13.61
     64.8228	   37.00	   40.65	 -296.40	   13.61
     64.8562	   45.00	   43.21	 -290.96	   13.60
     64.8896	   50.00	   46.20	 -288.95	   13.60
     64.9230	   48.00	   49.68	 -294.43	   13.60
     64.9565	   69.00	   53.77	 -277.52	   13.59
     64.9899	   71.00	   58.56	 -280.31	   13.59
     65.0233	   62.00	   64.18	 -294.93	   13.58
     65.0567	   74.00	   70.76	 -289.51	   13.58
     65.0901	   83.00	   78.40	 -288.15	   13.58
     65.1236	   94.00	   87.15	 -285.90	   13.57
     65.1570	   90.00	   96.95	 -299.70	   13.57
     65.1904	  123.00	  107.56	 -277.31	   13.57
     65.2238	  105.00	  118.43	 -306.18	   13.56
     65.2573	  123.00	  128.72	 -298.47	   13.56
     65.2907	  143.00	  137.37	 -287.12	   13.55
     65.3241	  122.00	  143.39	 -314.14	   13.55
     65.3575	  130.00	  146.22	 -308.97	   13.55
     65.3910	  141.00	  145.92	 -297.67	   13.54
     65.4244	  152.00	  142.98	 -283.73	   13.54
     65.4578	  143.00	  137.97	 -287.72	   13.54
     65.4912	  117.00	  131.35	 -307.10	   13.53
     65.5246	  148.00	  123.40	 -268.15	   13.53
     65.5581	  109.00	  114.48	 -298.23	   13.53
     65.5915	  110.00	  105.07	 -287.82	   13.52
     65.6249	  109.00	   95.69	 -279.44	   13.52
     65.6583	  100.00	   86.79	 -279.54	   13.52
     65.6918	   92.00	   78.69	 -279.44	   13.51
     65.7252	   56.00	   71.51	 -308.26	   13.51
     65.7586	   70.00	   65.27	 -288.02	   13.51
     65.7920	   84.00	   59.93	 -268.68	   13.50
     65.8254	   64.00	   55.39	 -284.14	   13.50
     65.8589	   66.00	   51.54	 -278.29	   13.50
     65.8923	   56.00	   48.29	 -285.04	   13.49
     65.9257	   69.00	   45.56	 -269.31	   13.49
     65.9591	   51.00	   43.26	 -285.01	   13.49
     65.9926	   38.00	   41.33	 -296.08	   13.48
     66.0260	   56.00	   39.72	 -276.47	   13.48
     66.0594	   41.00	   38.38	 -290.13	   13.48
     66.0928	   51.00	   37.28	 -279.03	   13.47
     66.1263	   42.00	   36.40	 -287.15	   13.47
     66.1597	   48.00	   35.72	 -280.47	   13.47
     66.1931	   39.00	   35.21	 -288.96	   13.47
     66.2265	   37.00	   34.87	 -290.62	   13.46
     66.2599	   45.00	   34.70	 -282.45	   13.46
     66.2934	   34.00	   34.69	 -293.44	   13.46
     66.3268	   41.00	   34.86	 -286.61	   13.45
     66.3602	   52.00	   35.21	 -275.96	   13.45
     66.3936	   42.00	   35.77	 -286.52	   13.45
     66.4271	   42.00	   36.54	 -287.29	   13.45
     66.4605	   37.00	   37.56	 -293.31	   13.44
     66.4939	   49.00	   38.86	 -282.61	   13.44
     66.5273	   47.00	   40.49	 -286.24	   13.44
     66.5607	   50.00	   42.48	 -285.23	   13.43
     66.5942	   46.00	   44.88	 -291.63	   13.43
     66.6276	   45.00	   47.72	 -295.47	   13.43
     66.6610	   50.00	   51.03	 -293.78	   13.43
     66.6944	   51.00	   54.77	 -296.52	   13.42
     66.7279	   54.00	   58.83	 -297.58	   13.42
     66.7613	   62.00	   62.99	 -293.74	   13.42
     66.7947	   60.00	   66.92	 -299.67	   13.42
     66.8281	   54.00	   70.25	 -309.00	   13.41
     66.8615	   72.00	   72.61	 -293.36	   13.41
     66.8950	   78.00	   73.85	 -288.60	   13.41
     66.9284	   65.00	   74.04	 -301.79	   13.41
     66.9618	   66.00	   73.41	 -300.16	   13.40
     66.9952	   85.00	   72.18	 -279.93	   13.40
     67.0287	   79.00	   70.47	 -284.22	   13.40
     67.0621	   73.00	   68.40	 -288.15	   13.40
     67.0955	   74.00	   66.03	 -284.78	   13.39
     67.1289	   74.00	   63.42	 -282.17	   13.39
     67.1624	   77.00	   60.74	 -276.49	   13.39
     67.1958	   75.00	   58.02	 -275.77	   13.39
     67.2292	   78.00	   55.28	 -270.03	   13.38
     67.2626	   60.00	   52.55	 -285.30	   13.38
     67.2960	   58.00	   49.86	 -284.61	   13.38
     67.3295	   66.00	   47.31	 -274.06	   13.38
     67.3629	   59.00	   44.86	 -278.61	   13.38
     67.3963	   49.00	   42.53	 -286.28	   13.37
     67.4297	   56.00	   40.31	 -277.06	   13.37
     67.4632	   38.00	   38.19	 -292.94	   13.37
     67.4966	   36.00	   36.19	 -292.94	   13.37
     67.5300	   39.00	   34.32	 -288.07	   13.37
     67.5634	   44.00	   32.69	 -281.44	   13.36
     67.5968	   24.00	   31.20	 -299.95	   13.36
     67.6303	   36.00	   29.88	 -286.63	   13.36
     67.6637	   35.00	   28.73	 -286.48	   13.36
     67.6971	   18.00	   27.70	 -302.45	   13.35
     67.7305	   29.00	   26.82	 -290.57	   13.35
     67.7640	   28.00	   26.05	 -290.80	   13.35
     67.7974	   37.00	   25.40	 -281.15	   13.35
     67.8308	   24.00	   24.80	 -293.55	   13.35
     67.8642	   28.00	   24.28	 -289.03	   13.35
     67.8976	   28.00	   23.81	 -288.56	   13.34
     67.9311	   22.00	   23.40	 -294.15	   13.34
     67.9645	   31.00	   23.03	 -284.78	   13.34
     67.9979	   23.00	   22.69	 -292.44	   13.34
     68.0313	   21.00	   22.40	 -294.15	   13.34
     68.0648	   27.00	   22.13	 -287.88	   13.33
     68.0982	   19.00	   21.88	 -295.63	   13.33
     68.1316	   23.00	   21.66	 -291.41	   13.33
     68.1650	   30.00	   21.46	 -284.21	   13.33
     68.1984	   20.00	   21.27	 -294.02	   13.33
     68.2319	   21.00	   21.10	 -292.85	   13.33
     68.2653	   18.00	   20.95	 -295.70	   13.32
     68.2987	   19.00	   20.81	 -294.56	   13.32
     68.3321	   16.00	   20.68	 -297.43	   13.32
     68.3656	   24.00	   20.56	 -289.31	   13.32
     68.3990	   28.00	   20.45	 -285.20	   13.32
     68.4324	   23.00	   20.34	 -290.09	   13.32
     68.4658	   24.00	   20.25	 -289.00	   13.31
     68.4993	   19.00	   20.16	 -293.91	   13.31
     68.5327	   20.00	   20.09	 -292.84	   13.31
     68.5661	   15.00	   20.01	 -297.76	   13.31
     68.5995	   22.00	   19.95	 -290.70	   13.31
     68.6329	   32.00	   19.89	 -280.64	   13.31
     68.6664	   18.00	   19.83	 -294.58	   13.31
     68.6998	   22.00	   19.78	 -290.53	   13.30
     68.7332	   17.00	   19.73	 -295.48	   13.30
     68.7666	   18.00	   19.69	 -294.44	   13.30
     68.8000	   24.00	   19.65	 -288.40	   13.30
     68.8335	   15.00	   19.62	 -297.37	   13.30
     68.8669	   21.00	   19.59	 -291.34	   13.30
     68.9003	   15.00	   19.57	 -297.32	   13.30
     68.9337	   12.00	   19.55	 -300.30	   13.29
     68.9672	   22.00	   19.53	 -290.28	   13.29
     69.0006	   20.00	   19.52	 -292.27	   13.29
     69.0340	   24.00	   19.51	 -288.26	   13.29
     69.0674	   20.00	   19.50	 -292.25	   13.29
     69.1009	   19.00	   19.49	 -293.24	   13.29
     69.1343	   17.00	   19.49	 -295.24	   13.29
     69.1677	   14.00	   19.49	 -298.24	   13.29
     69.2011	   11.00	   19.50	 -301.25	   13.28
     69.2345	   11.00	   19.50	 -301.25	   13.28
     69.2680	   22.00	   19.51	 -290.26	   13.28
     69.3014	   15.00	   19.52	 -297.27	   13.28
     69.3348	   17.00	   19.54	 -295.29	   13.28
     69.3682	   18.00	   19.56	 -294.31	   13.28
     69.4017	   24.00	   19.58	 -288.33	   13.28
     69.4351	   10.00	   19.60	 -302.35	   13.28
     69.4685	   24.00	   19.63	 -288.38	   13.28
     69.5019	   18.00	   19.66	 -294.41	   13.27
     69.5354	   35.00	   19.70	 -277.45	   13.27
     69.5688	   21.00	   19.74	 -291.49	   13.27
     69.6022	   27.00	   19.78	 -285.53	   13.27
     69.6356	   19.00	   19.83	 -293.58	   13.27
     69.6690	   21.00	   19.88	 -291.63	   13.27
     69.7025	   24.00	   19.94	 -288.69	   13.27
     69.7359	   21.00	   20.00	 -291.75	   13.27
     69.7693	   20.00	   20.06	 -292.81	   13.27
     69.8027	   16.00	   20.13	 -296.88	   13.27
     69.8362	   17.00	   20.19	 -295.94	   13.26
     69.8696	   29.00	   20.27	 -284.02	   13.26
     69.9030	   18.00	   20.35	 -295.10	   13.26
     69.9364	   20.00	   20.44	 -293.19	   13.26
     69.9698	   22.00	   20.54	 -291.29	   13.26
     70.0033	   14.00	   20.64	 -299.39	   13.26
     70.0367	   16.00	   20.76	 -297.51	   13.26
     70.0701	   15.00	   20.88	 -298.63	   13.26
     70.1035	   16.00	   21.01	 -297.76	   13.26
     70.1370	   25.00	   21.15	 -288.90	   13.26
     70.1704	   23.00	   21.30	 -291.05	   13.26
     70.2038	   20.00	   21.47	 -294.22	   13.26
     70.2372	   24.00	   21.63	 -290.38	   13.25
     70.2706	   32.00	   21.82	 -282.57	   13.25
     70.3041	   17.00	   22.02	 -297.77	   13.25
     70.3375	   18.00	   22.24	 -296.99	   13.25
     70.3709	   23.00	   22.48	 -292.23	   13.25
     70.4043	   28.00	   22.73	 -287.48	   13.25
     70.4378	   16.00	   23.01	 -299.76	   13.25
     70.4712	   22.00	   23.31	 -294.06	   13.25
     70.5046	   36.00	   23.63	 -280.38	   13.25
     70.5380	   27.00	   23.99	 -289.74	   13.25
     70.5714	   31.00	   24.38	 -286.13	   13.25
     70.6049	   25.00	   24.81	 -292.56	   13.25
     70.6383	   29.00	   25.27	 -289.02	   13.25
     70.6717	   23.00	   25.78	 -295.53	   13.25
     70.7051	   28.00	   26.35	 -291.10	   13.25
     70.7386	   32.00	   26.97	 -287.72	   13.25
     70.7720	   27.00	   27.66	 -293.41	   13.24
     70.8054	   24.00	   28.43	 -297.18	   13.24
     70.8388	   33.00	   29.29	 -289.04	   13.24
     70.8723	   36.00	   30.26	 -287.01	   13.24
     70.9057	   28.00	   31.34	 -296.09	   13.24
     70.9391	   22.00	   32.57	 -303.32	   13.24
     70.9725	   23.00	   33.96	 -303.71	   13.24
     71.0059	   32.00	   35.55	 -296.30	   13.24
     71.0394	   47.00	   37.37	 -283.12	   13.24
     71.0728	   35.00	   39.47	 -297.22	   13.24
     71.1062	   47.00	   41.90	 -287.65	   13.24
     71.1396	   62.00	   44.71	 -275.46	   13.24
     71.1730	   48.00	   47.98	 -292.73	   13.24
     71.2065	   69.00	   51.79	 -275.54	   13.24
     71.2399	   45.00	   56.23	 -303.98	   13.24
     71.2733	   64.00	   61.39	 -290.14	   13.24
     71.3067	   77.00	   67.34	 -283.09	   13.24
     71.3402	   77.00	   74.13	 -289.88	   13.24
     71.3736	   86.00	   81.74	 -288.49	   13.24
     71.4070	   97.00	   90.03	 -285.78	   13.24
     71.4404	  101.00	   98.64	 -290.39	   13.24
     71.4739	  109.00	  107.03	 -290.78	   13.24
     71.5073	  101.00	  114.46	 -306.21	   13.24
     71.5407	  106.00	  120.16	 -306.91	   13.24
     71.5741	  115.00	  123.61	 -301.36	   13.24
     71.6075	  110.00	  124.68	 -307.43	   13.24
     71.6410	  108.00	  123.69	 -308.44	   13.24
     71.6744	  106.00	  121.11	 -307.86	   13.23
     71.7078	  113.00	  117.36	 -297.11	   13.23
     71.7412	  113.00	  112.67	 -292.42	   13.23
     71.7747	   95.00	  107.17	 -304.92	   13.23
     71.8081	   81.00	  101.04	 -312.79	   13.23
     71.8415	   89.00	   94.58	 -298.33	   13.23
     71.8749	   90.00	   88.15	 -290.90	   13.23
     71.9084	   79.00	   82.10	 -295.85	   13.23
     71.9418	   92.00	   76.72	 -277.47	   13.23
     71.9752	   65.00	   72.15	 -299.90	   13.23
     72.0086	   75.00	   68.48	 -286.23	   13.23
     72.0420	   61.00	   65.70	 -297.45	   13.23
     72.0755	   66.00	   63.81	 -290.56	   13.23
     72.1089	   64.00	   62.76	 -291.51	   13.23
     72.1423	   57.00	   62.53	 -298.28	   13.23
     72.1757	   65.00	   63.07	 -290.82	   13.23
     72.2092	   60.00	   64.30	 -297.05	   13.23
     72.2426	   72.00	   66.10	 -286.85	   13.23
     72.2760	   73.00	   68.28	 -288.03	   13.23
     72.3094	   57.00	   70.56	 -306.31	   13.23
     72.3428	   66.00	   72.56	 -299.31	   13.23
     72.3763	   54.00	   73.94	 -312.69	   13.23
     72.4097	   48.00	   74.44	 -319.19	   13.23
     72.4431	   68.00	   73.97	 -298.72	   13.23
     72.4765	   52.00	   72.67	 -313.42	   13.23
     72.5100	   63.00	   70.73	 -300.48	   13.23
     72.5434	   50.00	   68.32	 -311.07	   13.23
     72.5768	   65.00	   65.54	 -293.29	   13.23
     72.6102	   70.00	   62.43	 -285.18	   13.23
     72.6436	   45.00	   59.04	 -306.79	   13.23
     72.6771	   43.00	   55.50	 -305.25	   13.23
     72.7105	   52.00	   51.94	 -292.69	   13.23
     72.7439	   51.00	   48.52	 -290.27	   13.23
     72.7773	   41.00	   45.34	 -297.09	   13.23
     72.8108	   35.00	   42.46	 -300.21	   13.23
     72.8442	   39.00	   39.92	 -293.67	   13.23
     72.8776	   30.00	   37.69	 -300.44	   13.23
     72.9110	   45.00	   35.76	 -283.51	   13.23
     72.9445	   27.00	   34.09	 -299.84	   13.23
     72.9779	   44.00	   32.64	 -281.39	   13.23
     73.0113	   28.00	   31.40	 -296.15	   13.23
     73.0447	   28.00	   30.34	 -295.09	   13.23
     73.0781	   29.00	   29.40	 -293.15	   13.23
     73.1116	   21.00	   28.60	 -300.35	   13.23
     73.1450	   28.00	   27.90	 -292.65	   13.23
     73.1784	   29.00	   27.29	 -291.04	   13.23
     73.2118	   22.00	   26.77	 -297.52	   13.23
     73.2453	   22.00	   26.31	 -297.06	   13.23
     73.2787	   25.00	   25.93	 -293.68	   13.24
     73.3121	   33.00	   25.60	 -285.35	   13.24
     73.3455	   18.00	   25.32	 -300.07	   13.24
     73.3789	   32.00	   25.09	 -285.84	   13.24
     73.4124	   17.00	   24.91	 -300.66	   13.24
     73.4458	   27.00	   24.77	 -290.52	   13.24
     73.4792	   23.00	   24.67	 -294.42	   13.24
     73.5126	   27.00	   24.62	 -290.37	   13.24
     73.5461	   20.00	   24.62	 -297.37	   13.24
     73.5795	   27.00	   24.66	 -290.41	   13.24
     73.6129	   24.00	   24.76	 -293.51	   13.24
     73.6463	   22.00	   24.91	 -295.66	   13.24
     73.6797	   31.00	   25.12	 -286.87	   13.24
     73.7132	   21.00	   25.41	 -297.16	   13.24
     73.7466	   29.00	   25.78	 -289.53	   13.24
     73.7800	   30.00	   26.23	 -288.98	   13.24
     73.8134	   25.00	   26.80	 -294.55	   13.24
     73.8469	   21.00	   27.48	 -299.23	   13.24
     73.8803	   28.00	   28.31	 -293.06	   13.24
     73.9137	   34.00	   29.29	 -288.04	   13.24
     73.9471	   27.00	   30.44	 -296.19	   13.24
     73.9805	   22.00	   31.77	 -302.52	   13.24
     74.0140	   29.00	   33.27	 -297.02	   13.24
     74.0474	   39.00	   34.91	 -288.66	   13.24
     74.0808	   36.00	   36.61	 -293.36	   13.24
     74.1142	   35.00	   38.26	 -296.01	   13.24
     74.1477	   35.00	   39.71	 -297.46	   13.24
     74.1811	   24.00	   40.80	 -309.55	   13.24
     74.2145	   35.00	   41.41	 -299.16	   13.24
     74.2479	   38.00	   41.53	 -296.28	   13.24
     74.2813	   36.00	   41.22	 -297.97	   13.24
     74.3148	   35.00	   40.59	 -298.34	   13.24
     74.3482	   32.00	   39.71	 -300.46	   13.24
     74.3816	   30.00	   38.64	 -301.39	   13.24
     74.4150	   39.00	   37.40	 -291.15	   13.24
     74.4485	   38.00	   36.01	 -290.76	   13.25
     74.4819	   42.00	   34.51	 -285.26	   13.25
     74.5153	   31.00	   32.97	 -294.72	   13.25
     74.5487	   31.00	   31.46	 -293.21	   13.25
     74.5822	   32.00	   30.04	 -290.79	   13.25
     74.6156	   28.00	   28.75	 -293.50	   13.25
     74.6490	   29.00	   27.59	 -291.34	   13.25
     74.6824	   23.00	   26.58	 -296.33	   13.25
     74.7158	   27.00	   25.70	 -291.45	   13.25
     74.7493	   22.00	   24.94	 -295.69	   13.25
     74.7827	   20.00	   24.28	 -297.03	   13.25
     74.8161	   29.00	   23.71	 -287.46	   13.25
     74.8495	   30.00	   23.22	 -285.97	   13.25
     74.8830	   27.00	   22.80	 -288.55	   13.25
     74.9164	   17.00	   22.43	 -298.18	   13.25
     74.9498	   12.00	   22.11	 -302.86	   13.25
     74.9832	   27.00	   21.83	 -287.58	   13.25
     75.0166	   22.00	   21.59	 -292.34	   13.25
     75.0501	   24.00	   21.37	 -290.12	   13.25
     75.0835	   21.00	   21.18	 -292.93	   13.25
     75.1169	   21.00	   21.01	 -292.76	   13.25
     75.1503	   24.00	   20.86	 -289.61	   13.25
     75.1838	   21.00	   20.73	 -292.48	   13.25
     75.2172	   24.00	   20.62	 -289.37	   13.25
     75.2506	   21.00	   20.51	 -292.26	   13.26
     75.2840	   20.00	   20.42	 -293.17	   13.26
     75.3175	   32.00	   20.34	 -281.09	   13.26
     75.3509	   20.00	   20.26	 -293.01	   13.26
     75.3843	   25.00	   20.20	 -287.95	   13.26
     75.4177	   22.00	   20.15	 -290.90	   13.26
     75.4511	   29.00	   20.10	 -283.85	   13.26
     75.4846	   20.00	   20.06	 -292.81	   13.26
     75.5180	   20.00	   20.02	 -292.77	   13.26
     75.5514	   19.00	   19.99	 -293.74	   13.26
     75.5848	   23.00	   19.96	 -289.71	   13.26
     75.6183	   22.00	   19.94	 -290.69	   13.26
     75.6517	   19.00	   19.93	 -293.68	   13.26
     75.6851	   16.00	   19.92	 -296.67	   13.26
     75.7185	   21.00	   19.91	 -291.66	   13.26
     75.7519	   23.00	   19.91	 -289.66	   13.26
     75.7854	   33.00	   19.91	 -279.66	   13.26
     75.8188	   21.00	   19.92	 -291.67	   13.26
     75.8522	   23.00	   19.93	 -289.68	   13.26
     75.8856	   22.00	   19.94	 -290.69	   13.26
     75.9191	   30.00	   19.96	 -282.71	   13.26
     75.9525	   29.00	   19.98	 -283.73	   13.26
     75.9859	   14.00	   20.00	 -298.75	   13.27
     76.0193	   20.00	   19.98	 -292.73	   13.27
     76.0527	   21.00	   20.01	 -291.76	   13.27
     76.0862	   14.00	   20.04	 -298.79	   13.27
     76.1196	   23.00	   20.08	 -289.83	   13.27
     76.1530	   35.00	   20.12	 -277.87	   13.27
     76.1864	   25.00	   20.15	 -287.90	   13.27
     76.2199	   23.00	   20.19	 -289.94	   13.27
     76.2533	   17.00	   20.25	 -296.00	   13.27
     76.2867	   22.00	   20.31	 -291.06	   13.27
     76.3201	   25.00	   20.37	 -288.12	   13.27
     76.3535	   21.00	   20.43	 -292.18	   13.27
     76.3870	   16.00	   20.50	 -297.25	   13.27
     76.4204	   23.00	   20.58	 -290.33	   13.27
     76.4538	   31.00	   20.65	 -282.40	   13.27
     76.4872	   24.00	   20.74	 -289.49	   13.27
     76.5207	   19.00	   20.83	 -294.58	   13.27
     76.5541	   21.00	   20.92	 -292.67	   13.27
     76.5875	   28.00	   21.02	 -285.77	   13.27
     76.6209	   21.00	   21.13	 -292.88	   13.27
     76.6544	   21.00	   21.24	 -292.99	   13.27
     76.6878	   25.00	   21.36	 -289.11	   13.27
     76.7212	   22.00	   21.49	 -292.24	   13.28
     76.7546	   21.00	   21.62	 -293.37	   13.28
     76.7880	   16.00	   21.76	 -298.51	   13.28
     76.8215	   28.00	   21.91	 -286.66	   13.28
     76.8549	   20.00	   22.07	 -294.82	   13.28
     76.8883	   31.00	   22.24	 -283.99	   13.28
     76.9217	   30.00	   22.42	 -285.17	   13.28
     76.9552	   17.00	   22.61	 -298.36	   13.28
     76.9886	   29.00	   22.81	 -286.56	   13.28
     77.0220	   34.00	   23.03	 -281.78	   13.28
     77.0554	   25.00	   23.26	 -291.01	   13.28
     77.0888	   24.00	   23.50	 -292.25	   13.28
     77.1223	   32.00	   23.76	 -284.51	   13.28
     77.1557	   32.00	   24.04	 -284.79	   13.28
     77.1891	   34.00	   24.34	 -283.09	   13.28
     77.2225	   31.00	   24.66	 -286.41	   13.28
     77.2560	   28.00	   25.00	 -289.75	   13.28
     77.2894	   25.00	   25.37	 -293.12	   13.28
     77.3228	   34.00	   25.77	 -284.52	   13.28
     77.3562	   23.00	   26.19	 -295.94	   13.28
     77.3896	   22.00	   26.65	 -297.40	   13.28
     77.4231	   37.00	   27.15	 -282.90	   13.28
     77.4565	   23.00	   27.69	 -297.44	   13.28
     77.4899	   34.00	   28.28	 -287.03	   13.29
     77.5233	   44.00	   28.92	 -277.67	   13.29
     77.5568	   28.00	   29.61	 -294.36	   13.29
     77.5902	   30.00	   30.37	 -293.12	   13.29
     77.6236	   35.00	   31.21	 -288.96	   13.29
     77.6570	   38.00	   32.11	 -286.86	   13.29
     77.6905	   34.00	   33.13	 -291.88	   13.29
     77.7239	   38.00	   34.25	 -289.00	   13.29
     77.7573	   41.00	   35.51	 -287.26	   13.29
     77.7907	   43.00	   36.91	 -286.66	   13.29
     77.8241	   42.00	   38.47	 -289.22	   13.29
     77.8576	   41.00	   40.23	 -291.98	   13.29
     77.8910	   45.00	   42.22	 -289.97	   13.29
     77.9244	   48.00	   44.49	 -289.24	   13.29
     77.9578	   42.00	   47.06	 -297.81	   13.29
     77.9912	   71.00	   50.01	 -271.76	   13.29
     78.0247	   63.00	   53.37	 -283.12	   13.29
     78.0581	   70.00	   57.23	 -279.98	   13.29
     78.0915	   70.00	   61.66	 -284.41	   13.29
     78.1249	   81.00	   66.71	 -278.46	   13.29
     78.1584	   89.00	   72.46	 -276.21	   13.29
     78.1918	   74.00	   78.93	 -297.68	   13.29
     78.2252	   92.00	   86.09	 -286.84	   13.29
     78.2586	   92.00	   93.85	 -294.60	   13.29
     78.2921	  105.00	  101.99	 -289.74	   13.29
     78.3255	  115.00	  110.21	 -287.96	   13.29
     78.3589	  124.00	  118.16	 -286.91	   13.29
     78.3923	  140.00	  125.54	 -278.29	   13.29
     78.4257	  131.00	  132.15	 -293.90	   13.29
     78.4592	  139.00	  137.93	 -291.68	   13.30
     78.4926	  165.00	  142.91	 -270.66	   13.30
     78.5260	  173.00	  147.11	 -266.86	   13.30
     78.5594	  154.00	  150.54	 -289.29	   13.30
     78.5929	  154.00	  153.16	 -291.91	   13.30
     78.6263	  153.00	  154.94	 -294.69	   13.30
     78.6597	  182.00	  155.80	 -266.55	   13.30
     78.6931	  149.00	  155.68	 -299.43	   13.30
     78.7265	  179.00	  154.57	 -268.32	   13.30
     78.7600	  167.00	  152.61	 -278.36	   13.30
     78.7934	  154.00	  150.12	 -288.87	   13.30
     78.8268	  181.00	  147.52	 -259.27	   13.30
     78.8602	  162.00	  145.22	 -275.97	   13.30
     78.8937	  165.00	  143.53	 -271.28	   13.30
     78.9271	  163.00	  142.65	 -272.40	   13.30
     78.9605	  164.00	  142.67	 -271.42	   13.30
     78.9939	  166.00	  143.55	 -270.30	   13.30
     79.0274	  146.00	  145.28	 -292.03	   13.30
     79.0608	  148.00	  147.66	 -292.41	   13.30
     79.0942	  149.00	  150.38	 -294.13	   13.30
     79.1276	  162.00	  152.85	 -283.60	   13.30
     79.1610	  145.00	  154.43	 -302.18	   13.30
     79.1945	  156.00	  154.55	 -291.30	   13.30
     79.2279	  159.00	  152.92	 -286.67	   13.30
     79.2613	  153.00	  149.64	 -289.39	   13.30
     79.2947	  150.00	  145.11	 -287.86	   13.30
     79.3282	  135.00	  139.73	 -297.48	   13.30
     79.3616	  141.00	  133.80	 -285.55	   13.30
     79.3950	  117.00	  127.41	 -303.16	   13.30
     79.4284	  109.00	  120.54	 -304.29	   13.30
     79.4618	  112.00	  113.20	 -293.95	   13.30
     79.4953	  109.00	  105.53	 -289.28	   13.30
     79.5287	  108.00	   97.76	 -282.51	   13.30
     79.5621	   90.00	   90.17	 -292.92	   13.30
     79.5955	   79.00	   83.01	 -296.76	   13.30
     79.6290	   94.00	   76.46	 -275.21	   13.30
     79.6624	   75.00	   70.57	 -288.32	   13.30
     79.6958	   68.00	   65.38	 -290.13	   13.30
     79.7292	   60.00	   60.83	 -293.58	   13.30
     79.7626	   50.00	   56.88	 -299.63	   13.30
     79.7961	   69.00	   53.46	 -277.21	   13.30
     79.8295	   62.00	   50.50	 -281.25	   13.30
     79.8629	   74.00	   47.95	 -266.70	   13.30
     79.8963	   41.00	   45.76	 -297.51	   13.30
     79.9298	   48.00	   43.89	 -288.64	   13.30
     79.9632	   47.00	   42.28	 -288.03	   13.30
     79.9966	   64.00	   40.93	 -269.68	   13.30
     80.0300	   46.00	   39.79	 -286.54	   13.30
     80.0634	   46.00	   38.86	 -285.61	   13.30
     80.0969	   43.00	   38.12	 -287.87	   13.30
     80.1303	   37.00	   37.56	 -293.31	   13.30
     80.1637	   55.00	   37.19	 -274.94	   13.30
     80.1971	   43.00	   36.99	 -286.74	   13.30
     80.2306	   52.00	   36.97	 -277.72	   13.30
     80.2640	   38.00	   37.15	 -291.90	   13.30
     80.2974	   41.00	   37.52	 -289.27	   13.30
     80.3308	   34.00	   38.11	 -296.86	   13.30
     80.3643	   66.00	   38.91	 -265.66	   13.30
     80.3977	   41.00	   39.93	 -291.68	   13.30
     80.4311	   52.00	   41.15	 -281.90	   13.30
     80.4645	   50.00	   42.51	 -285.26	   13.30
     80.4979	   48.00	   43.95	 -288.70	   13.30
     80.5314	   41.00	   45.34	 -297.09	   13.30
     80.5648	   46.00	   46.52	 -293.27	   13.30
     80.5982	   48.00	   47.34	 -292.09	   13.30
     80.6316	   49.00	   47.71	 -291.46	   13.30
     80.6651	   65.00	   47.61	 -275.36	   13.30
     80.6985	   48.00	   47.09	 -291.84	   13.30
     80.7319	   63.00	   46.28	 -276.03	   13.30
     80.7653	   33.00	   45.26	 -305.01	   13.30
     80.7987	   55.00	   44.08	 -281.83	   13.30
     80.8322	   39.00	   42.77	 -296.52	   13.30
     80.8656	   51.00	   41.32	 -283.07	   13.30
     80.8990	   45.00	   39.74	 -287.49	   13.29
     80.9324	   38.00	   38.07	 -292.82	   13.29
     80.9659	   44.00	   36.37	 -285.12	   13.29
     80.9993	   36.00	   34.72	 -291.47	   13.29
     81.0327	   35.00	   33.15	 -290.90	   13.29
     81.0661	   39.00	   31.70	 -285.45	   13.29
     81.0995	   36.00	   30.39	 -287.14	   13.29
     81.1330	   36.00	   29.23	 -285.98	   13.29
     81.1664	   25.00	   28.20	 -295.95	   13.29
     81.1998	   22.00	   27.29	 -298.04	   13.29
     81.2332	   31.00	   26.50	 -288.25	   13.29
     81.2667	   27.00	   25.79	 -291.54	   13.29
     81.3001	   28.00	   25.18	 -289.93	   13.29
     81.3335	   31.00	   24.63	 -286.38	   13.29
     81.3669	   23.00	   24.14	 -293.89	   13.29
     81.4004	   19.00	   23.71	 -297.46	   13.29
     81.4338	   28.00	   23.32	 -288.07	   13.29
     81.4672	   33.00	   22.97	 -282.72	   13.29
     81.5006	   23.00	   22.66	 -292.41	   13.29
     81.5340	   22.00	   22.37	 -293.12	   13.29
     81.5675	   23.00	   22.12	 -291.87	   13.29
     81.6009	   22.00	   21.88	 -292.63	   13.29
     81.6343	   24.00	   21.66	 -290.41	   13.28
     81.6677	   27.00	   21.47	 -287.22	   13.28
     81.7012	   18.00	   21.28	 -296.03	   13.28
     81.7346	   31.00	   21.12	 -282.87	   13.28
     81.7680	   27.00	   20.96	 -286.71	   13.28
     81.8014	   19.00	   20.82	 -294.57	   13.28
     81.8348	   24.00	   20.68	 -289.43	   13.28
     81.8683	   28.00	   20.56	 -285.31	   13.28
     81.9017	   23.00	   20.45	 -290.20	   13.28
     81.9351	   27.00	   20.34	 -286.09	   13.28
     81.9685	   18.00	   20.24	 -294.99	   13.28
     82.0020	   17.00	   20.15	 -295.90	   13.28
     82.0354	   30.00	   20.07	 -282.82	   13.28
     82.0688	   23.00	   19.99	 -289.74	   13.28
     82.1022	   24.00	   19.91	 -288.66	   13.27
     82.1356	   22.00	   19.85	 -290.60	   13.27
     82.1691	   16.00	   19.78	 -296.53	   13.27
     82.2025	   25.00	   19.73	 -287.48	   13.27
     82.2359	   18.00	   19.68	 -294.43	   13.27
     82.2693	   16.00	   19.63	 -296.38	   13.27
     82.3028	    9.00	   19.59	 -303.34	   13.27
     82.3362	   14.00	   19.56	 -298.31	   13.27
     82.3696	   21.00	   19.53	 -291.28	   13.27
     82.4030	   19.00	   19.50	 -293.25	   13.27
     82.4364	   14.00	   19.49	 -298.24	   13.27
     82.4699	   17.00	   19.48	 -295.23	   13.27
     82.5033	   22.00	   19.47	 -290.22	   13.26
     82.5367	   30.00	   19.48	 -282.23	   13.26
     82.5701	   23.00	   19.49	 -289.24	   13.26
     82.6036	   18.00	   19.52	 -294.27	   13.26
     82.6370	   12.00	   19.55	 -300.30	   13.26
     82.6704	   23.00	   19.56	 -289.31	   13.26
     82.7038	   16.00	   19.62	 -296.37	   13.26
     82.7373	   23.00	   19.70	 -289.45	   13.26
     82.7707	   20.00	   19.78	 -292.53	   13.26
     82.8041	    2.00	   19.88	 -310.63	   13.25
     82.8375	   21.00	   19.99	 -291.74	   13.25
     82.8709	   23.00	   20.07	 -289.82	   13.25
     82.9044	   18.00	   20.17	 -294.92	   13.25
     82.9378	   17.00	   20.25	 -296.00	   13.25
     82.9712	   23.00	   20.31	 -290.06	   13.25
     83.0046	   22.00	   20.33	 -291.08	   13.25
     83.0381	   20.00	   20.32	 -293.07	   13.25
     83.0715	   21.00	   20.29	 -292.04	   13.25
     83.1049	   22.00	   20.24	 -290.99	   13.24
     83.1383	   18.00	   20.18	 -294.93	   13.24
     83.1717	   15.00	   20.12	 -297.87	   13.24
     83.2052	   21.00	   20.05	 -291.80	   13.24
     83.2386	   15.00	   19.97	 -297.72	   13.24
     83.2720	   20.00	   19.88	 -292.63	   13.24
     83.3054	   20.00	   19.79	 -292.54	   13.24
     83.3389	   16.00	   19.70	 -296.45	   13.23
     83.3723	   19.00	   19.61	 -293.36	   13.23
     83.4057	   25.00	   19.53	 -287.28	   13.23
     83.4391	   20.00	   19.47	 -292.22	   13.23
     83.4725	   19.00	   19.41	 -293.16	   13.23
     83.5060	   16.00	   19.36	 -296.11	   13.23
     83.5394	   16.00	   19.31	 -296.06	   13.23
     83.5728	   15.00	   19.29	 -297.04	   13.22
     83.6062	   19.00	   19.28	 -293.03	   13.22
     83.6397	   14.00	   19.27	 -298.02	   13.22
     83.6731	   16.00	   19.28	 -296.03	   13.22
     83.7065	   19.00	   19.29	 -293.04	   13.22
     83.7399	   16.00	   19.31	 -296.06	   13.22
     83.7734	   21.00	   19.32	 -291.07	   13.22
     83.8068	   11.00	   19.36	 -301.11	   13.21
     83.8402	   19.00	   19.40	 -293.15	   13.21
     83.8736	   19.00	   19.45	 -293.20	   13.21
     83.9070	   33.00	   19.51	 -279.26	   13.21
     83.9405	   16.00	   19.57	 -296.32	   13.21
     83.9739	   14.00	   19.64	 -298.39	   13.21
     84.0073	   16.00	   19.73	 -296.48	   13.20
     84.0407	   17.00	   19.82	 -295.57	   13.20
     84.0742	   24.00	   19.92	 -288.67	   13.20
     84.1076	   22.00	   20.04	 -290.79	   13.20
     84.1410	   23.00	   20.17	 -289.92	   13.20
     84.1744	   14.00	   20.31	 -299.06	   13.19
     84.2078	   16.00	   20.47	 -297.22	   13.19
     84.2413	   23.00	   20.64	 -290.39	   13.19
     84.2747	   21.00	   20.84	 -292.59	   13.19
     84.3081	   11.00	   21.05	 -302.80	   13.19
     84.3415	   16.00	   21.29	 -298.04	   13.19
     84.3750	   21.00	   21.56	 -293.31	   13.18
     84.4084	   21.00	   21.86	 -293.61	   13.18
     84.4418	   21.00	   22.20	 -293.95	   13.18
     84.4752	   16.00	   22.57	 -299.32	   13.18
     84.5086	   24.00	   23.00	 -291.75	   13.18
     84.5421	   11.00	   23.47	 -305.22	   13.17
     84.5755	   27.00	   24.02	 -289.77	   13.17
     84.6089	   18.00	   24.66	 -299.41	   13.17
     84.6423	   27.00	   25.36	 -291.11	   13.17
     84.6758	   31.00	   26.17	 -287.92	   13.17
     84.7092	   27.00	   27.09	 -292.84	   13.16
     84.7426	   21.00	   28.16	 -299.91	   13.16
     84.7760	   27.00	   29.38	 -295.13	   13.16
     84.8094	   43.00	   30.79	 -280.54	   13.16
     84.8429	   31.00	   32.41	 -294.16	   13.15
     84.8763	   25.00	   34.28	 -302.03	   13.15
     84.9097	   34.00	   36.40	 -295.15	   13.15
     84.9431	   29.00	   38.79	 -302.54	   13.15
     84.9766	   36.00	   41.43	 -298.18	   13.15
     85.0100	   38.00	   44.30	 -299.05	   13.14
     85.0434	   57.00	   47.28	 -283.03	   13.14
     85.0768	   55.00	   50.24	 -287.99	   13.14
     85.1103	   55.00	   52.97	 -290.72	   13.14
     85.1437	   48.00	   55.22	 -299.97	   13.13
     85.1771	   50.00	   56.80	 -299.55	   13.13
     85.2105	   48.00	   57.61	 -302.36	   13.13
     85.2439	   59.00	   57.66	 -291.41	   13.13
     85.2774	   70.00	   57.11	 -279.86	   13.12
     85.3108	   44.00	   56.11	 -304.86	   13.12
     85.3442	   48.00	   54.83	 -299.58	   13.12
     85.3776	   47.00	   53.33	 -299.08	   13.12
     85.4111	   39.00	   51.64	 -305.39	   13.11
     85.4445	   34.00	   49.73	 -308.48	   13.11
     85.4779	   50.00	   47.59	 -290.34	   13.11
     85.5113	   44.00	   45.28	 -294.03	   13.11
     85.5447	   36.00	   42.86	 -299.61	   13.10
     85.5782	   37.00	   40.45	 -296.20	   13.10
     85.6116	   46.00	   38.13	 -284.88	   13.10
     85.6450	   32.00	   35.97	 -296.72	   13.10
     85.6784	   34.00	   34.01	 -292.76	   13.09
     85.7119	   25.00	   32.24	 -299.99	   13.09
     85.7453	   27.00	   30.69	 -296.44	   13.09
     85.7787	   25.00	   29.34	 -297.09	   13.08
     85.8121	   31.00	   28.15	 -289.90	   13.08
     85.8456	   22.00	   27.12	 -297.87	   13.08
     85.8790	   38.00	   26.23	 -280.98	   13.08
     85.9124	   27.00	   25.45	 -291.20	   13.07
     85.9458	   20.00	   24.77	 -297.52	   13.07
     85.9792	   19.00	   24.18	 -297.93	   13.07
     86.0127	   17.00	   23.66	 -299.41	   13.06
     86.0461	   18.00	   23.21	 -297.96	   13.06
     86.0795	   17.00	   22.82	 -298.57	   13.06
     86.1129	   23.00	   22.47	 -292.22	   13.05
     86.1464	   18.00	   22.17	 -296.92	   13.05
     86.1798	   25.00	   21.91	 -289.66	   13.05
     86.2132	   19.00	   21.69	 -295.44	   13.05
     86.2466	   25.00	   21.49	 -289.24	   13.04
     86.2800	   23.00	   21.32	 -291.07	   13.04
     86.3135	   22.00	   21.18	 -291.93	   13.04
     86.3469	   24.00	   21.06	 -289.81	   13.03
     86.3803	   10.00	   20.97	 -303.72	   13.03
     86.4137	   20.00	   20.90	 -293.65	   13.03
     86.4472	   17.00	   20.85	 -296.60	   13.02
     86.4806	   10.00	   20.82	 -303.57	   13.02
     86.5140	   18.00	   20.81	 -295.56	   13.02
     86.5474	   19.00	   20.83	 -294.58	   13.01
     86.5808	   25.00	   20.87	 -288.62	   13.01
     86.6143	   17.00	   20.93	 -296.68	   13.01
     86.6477	   22.00	   21.02	 -291.77	   13.00
     86.6811	   19.00	   21.15	 -294.90	   13.00
     86.7145	   21.00	   21.30	 -293.05	   13.00
     86.7480	   18.00	   21.49	 -296.24	   12.99
     86.7814	   30.00	   21.73	 -284.48	   12.99
     86.8148	   17.00	   22.01	 -297.76	   12.99
     86.8482	   11.00	   22.34	 -304.09	   12.98
     86.8816	   21.00	   22.74	 -294.49	   12.98
     86.9151	   28.00	   23.20	 -287.95	   12.97
     86.9485	   27.00	   23.73	 -289.48	   12.97
     86.9819	   17.00	   24.35	 -300.10	   12.97
     87.0153	   24.00	   25.05	 -293.80	   12.96
     87.0488	   21.00	   25.83	 -297.58	   12.96
     87.0822	   30.00	   26.67	 -289.42	   12.96
     87.1156	   19.00	   27.56	 -301.31	   12.95
     87.1490	   31.00	   28.45	 -290.20	   12.95
     87.1824	   23.00	   29.30	 -299.05	   12.94
     87.2159	   31.00	   30.05	 -291.80	   12.94
     87.2493	   23.00	   30.67	 -300.42	   12.94
     87.2827	   25.00	   31.13	 -298.88	   12.93
     87.3161	   29.00	   31.48	 -295.23	   12.93
     87.3496	   33.00	   31.73	 -291.48	   12.93
     87.3830	   28.00	   31.93	 -296.68	   12.92
     87.4164	   33.00	   32.11	 -291.86	   12.92
     87.4498	   34.00	   32.24	 -290.99	   12.91
     87.4833	   31.00	   32.31	 -294.06	   12.91
     87.5167	   48.00	   32.26	 -277.01	   12.90
     87.5501	   39.00	   32.06	 -285.81	   12.90
     87.5835	   29.00	   31.69	 -295.44	   12.90
     87.6169	   46.00	   31.15	 -277.90	   12.89
     87.6504	   34.00	   30.49	 -289.24	   12.89
     87.6838	   39.00	   29.76	 -283.51	   12.88
     87.7172	   30.00	   29.01	 -291.76	   12.88
     87.7506	   27.00	   28.27	 -294.02	   12.88
     87.7841	   29.00	   27.54	 -291.29	   12.87
     87.8175	   27.00	   26.84	 -292.59	   12.87
     87.8509	   27.00	   26.14	 -291.89	   12.86
     87.8843	   23.00	   25.45	 -295.20	   12.86
     87.9177	   14.00	   24.76	 -303.51	   12.85
     87.9512	   16.00	   24.09	 -300.84	   12.85
     87.9846	   28.00	   23.46	 -288.21	   12.84
     88.0180	   21.00	   22.86	 -294.61	   12.84
     88.0514	   20.00	   22.32	 -295.07	   12.84
     88.0849	   27.00	   21.82	 -287.57	   12.83
     88.1183	   16.00	   21.38	 -298.13	   12.83
     88.1517	   28.00	   20.99	 -285.74	   12.82
     88.1851	   17.00	   20.65	 -296.40	   12.82
     88.2186	   20.00	   20.34	 -293.09	   12.81
     88.2520	   19.00	   20.07	 -293.82	   12.81
     88.2854	   23.00	   19.84	 -289.59	   12.80
     88.3188	   15.00	   19.63	 -297.38	   12.80
     88.3522	   18.00	   19.44	 -294.19	   12.79
     88.3857	   19.00	   19.28	 -293.03	   12.79
     88.4191	   14.00	   19.13	 -297.88	   12.78
     88.4525	   17.00	   19.00	 -294.75	   12.78
     88.4859	   18.00	   18.89	 -293.64	   12.77
     88.5193	   17.00	   18.78	 -294.53	   12.77
     88.5528	   15.00	   18.69	 -296.44	   12.76
     88.5862	   21.00	   18.60	 -290.35	   12.76
     88.6196	   14.00	   18.53	 -297.28	   12.75
     88.6530	   22.00	   18.46	 -289.21	   12.75
     88.6865	   17.00	   18.40	 -294.15	   12.74
     88.7199	   17.00	   18.35	 -294.10	   12.74
     88.7533	   17.00	   18.30	 -294.05	   12.73
     88.7867	   16.00	   18.25	 -295.00	   12.73
     88.8202	   10.00	   18.21	 -300.96	   12.72
     88.8536	   22.00	   18.18	 -288.93	   12.72
     88.8870	   18.00	   18.15	 -292.90	   12.71
     88.9204	   16.00	   18.12	 -294.87	   12.71
     88.9538	   12.00	   18.10	 -298.85	   12.70
     88.9873	   10.00	   18.08	 -300.83	   12.70
     89.0207	   16.00	   18.06	 -294.81	   12.69
     89.0541	   10.00	   18.04	 -300.79	   12.69
     89.0875	   15.00	   18.03	 -295.78	   12.68
     89.1210	   17.00	   18.02	 -293.77	   12.68
     89.1544	   12.00	   18.02	 -298.77	   12.67
     89.1878	   20.00	   18.01	 -290.76	   12.66
     89.2212	   19.00	   18.01	 -291.76	   12.66
     89.2546	   21.00	   18.01	 -289.76	   12.65
     89.2881	   19.00	   18.01	 -291.76	   12.65
     89.3215	   19.00	   18.02	 -291.77	   12.64
     89.3549	   16.00	   18.03	 -294.78	   12.64
     89.3883	   10.00	   18.03	 -300.78	   12.63
     89.4218	   19.00	   18.05	 -291.80	   12.63
     89.4552	   16.00	   18.06	 -294.81	   12.62
     89.4886	   22.00	   18.08	 -288.83	   12.61
     89.5220	   24.00	   18.10	 -286.85	   12.61
     89.5555	   16.00	   18.12	 -294.87	   12.60
     89.5889	   22.00	   18.14	 -288.89	   12.60
     89.6223	   20.00	   18.16	 -290.91	   12.59
     89.6557	   24.00	   18.19	 -286.94	   12.58
     89.6891	   18.00	   18.22	 -292.97	   12.58
     89.7226	   18.00	   18.26	 -293.01	   12.57
     89.7560	   21.00	   18.29	 -290.04	   12.57
     89.7894	   17.00	   18.33	 -294.08	   12.56
     89.8228	    9.00	   18.37	 -302.12	   12.55
     89.8563	   16.00	   18.42	 -295.17	   12.55
     89.8897	   24.00	   18.47	 -287.22	   12.54
     89.9231	    7.00	   18.52	 -304.27	   12.54
     89.9565	   21.00	   18.57	 -290.32	   12.53
     89.9899	   23.00	   18.61	 -288.36	   12.52
     90.0234	   16.00	   18.67	 -295.42	   12.52
     90.0568	   21.00	   18.74	 -290.49	   12.51
     90.0902	   18.00	   18.81	 -293.56	   12.50
     90.1236	   24.00	   18.89	 -287.64	   12.50
     90.1571	   10.00	   18.96	 -301.71	   12.49
     90.1905	   14.00	   19.04	 -297.79	   12.48
     90.2239	   19.00	   19.14	 -292.89	   12.48
     90.2573	   18.00	   19.23	 -293.98	   12.47
     90.2907	   28.00	   19.33	 -284.08	   12.46
     90.3242	   16.00	   19.44	 -296.19	   12.46
     90.3576	   22.00	   19.54	 -290.29	   12.45
     90.3910	   16.00	   19.67	 -296.42	   12.44
     90.4244	   19.00	   19.80	 -293.55	   12.44
     90.4579	   19.00	   19.96	 -293.71	   12.43
     90.4913	   19.00	   20.12	 -293.87	   12.42
     90.5247	   19.00	   20.29	 -294.04	   12.42
     90.5581	   24.00	   20.47	 -289.22	   12.41
     90.5915	   21.00	   20.66	 -292.41	   12.40
     90.6250	   25.00	   20.87	 -288.62	   12.40
     90.6584	   17.00	   21.10	 -296.85	   12.39
     90.6918	   19.00	   21.34	 -295.09	   12.38
     90.7252	   29.00	   21.61	 -285.36	   12.38
     90.7587	   29.00	   21.90	 -285.65	   12.37
     90.7921	   12.00	   22.21	 -302.96	   12.36
     90.8255	   28.00	   22.55	 -287.30	   12.35
     90.8589	   30.00	   22.88	 -285.63	   12.35
     90.8923	   25.00	   23.28	 -291.03	   12.34
     90.9258	   29.00	   23.72	 -287.47	   12.33
     90.9592	   23.00	   24.21	 -293.96	   12.33
     90.9926	   25.00	   24.75	 -292.50	   12.32
     91.0260	   23.00	   25.34	 -295.09	   12.31
     91.0595	   27.00	   25.99	 -291.74	   12.30
     91.0929	   36.00	   26.72	 -283.47	   12.30
     91.1263	   31.00	   27.50	 -289.25	   12.29
     91.1597	   25.00	   28.40	 -296.15	   12.28
     91.1932	   34.00	   29.41	 -288.16	   12.27
     91.2266	   30.00	   30.55	 -293.30	   12.27
     91.2600	   37.00	   31.83	 -287.58	   12.26
     91.2934	   34.00	   33.29	 -292.04	   12.25
     91.3268	   25.00	   34.94	 -302.69	   12.24
     91.3603	   41.00	   36.80	 -288.55	   12.24
     91.3937	   51.00	   38.93	 -280.68	   12.23
     91.4271	   44.00	   41.33	 -290.08	   12.22
     91.4605	   43.00	   44.06	 -293.81	   12.21
     91.4940	   42.00	   47.14	 -297.89	   12.21
     91.5274	   50.00	   50.58	 -293.33	   12.20
     91.5608	   56.00	   54.38	 -291.13	   12.19
     91.5942	   66.00	   58.51	 -285.26	   12.18
     91.6276	   63.00	   62.87	 -292.62	   12.17
     91.6611	   64.00	   67.33	 -296.08	   12.17
     91.6945	   79.00	   71.69	 -285.44	   12.16
     91.7279	   96.00	   75.70	 -272.45	   12.15
     91.7613	   76.00	   79.14	 -295.89	   12.14
     91.7948	   91.00	   81.86	 -283.61	   12.13
     91.8282	   90.00	   83.83	 -286.58	   12.12
     91.8616	  102.00	   85.12	 -275.87	   12.12
     91.8950	   89.00	   85.85	 -289.60	   12.11
     91.9285	   86.00	   86.14	 -292.89	   12.10
     91.9619	   76.00	   86.10	 -302.85	   12.09
     91.9953	  100.00	   85.75	 -278.50	   12.08
     92.0287	   75.00	   85.13	 -302.88	   12.08
     92.0621	   66.00	   84.24	 -310.99	   12.07
     92.0956	   83.00	   83.14	 -292.89	   12.06
     92.1290	   79.00	   81.94	 -295.69	   12.05
     92.1624	   87.00	   80.74	 -286.49	   12.04
     92.1958	   76.00	   79.65	 -296.40	   12.03
     92.2293	   77.00	   78.74	 -294.49	   12.02
     92.2627	   61.00	   78.04	 -309.79	   12.02
     92.2961	   71.00	   77.50	 -299.25	   12.01
     92.3295	   72.00	   77.04	 -297.79	   12.00
     92.3629	   85.00	   76.52	 -284.27	   11.99
     92.3964	   61.00	   75.79	 -307.54	   11.98
     92.4298	   59.00	   74.71	 -308.46	   11.97
     92.4632	   55.00	   73.23	 -310.98	   11.96
     92.4966	   45.00	   71.37	 -319.12	   11.95
     92.5301	   66.00	   69.23	 -295.98	   11.94
     92.5635	   58.00	   66.94	 -301.69	   11.94
     92.5969	   47.00	   64.62	 -310.37	   11.93
     92.6303	   58.00	   62.32	 -297.07	   11.92
     92.6637	   58.00	   60.06	 -294.81	   11.91
     92.6972	   42.00	   57.79	 -308.54	   11.90
     92.7306	   52.00	   55.47	 -296.22	   11.89
     92.7640	   41.00	   53.07	 -304.82	   11.88
     92.7974	   57.00	   50.60	 -286.35	   11.87
     92.8309	   46.00	   48.10	 -294.85	   11.86
     92.8643	   37.00	   45.65	 -301.40	   11.85
     92.8977	   47.00	   43.31	 -289.06	   11.84
     92.9311	   37.00	   41.14	 -296.89	   11.83
     92.9645	   51.00	   39.15	 -280.90	   11.82
     92.9980	   42.00	   37.38	 -288.13	   11.81
     93.0314	   42.00	   35.82	 -286.57	   11.81
     93.0648	   38.00	   34.46	 -289.21	   11.80
     93.0982	   33.00	   33.29	 -293.04	   11.79
     93.1317	   29.00	   32.29	 -296.04	   11.78
     93.1651	   32.00	   31.46	 -292.21	   11.77
     93.1985	   33.00	   30.78	 -290.53	   11.76
     93.2319	   41.00	   30.24	 -281.99	   11.75
     93.2654	   27.00	   29.83	 -295.58	   11.74
     93.2988	   30.00	   29.55	 -292.30	   11.73
     93.3322	   23.00	   29.39	 -299.14	   11.72
     93.3656	   33.00	   29.36	 -289.11	   11.71
     93.3990	   30.00	   29.46	 -292.21	   11.70
     93.4325	   35.00	   29.68	 -287.43	   11.69
     93.4659	   31.00	   30.04	 -291.79	   11.68
     93.4993	   41.00	   30.55	 -282.30	   11.67
     93.5327	   34.00	   31.20	 -289.95	   11.66
     93.5662	   25.00	   31.99	 -299.74	   11.65
     93.5996	   38.00	   32.94	 -287.69	   11.64
     93.6330	   41.00	   34.02	 -285.77	   11.63
     93.6664	   41.00	   35.21	 -286.96	   11.62
     93.6998	   50.00	   36.47	 -279.22	   11.61
     93.7333	   43.00	   37.72	 -287.47	   11.59
     93.7667	   49.00	   38.87	 -282.62	   11.58
     93.8001	   31.00	   39.85	 -301.60	   11.57
     93.8335	   36.00	   40.57	 -297.32	   11.56
     93.8670	   29.00	   41.02	 -304.77	   11.55
     93.9004	   23.00	   41.19	 -310.94	   11.54
     93.9338	   39.00	   41.15	 -294.90	   11.53
     93.9672	   46.00	   40.97	 -287.72	   11.52
     94.0006	   31.00	   40.71	 -302.46	   11.51
     94.0341	   47.00	   40.40	 -286.15	   11.50
     94.0675	   43.00	   40.03	 -289.78	   11.49
     94.1009	   35.00	   39.55	 -297.30	   11.48
     94.1343	   41.00	   38.94	 -290.69	   11.47
     94.1678	   38.00	   38.14	 -292.89	   11.46
     94.2012	   37.00	   37.16	 -292.91	   11.44
     94.2346	   24.00	   36.03	 -304.78	   11.43
     94.2680	   39.00	   34.80	 -288.55	   11.42
     94.3015	   30.00	   33.55	 -296.30	   11.41
     94.3349	   27.00	   32.31	 -298.06	   11.40
     94.3683	   22.00	   31.13	 -301.88	   11.39
     94.4017	   30.00	   30.01	 -292.76	   11.38
     94.4351	   31.00	   28.97	 -290.72	   11.37
     94.4686	   21.00	   27.98	 -299.73	   11.36
     94.5020	   38.00	   27.05	 -281.80	   11.34
     94.5354	   25.00	   26.16	 -293.91	   11.33
     94.5688	   19.00	   25.31	 -299.06	   11.32
     94.6022	   24.00	   24.52	 -293.27	   11.31
     94.6357	   24.00	   23.79	 -292.54	   11.30
     94.6691	   23.00	   23.12	 -292.87	   11.29
     94.7025	   24.00	   22.50	 -291.25	   11.27
     94.7359	   31.00	   21.95	 -283.70	   11.26
     94.7694	   19.00	   21.45	 -295.20	   11.25
     94.8028	   27.00	   21.00	 -286.75	   11.24
     94.8362	   20.00	   20.59	 -293.34	   11.23
     94.8696	   21.00	   20.23	 -291.98	   11.22
     94.9031	   19.00	   19.90	 -293.65	   11.20
     94.9365	   20.00	   19.61	 -292.36	   11.19
     94.9699	   14.00	   19.35	 -298.10	   11.18
     95.0033	   15.00	   19.11	 -296.86	   11.17
     95.0367	   15.00	   18.89	 -296.64	   11.16
     95.0702	   11.00	   18.69	 -300.44	   11.14
     95.1036	   16.00	   18.51	 -295.26	   11.13
     95.1370	   25.00	   18.35	 -286.10	   11.12
     95.1704	   21.00	   18.20	 -289.95	   11.11
     95.2039	   21.00	   18.06	 -289.81	   11.09
     95.2373	   18.00	   17.93	 -292.68	   11.08
     95.2707	   19.00	   17.81	 -291.56	   11.07
     95.3041	   14.00	   17.71	 -296.46	   11.06
     95.3375	   17.00	   17.61	 -293.36	   11.05
     95.3710	   17.00	   17.51	 -293.26	   11.03
     95.4044	   18.00	   17.43	 -292.18	   11.02
     95.4378	   25.00	   17.35	 -285.10	   11.01
     95.4712	   25.00	   17.28	 -285.03	   10.99
     95.5047	   20.00	   17.21	 -289.96	   10.98
     95.5381	   16.00	   17.15	 -293.90	   10.97
     95.5715	   21.00	   17.09	 -288.84	   10.96
     95.6049	   23.00	   17.04	 -286.79	   10.94
     95.6384	   18.00	   16.99	 -291.74	   10.93
     95.6718	   11.00	   16.94	 -298.69	   10.92
     95.7052	   20.00	   16.90	 -289.65	   10.91
     95.7386	   18.00	   16.87	 -291.62	   10.89
     95.7720	   19.00	   16.83	 -290.58	   10.88
     95.8055	   15.00	   16.80	 -294.55	   10.87
     95.8389	   17.00	   16.78	 -292.53	   10.85
     95.8723	   17.00	   16.75	 -292.50	   10.84
     95.9057	   10.00	   16.73	 -299.48	   10.83
     95.9392	   14.00	   16.72	 -295.47	   10.81
     95.9726	   18.00	   16.71	 -291.46	   10.80
     96.0060	   20.00	   16.70	 -289.45	   10.79
     96.0394	   20.00	   16.69	 -289.44	   10.77
     96.0728	   22.00	   16.69	 -287.44	   10.76
     96.1063	   17.00	   16.69	 -292.44	   10.75
     96.1397	   14.00	   16.69	 -295.44	   10.73
     96.1731	   16.00	   16.70	 -293.45	   10.72
     96.2065	    7.00	   16.71	 -302.46	   10.70
     96.2400	   14.00	   16.72	 -295.47	   10.69
     96.2734	   15.00	   16.74	 -294.49	   10.68
     96.3068	   19.00	   16.76	 -290.51	   10.66
     96.3402	   16.00	   16.78	 -293.53	   10.65
     96.3736	   18.00	   16.81	 -291.56	   10.64
     96.4071	   18.00	   16.84	 -291.59	   10.62
     96.4405	   20.00	   16.88	 -289.63	   10.61
     96.4739	   16.00	   16.92	 -293.67	   10.59
     96.5073	   18.00	   16.97	 -291.72	   10.58
     96.5408	   23.00	   17.02	 -286.77	   10.57
     96.5742	   21.00	   17.08	 -288.83	   10.55
     96.6076	   24.00	   17.14	 -285.89	   10.54
     96.6410	   17.00	   17.21	 -292.96	   10.52
     96.6745	   15.00	   17.29	 -295.04	   10.51
     96.7079	   21.00	   17.37	 -289.12	   10.49
     96.7413	   22.00	   17.46	 -288.21	   10.48
     96.7747	   16.00	   17.55	 -294.30	   10.47
     96.8081	   16.00	   17.64	 -294.39	   10.45
     96.8416	   20.00	   17.74	 -290.49	   10.44
     96.8750	   18.00	   17.84	 -292.59	   10.42
     96.9084	   34.00	   17.95	 -276.70	   10.41
     96.9418	   21.00	   18.06	 -289.81	   10.39
     96.9753	   17.00	   18.18	 -293.93	   10.38
     97.0087	   24.00	   18.31	 -287.06	   10.36
     97.0421	   22.00	   18.45	 -289.20	   10.35
     97.0755	   21.00	   18.60	 -290.35	   10.33
     97.1089	   19.00	   18.77	 -292.52	   10.32
     97.1424	   20.00	   18.95	 -291.70	   10.30
     97.1758	   20.00	   19.14	 -291.89	   10.29
     97.2092	   23.00	   19.36	 -289.11	   10.27
     97.2426	   22.00	   19.59	 -290.34	   10.26
     97.2761	   25.00	   19.85	 -287.60	   10.24
     97.3095	   29.00	   20.13	 -283.88	   10.23
     97.3429	   23.00	   20.44	 -290.19	   10.21
     97.3763	   33.00	   20.78	 -280.53	   10.20
     97.4097	   15.00	   21.14	 -298.89	   10.18
     97.4432	   22.00	   21.56	 -292.31	   10.17
     97.4766	   34.00	   22.03	 -280.78	   10.15
     97.5100	   35.00	   22.55	 -280.30	   10.13
     97.5434	   39.00	   23.13	 -276.88	   10.12
     97.5769	   30.00	   23.78	 -286.53	   10.10
     97.6103	   34.00	   24.51	 -283.26	   10.09
     97.6437	   32.00	   25.32	 -286.07	   10.07
     97.6771	   30.00	   26.24	 -288.99	   10.06
     97.7105	   29.00	   27.27	 -291.02	   10.04
     97.7440	   42.00	   28.44	 -279.19	   10.02
     97.7774	   28.00	   29.76	 -294.51	   10.01
     97.8108	   32.00	   31.25	 -292.00	    9.99
     97.8442	   44.00	   32.95	 -281.70	    9.98
     97.8777	   43.00	   34.85	 -284.60	    9.96
     97.9111	   45.00	   37.00	 -284.75	    9.94
     97.9445	   45.00	   39.41	 -287.16	    9.93
     97.9779	   56.00	   42.09	 -278.84	    9.91
     98.0114	   45.00	   45.04	 -292.79	    9.89
     98.0448	   65.00	   48.22	 -275.97	    9.88
     98.0782	   65.00	   51.58	 -279.33	    9.86
     98.1116	   73.00	   55.01	 -274.76	    9.85
     98.1450	   55.00	   58.35	 -296.10	    9.83
     98.1785	   71.00	   61.42	 -283.17	    9.81
     98.2119	   75.00	   64.00	 -281.75	    9.80
     98.2453	   66.00	   65.94	 -292.69	    9.78
     98.2787	   84.00	   67.14	 -275.89	    9.76
     98.3122	   89.00	   67.62	 -271.37	    9.75
     98.3456	   90.00	   67.50	 -270.25	    9.73
     98.3790	   87.00	   66.97	 -272.72	    9.71
     98.4124	   76.00	   66.19	 -282.94	    9.69
     98.4458	   87.00	   65.31	 -271.06	    9.68
     98.4793	   64.00	   64.41	 -293.16	    9.66
     98.5127	   56.00	   63.50	 -300.25	    9.64
     98.5461	   72.00	   62.54	 -283.29	    9.63
     98.5795	   82.00	   61.49	 -272.24	    9.61
     98.6130	   78.00	   60.34	 -275.09	    9.59
     98.6464	   68.00	   59.12	 -283.87	    9.57
     98.6798	   82.00	   57.89	 -268.64	    9.56
     98.7132	   77.00	   56.75	 -272.50	    9.54
     98.7467	   78.00	   55.80	 -270.55	    9.52
     98.7801	   74.00	   55.13	 -273.88	    9.50
     98.8135	   70.00	   54.77	 -277.52	    9.49
     98.8469	   78.00	   54.74	 -269.49	    9.47
     98.8803	   71.00	   55.02	 -276.77	    9.45
     98.9138	   82.00	   55.52	 -266.27	    9.43
     98.9472	   70.00	   56.13	 -278.88	    9.42
     98.9806	   60.00	   56.72	 -289.47	    9.40
     99.0140	   72.00	   57.12	 -277.87	    9.38
     99.0474	   76.00	   57.21	 -273.96	    9.36
     99.0809	   68.00	   56.91	 -281.66	    9.34
     99.1143	   71.00	   56.20	 -277.95	    9.33
     99.1477	   68.00	   55.14	 -279.89	    9.31
     99.1811	   68.00	   53.85	 -278.60	    9.29
     99.2146	   71.00	   52.42	 -274.17	    9.27
     99.2480	   57.00	   50.94	 -286.69	    9.25
     99.2814	   62.00	   49.46	 -280.21	    9.24
     99.3148	   51.00	   47.97	 -289.72	    9.22
     99.3483	   73.00	   46.44	 -266.19	    9.20
     99.3817	   54.00	   44.83	 -283.58	    9.18
     99.4151	   41.00	   43.11	 -294.86	    9.16
     99.4485	   65.00	   41.28	 -269.03	    9.14
     99.4819	   42.00	   39.36	 -290.11	    9.12
     99.5154	   45.00	   37.41	 -285.16	    9.11
     99.5488	   47.00	   35.48	 -281.23	    9.09
     99.5822	   48.00	   33.63	 -278.38	    9.07
     99.6156	   46.00	   31.88	 -278.63	    9.05
     99.6491	   61.00	   30.26	 -262.01	    9.03
     99.6825	   44.00	   28.78	 -277.53	    9.01
     99.7159	   31.00	   27.45	 -289.20	    8.99
     99.7493	   29.00	   26.25	 -290.00	    8.97
     99.7827	   36.00	   25.18	 -281.93	    8.95
     99.8162	   28.00	   24.22	 -288.97	    8.93
     99.8496	   30.00	   23.37	 -286.12	    8.92
     99.8830	   31.00	   22.61	 -284.36	    8.90
     99.9164	   33.00	   21.94	 -281.69	    8.88
     99.9499	   31.00	   21.34	 -283.09	    8.86
     99.9833	   38.00	   20.85	 -275.60	    8.84
     15.8821	        	        	        	        	       0	(  0  1  0)	  0  1 :  1
     15.9215	        	        	        	        	       0	(  0  1  0)	  0  2 :  1
     27.7141	        	        	        	        	       0	(  1  1  0)	  0  1 :  1
     27.7837	        	        	        	        	       0	(  1  1  0)	  0  2 :  1
     28.7011	        	        	        	        	       0	(  0  1  1)	  0  1 :  1
     28.7733	        	        	        	        	       0	(  0  1  1)	  0  2 :  1
     32.1144	        	        	        	        	       0	(  0  2  0)	  0  1 :  1
     32.1956	        	        	        	        	       0	(  0  2  0)	  0  2 :  1
     36.8176	        	        	        	        	       0	(  1  1  1)	  0  1 :  1
     36.9115	        	        	        	        	       0	(  1  1  1)	  0  2 :  1
     40.3375	        	        	        	        	       0	(  0  2  1)	  0  1 :  1
     40.4411	        	        	        	        	       0	(  0  2  1)	  0  2 :  1
     42.9384	        	        	        	        	       0	(  1  2  0)	  0  1 :  1
     42.9384	        	        	        	        	       0	(  2  1  0)	  0  1 :  1
     43.0494	        	        	        	        	       0	(  1  2  0)	  0  2 :  1
     43.0494	        	        	        	        	       0	(  2  1  0)	  0  2 :  1
     48.6093	        	        	        	        	       0	(  0  0  2)	  0  1 :  1
     48.7367	        	        	        	        	       0	(  0  0  2)	  0  2 :  1
     49.0448	        	        	        	        	       0	(  0  3  0)	  0  1 :  1
     49.1736	        	        	        	        	       0	(  0  3  0)	  0  2 :  1
     49.6601	        	        	        	        	       0	(  1  2  1)	  0  1 :  1
     49.6601	        	        	        	        	       0	(  2  1  1)	  0  1 :  1
     49.7907	        	        	        	        	       0	(  1  2  1)	  0  2 :  1
     49.7907	        	        	        	        	       0	(  2  1  1)	  0  2 :  1
     51.4733	        	        	        	        	       0	(  0  1  2)	  0  1 :  1
     51.6094	        	        	        	        	       0	(  0  1  2)	  0  2 :  1
     55.2014	        	        	        	        	       0	(  0  3  1)	  0  1 :  1
     55.3489	        	        	        	        	       0	(  0  3  1)	  0  2 :  1
     56.8899	        	        	        	        	       0	(  1  1  2)	  0  1 :  1
     57.0428	        	        	        	        	       0	(  1  1  2)	  0  2 :  1
     57.2806	        	        	        	        	       0	(  2  2  0)	  0  1 :  1
     57.4347	        	        	        	        	       0	(  2  2  0)	  0  2 :  1
     59.4738	        	        	        	        	       0	(  0  2  2)	  0  1 :  1
     59.6351	        	        	        	        	       0	(  0  2  2)	  0  2 :  1
     59.8538	        	        	        	        	       0	(  1  3  0)	  0  1 :  1
     59.8538	        	        	        	        	       0	(  3  1  0)	  0  1 :  1
     60.0163	        	        	        	        	       0	(  1  3  0)	  0  2 :  1
     60.0163	        	        	        	        	       0	(  3  1  0)	  0  2 :  1
     62.8874	        	        	        	        	       0	(  2  2  1)	  0  1 :  1
     63.0600	        	        	        	        	       0	(  2  2  1)	  0  2 :  1
     65.3282	        	        	        	        	       0	(  1  3  1)	  0  1 :  1
     65.3282	        	        	        	        	       0	(  3  1  1)	  0  1 :  1
     65.5092	        	        	        	        	       0	(  1  3  1)	  0  2 :  1
     65.5092	        	        	        	        	       0	(  3  1  1)	  0  2 :  1
     66.8605	        	        	        	        	       0	(  1  2  2)	  0  1 :  1
     66.8605	        	        	        	        	       0	(  2  1  2)	  0  1 :  1
     67.0468	        	        	        	        	       0	(  1  2  2)	  0  2 :  1
     67.0468	        	        	        	        	       0	(  2  1  2)	  0  2 :  1
     67.2167	        	        	        	        	       0	(  0  4  0)	  0  1 :  1
     67.4042	        	        	        	        	       0	(  0  4  0)	  0  2 :  1
     71.5591	        	        	        	        	       0	(  0  3  2)	  0  1 :  1
     71.7626	        	        	        	        	       0	(  0  3  2)	  0  2 :  1
     72.3951	        	        	        	        	       0	(  0  4  1)	  0  1 :  1
     72.6017	        	        	        	        	       0	(  0  4  1)	  0  2 :  1
     74.2002	        	        	        	        	       0	(  2  3  0)	  0  1 :  1
     74.2002	        	        	        	        	       0	(  3  2  0)	  0  1 :  1
     74.4137	        	        	        	        	       0	(  2  3  0)	  0  2 :  1
     74.4137	        	        	        	        	       0	(  3  2  0)	  0  2 :  1
     78.3842	        	        	        	        	       0	(  2  2  2)	  0  1 :  1
     78.5260	        	        	        	        	       0	(  0  1  3)	  0  1 :  1
     78.6143	        	        	        	        	       0	(  2  2  2)	  0  2 :  1
     78.7188	        	        	        	        	       0	(  1  4  0)	  0  1 :  1
     78.7188	        	        	        	        	       0	(  4  1  0)	  0  1 :  1
     78.7568	        	        	        	        	       0	(  0  1  3)	  0  2 :  1
     78.9504	        	        	        	        	       0	(  1  4  0)	  0  2 :  1
     78.9504	        	        	        	        	       0	(  4  1  0)	  0  2 :  1
     79.1946	        	        	        	        	       0	(  2  3  1)	  0  1 :  1
     79.1946	        	        	        	        	       0	(  3  2  1)	  0  1 :  1
     79.4282	        	        	        	        	       0	(  2  3  1)	  0  2 :  1
     79.4282	        	        	        	        	       0	(  3  2  1)	  0  2 :  1
     80.6177	        	        	        	        	       0	(  1  3  2)	  0  1 :  1
     80.6177	        	        	        	        	       0	(  3  1  2)	  0  1 :  1
     80.8572	        	        	        	        	       0	(  1  3  2)	  0  2 :  1
     80.8572	        	        	        	        	       0	(  3  1  2)	  0  2 :  1
     82.9770	        	        	        	        	       0	(  1  1  3)	  0  1 :  1
     83.2267	        	        	        	        	       0	(  1  1  3)	  0  2 :  1
     83.6376	        	        	        	        	       0	(  1  4  1)	  0  1 :  1
     83.6376	        	        	        	        	       0	(  4  1  1)	  0  1 :  1
     83.8902	        	        	        	        	       0	(  1  4  1)	  0  2 :  1
     83.8902	        	        	        	        	       0	(  4  1  1)	  0  2 :  1
     85.1850	        	        	        	        	       0	(  0  2  3)	  0  1 :  1
     85.4446	        	        	        	        	       0	(  0  2  3)	  0  2 :  1
     87.2468	        	        	        	        	       0	(  0  4  2)	  0  1 :  1
     87.5159	        	        	        	        	       0	(  0  4  2)	  0  2 :  1
     87.5752	        	        	        	        	       0	(  0  5  0)	  0  1 :  1
     87.8458	        	        	        	        	       0	(  0  5  0)	  0  2 :  1
     91.7795	        	        	        	        	       0	(  1  2  3)	  0  1 :  1
     91.7795	        	        	        	        	       0	(  2  1  3)	  0  1 :  1
     91.9687	        	        	        	        	       0	(  3  3  0)	  0  1 :  1
     92.0709	        	        	        	        	       0	(  1  2  3)	  0  2 :  1
     92.0709	        	        	        	        	       0	(  2  1  3)	  0  2 :  1
     92.2610	        	        	        	        	       0	(  3  3  0)	  0  2 :  1
     92.4361	        	        	        	        	       0	(  0  5  1)	  0  1 :  1
     92.7308	        	        	        	        	       0	(  0  5  1)	  0  2 :  1
     93.8394	        	        	        	        	       0	(  2  3  2)	  0  1 :  1
     93.8394	        	        	        	        	       0	(  3  2  2)	  0  1 :  1
     94.1414	        	        	        	        	       0	(  2  3  2)	  0  2 :  1
     94.1414	        	        	        	        	       0	(  3  2  2)	  0  2 :  1
     94.1682	        	        	        	        	       0	(  2  4  0)	  0  1 :  1
     94.1682	        	        	        	        	       0	(  4  2  0)	  0  1 :  1
     94.4721	        	        	        	        	       0	(  2  4  0)	  0  2 :  1
     94.4721	        	        	        	        	       0	(  4  2  0)	  0  2 :  1
     96.1838	        	        	        	        	       0	(  0  3  3)	  0  1 :  1
     96.4986	        	        	        	        	       0	(  0  3  3)	  0  2 :  1
     96.8442	        	        	        	        	       0	(  3  3  1)	  0  1 :  1
     97.1626	        	        	        	        	       0	(  3  3  1)	  0  2 :  1
     98.2577	        	        	        	        	       0	(  1  4  2)	  0  1 :  1
     98.2577	        	        	        	        	       0	(  4  1  2)	  0  1 :  1
     98.5842	        	        	        	        	       0	(  1  4  2)	  0  2 :  1
     98.5842	        	        	        	        	       0	(  4  1  2)	  0  2 :  1
     99.0620	        	        	        	        	       0	(  2  4  1)	  0  1 :  1
     99.0620	        	        	        	        	       0	(  4  2  1)	  0  1 :  1
     99.3932	        	        	        	        	       0	(  2  4  1)	  0  2 :  1
     99.3932	        	        	        	        	       0	(  4  2  1)	  0  2 :  1
    100.8177	        	        	        	        	       0	(  1  5  0)	  0  1 :  1
    100.8177	        	        	        	        	       0	(  5  1  0)	  0  1 :  1
    101.1594	        	        	        	        	       0	(  1  5  0)	  0  2 :  1
    101.1594	        	        	        	        	       0	(  5  1  0)	  0  2 :  1
    102.8689	        	        	        	        	       0	(  2  2  3)	  0  1 :  1
    103.2233	        	        	        	        	       0	(  2  2  3)	  0  2 :  1
    105.1327	        	        	        	        	       0	(  1  3  3)	  0  1 :  1
    105.1327	        	        	        	        	       0	(  3  1  3)	  0  1 :  1
    105.5020	        	        	        	        	       0	(  1  3  3)	  0  2 :  1
    105.5020	        	        	        	        	       0	(  3  1  3)	  0  2 :  1
    105.8136	        	        	        	        	       0	(  1  5  1)	  0  1 :  1
    105.8136	        	        	        	        	       0	(  5  1  1)	  0  1 :  1
    106.1874	        	        	        	        	       0	(  1  5  1)	  0  2 :  1
    106.1874	        	        	        	        	       0	(  5  1  1)	  0  2 :  1
    107.2754	        	        	        	        	       0	(  0  5  2)	  0  1 :  1
    107.6594	        	        	        	        	       0	(  0  5  2)	  0  2 :  1
    110.8829	        	        	        	        	       0	(  0  0  4)	  0  1 :  1
    111.2935	        	        	        	        	       0	(  0  0  4)	  0  2 :  1
    111.9402	        	        	        	        	       0	(  3  3  2)	  0  1 :  1
    112.0901	        	        	        	        	       0	(  0  4  3)	  0  1 :  1
    112.2943	        	        	        	        	       0	(  0  6  0)	  0  1 :  1
    112.3590	        	        	        	        	       0	(  3  3  2)	  0  2 :  1
    112.5102	        	        	        	        	       0	(  0  4  3)	  0  2 :  1
    112.7160	        	        	        	        	       0	(  0  6  0)	  0  2 :  1
    113.2533	        	        	        	        	       0	(  0  1  4)	  0  1 :  1
    113.6827	        	        	        	        	       0	(  0  1  4)	  0  2 :  1
    114.3290	        	        	        	        	       0	(  2  4  2)	  0  1 :  1
    114.3290	        	        	        	        	       0	(  4  2  2)	  0  1 :  1
    114.6896	        	        	        	        	       0	(  3  4  0)	  0  1 :  1
    114.6896	        	        	        	        	       0	(  4  3  0)	  0  1 :  1
    114.7674	        	        	        	        	       0	(  2  4  2)	  0  2 :  1
    114.7674	        	        	        	        	       0	(  4  2  2)	  0  2 :  1
    115.1311	        	        	        	        	       0	(  3  4  0)	  0  2 :  1
    115.1311	        	        	        	        	       0	(  4  3  0)	  0  2 :  1
    117.6581	        	        	        	        	       0	(  0  6  1)	  0  1 :  1
    118.1259	        	        	        	        	       0	(  0  6  1)	  0  2 :  1
    118.1299	        	        	        	        	       0	(  1  1  4)	  0  1 :  1
    118.6022	        	        	        	        	       0	(  1  1  4)	  0  2 :  1
    119.4115	        	        	        	        	       0	(  2  3  3)	  0  1 :  1
    119.4115	        	        	        	        	       0	(  3  2  3)	  0  1 :  1
    119.6288	        	        	        	        	       0	(  2  5  0)	  0  1 :  1
    119.6288	        	        	        	        	       0	(  5  2  0)	  0  1 :  1
    119.8961	        	        	        	        	       0	(  2  3  3)	  0  2 :  1
    119.8961	        	        	        	        	       0	(  3  2  3)	  0  2 :  1
    120.1155	        	        	        	        	       0	(  2  5  0)	  0  2 :  1
    120.1155	        	        	        	        	       0	(  5  2  0)	  0  2 :  1
    120.1677	        	        	        	        	       0	(  3  4  1)	  0  1 :  1
    120.1677	        	        	        	        	       0	(  4  3  1)	  0  1 :  1
    120.6597	        	        	        	        	       0	(  3  4  1)	  0  2 :  1
    120.6597	        	        	        	        	       0	(  4  3  1)	  0  2 :  1
    120.6513	        	        	        	        	       0	(  0  2  4)	  0  1 :  1
    121.1482	        	        	        	        	       0	(  0  2  4)	  0  2 :  1
    121.8024	        	        	        	        	       0	(  1  5  2)	  0  1 :  1
    121.8024	        	        	        	        	       0	(  5  1  2)	  0  1 :  1
    122.3112	        	        	        	        	       0	(  1  5  2)	  0  2 :  1
    122.3113	        	        	        	        	       0	(  5  1  2)	  0  2 :  1
    124.5940	        	        	        	        	       0	(  1  4  3)	  0  1 :  1
    124.5940	        	        	        	        	       0	(  4  1  3)	  0  1 :  1
    125.1336	        	        	        	        	       0	(  1  4  3)	  0  2 :  1
    125.1336	        	        	        	        	       0	(  4  1  3)	  0  2 :  1
    125.3951	        	        	        	        	       0	(  2  5  1)	  0  1 :  1
    125.3951	        	        	        	        	       0	(  5  2  1)	  0  1 :  1
    125.9441	        	        	        	        	       0	(  2  5  1)	  0  2 :  1
    125.9441	        	        	        	        	       0	(  5  2  1)	  0  2 :  1
    128.6698	        	        	        	        	       0	(  1  2  4)	  0  1 :  1
    128.6698	        	        	        	        	       0	(  2  1  4)	  0  1 :  1
    129.2599	        	        	        	        	       0	(  1  2  4)	  0  2 :  1
    129.2599	        	        	        	        	       0	(  2  1  4)	  0  2 :  1
