 Nd hydroxide   Chi2:  2.4045  CELL:    6.42478   6.42478   3.73895   90.0000   90.0000  120.0000   SPGR: P 63/m                 TEMP:      0.00
  1   2693     1.54060     1.54439     0.00000     0.06716     0.00000    0
   170     0     1
       0.00000      14.00000
 2Theta	Yobs	Ycal	Yobs-Ycal	Backg	Posr	(hkl)	K
     10.0098	  242.00	  121.67	 -549.27	  120.62
     10.0432	  210.00	  121.48	 -549.27	  120.43
     10.0767	  232.00	  121.29	 -549.27	  120.24
     10.1101	  211.00	  121.10	 -549.27	  120.06
     10.1435	  237.00	  120.92	 -549.27	  119.87
     10.1769	  256.00	  120.73	 -549.27	  119.68
     10.2103	  232.00	  120.54	 -549.27	  119.49
     10.2438	  296.00	  120.36	 -549.27	  119.31
     10.2772	  259.00	  120.17	 -549.27	  119.12
     10.3106	  207.00	  119.98	 -549.27	  118.94
     10.3440	  244.00	  119.80	 -549.27	  118.75
     10.3775	  238.00	  119.61	 -549.27	  118.56
     10.4109	  232.00	  119.43	 -549.27	  118.38
     10.4443	  234.00	  119.24	 -549.27	  118.19
     10.4777	  213.00	  119.06	 -549.27	  118.01
     10.5111	  229.00	  118.87	 -549.27	  117.82
     10.5446	  247.00	  118.69	 -549.27	  117.64
     10.5780	  245.00	  118.50	 -549.27	  117.45
     10.6114	  251.00	  118.32	 -549.27	  117.27
     10.6448	  219.00	  118.13	 -549.27	  117.08
     10.6783	  255.00	  117.95	 -549.27	  116.90
     10.7117	  247.00	  117.77	 -549.27	  116.72
     10.7451	  232.00	  117.58	 -549.27	  116.53
     10.7785	  253.00	  117.40	 -549.27	  116.35
     10.8120	  240.00	  117.22	 -549.27	  116.17
     10.8454	  236.00	  117.03	 -549.27	  115.98
     10.8788	  227.00	  116.85	 -549.27	  115.80
     10.9122	  217.00	  116.67	 -549.27	  115.62
     10.9456	  227.00	  116.48	 -549.27	  115.44
     10.9791	  202.00	  116.30	 -549.27	  115.25
     11.0125	  219.00	  116.12	 -549.27	  115.07
     11.0459	  173.00	  115.94	 -549.27	  114.89
     11.0793	  221.00	  115.76	 -549.27	  114.71
     11.1128	  206.00	  115.58	 -549.27	  114.53
     11.1462	  198.00	  115.40	 -549.27	  114.35
     11.1796	  238.00	  115.21	 -549.27	  114.17
     11.2130	  213.00	  115.03	 -549.27	  113.99
     11.2464	  200.00	  114.85	 -549.27	  113.80
     11.2799	  219.00	  114.67	 -549.27	  113.62
     11.3133	  213.00	  114.49	 -549.27	  113.44
     11.3467	  209.00	  114.31	 -549.27	  113.26
     11.3801	  218.00	  114.13	 -549.27	  113.08
     11.4136	  170.00	  113.95	 -549.27	  112.91
     11.4470	  226.00	  113.77	 -549.27	  112.73
     11.4804	  208.00	  113.60	 -549.27	  112.55
     11.5138	  217.00	  113.42	 -549.27	  112.37
     11.5472	  194.00	  113.24	 -549.27	  112.19
     11.5807	  209.00	  113.06	 -549.27	  112.01
     11.6141	  207.00	  112.88	 -549.27	  111.83
     11.6475	  195.00	  112.70	 -549.27	  111.65
     11.6809	  218.00	  112.53	 -549.27	  111.48
     11.7144	  209.00	  112.35	 -549.27	  111.30
     11.7478	  210.00	  112.17	 -549.27	  111.12
     11.7812	  209.00	  111.99	 -549.27	  110.94
     11.8146	  202.00	  111.82	 -549.27	  110.77
     11.8481	  216.00	  111.64	 -549.27	  110.59
     11.8815	  212.00	  111.46	 -549.27	  110.41
     11.9149	  211.00	  111.29	 -549.27	  110.24
     11.9483	  191.00	  111.11	 -549.27	  110.06
     11.9817	  176.00	  110.93	 -549.27	  109.89
     12.0152	  180.00	  110.76	 -549.27	  109.71
     12.0486	  200.00	  110.58	 -549.27	  109.53
     12.0820	  175.00	  110.41	 -549.27	  109.36
     12.1154	  192.00	  110.23	 -549.27	  109.18
     12.1489	  190.00	  110.06	 -549.27	  109.01
     12.1823	  202.00	  109.88	 -549.27	  108.83
     12.2157	  181.00	  109.71	 -549.27	  108.66
     12.2491	  170.00	  109.53	 -549.27	  108.48
     12.2825	  203.00	  109.36	 -549.27	  108.31
     12.3160	  170.00	  109.18	 -549.27	  108.14
     12.3494	  205.00	  109.01	 -549.27	  107.96
     12.3828	  191.00	  108.84	 -549.27	  107.79
     12.4162	  191.00	  108.66	 -549.27	  107.61
     12.4497	  196.00	  108.49	 -549.27	  107.44
     12.4831	  182.00	  108.32	 -549.27	  107.27
     12.5165	  206.00	  108.14	 -549.27	  107.10
     12.5499	  195.00	  107.97	 -549.27	  106.92
     12.5833	  175.00	  107.80	 -549.27	  106.75
     12.6168	  196.00	  107.63	 -549.27	  106.58
     12.6502	  177.00	  107.45	 -549.27	  106.41
     12.6836	  176.00	  107.28	 -549.27	  106.23
     12.7170	  205.00	  107.11	 -549.27	  106.06
     12.7505	  203.00	  106.94	 -549.27	  105.89
     12.7839	  176.00	  106.77	 -549.27	  105.72
     12.8173	  162.00	  106.60	 -549.27	  105.55
     12.8507	  203.00	  106.43	 -549.27	  105.38
     12.8841	  182.00	  106.26	 -549.27	  105.21
     12.9176	  194.00	  106.08	 -549.27	  105.04
     12.9510	  183.00	  105.91	 -549.27	  104.87
     12.9844	  175.00	  105.74	 -549.27	  104.70
     13.0178	  179.00	  105.57	 -549.27	  104.53
     13.0513	  159.00	  105.40	 -549.27	  104.36
     13.0847	  186.00	  105.23	 -549.27	  104.19
     13.1181	  176.00	  105.07	 -549.27	  104.02
     13.1515	  177.00	  104.90	 -549.27	  103.85
     13.1850	  183.00	  104.73	 -549.27	  103.68
     13.2184	  178.00	  104.56	 -549.27	  103.51
     13.2518	  200.00	  104.39	 -549.27	  103.34
     13.2852	  193.00	  104.22	 -549.27	  103.17
     13.3186	  153.00	  104.05	 -549.27	  103.01
     13.3521	  176.00	  103.89	 -549.27	  102.84
     13.3855	  177.00	  103.72	 -549.27	  102.67
     13.4189	  167.00	  103.55	 -549.27	  102.50
     13.4523	  183.00	  103.38	 -549.27	  102.33
     13.4858	  216.00	  103.22	 -549.27	  102.17
     13.5192	  157.00	  103.05	 -549.27	  102.00
     13.5526	  152.00	  102.88	 -549.27	  101.83
     13.5860	  178.00	  102.72	 -549.27	  101.67
     13.6194	  197.00	  102.55	 -549.27	  101.50
     13.6529	  204.00	  102.38	 -549.27	  101.33
     13.6863	  149.00	  102.22	 -549.27	  101.17
     13.7197	  195.00	  102.05	 -549.27	  101.00
     13.7531	  169.00	  101.89	 -549.27	  100.84
     13.7866	  144.00	  101.72	 -549.27	  100.67
     13.8200	  166.00	  101.56	 -549.27	  100.51
     13.8534	  162.00	  101.39	 -549.27	  100.34
     13.8868	  172.00	  101.23	 -549.27	  100.18
     13.9202	  176.00	  101.06	 -549.27	  100.01
     13.9537	  154.00	  100.90	 -549.27	   99.85
     13.9871	  149.00	  100.73	 -549.27	   99.68
     14.0205	  167.00	  106.48	 -488.76	   99.52
     14.0539	  173.00	  106.52	 -482.80	   99.36
     14.0874	  195.00	  106.58	 -460.85	   99.19
     14.1208	  145.00	  106.64	 -510.91	   99.03
     14.1542	  171.00	  106.72	 -484.99	   98.87
     14.1876	  155.00	  106.81	 -501.08	   98.70
     14.2211	  159.00	  106.91	 -497.18	   98.54
     14.2545	  175.00	  107.03	 -481.30	   98.38
     14.2879	  166.00	  107.17	 -490.44	   98.21
     14.3213	  145.00	  107.32	 -511.60	   98.05
     14.3547	  169.00	  107.50	 -487.77	   97.89
     14.3882	  184.00	  107.69	 -472.97	   97.73
     14.4216	  177.00	  107.91	 -480.19	   97.57
     14.4550	  166.00	  108.16	 -491.43	   97.40
     14.4884	  178.00	  108.43	 -479.70	   97.24
     14.5219	  162.00	  108.73	 -496.01	   97.08
     14.5553	  142.00	  109.07	 -516.34	   96.92
     14.5887	  163.00	  109.44	 -495.71	   96.76
     14.6221	  168.00	  109.85	 -491.12	   96.60
     14.6555	  162.00	  110.30	 -497.57	   96.44
     14.6890	  169.00	  110.80	 -491.07	   96.28
     14.7224	  158.00	  111.35	 -502.62	   96.12
     14.7558	  162.00	  111.96	 -499.23	   95.96
     14.7892	  133.00	  112.63	 -528.91	   95.80
     14.8227	  170.00	  113.38	 -492.65	   95.64
     14.8561	  156.00	  114.21	 -507.48	   95.48
     14.8895	  167.00	  115.12	 -497.40	   95.32
     14.9229	  145.00	  116.14	 -520.41	   95.16
     14.9563	  148.00	  117.27	 -518.55	   95.00
     14.9898	  163.00	  118.53	 -504.81	   94.85
     15.0232	  162.00	  119.94	 -507.21	   94.69
     15.0566	  164.00	  121.52	 -506.79	   94.53
     15.0900	  144.00	  123.28	 -528.56	   94.37
     15.1235	  163.00	  125.27	 -511.55	   94.21
     15.1569	  136.00	  127.52	 -540.79	   94.06
     15.1903	  172.00	  130.07	 -507.34	   93.90
     15.2237	  166.00	  132.96	 -516.24	   93.74
     15.2571	  167.00	  136.27	 -518.55	   93.58
     15.2906	  154.00	  140.07	 -535.35	   93.43
     15.3240	  173.00	  144.46	 -520.74	   93.27
     15.3574	  169.00	  149.56	 -529.83	   93.11
     15.3908	  181.00	  155.52	 -523.80	   92.96
     15.4243	  195.00	  162.54	 -516.81	   92.80
     15.4577	  202.00	  170.87	 -518.15	   92.65
     15.4911	  216.00	  180.86	 -514.14	   92.49
     15.5245	  224.00	  192.95	 -518.22	   92.33
     15.5580	  213.00	  207.75	 -544.02	   92.18
     15.5914	  261.00	  226.11	 -514.39	   92.02
     15.6248	  235.00	  249.26	 -563.53	   91.87
     15.6582	  249.00	  278.99	 -579.26	   91.71
     15.6916	  319.00	  318.13	 -548.40	   91.56
     15.7251	  290.00	  371.20	 -630.47	   91.41
     15.7585	  424.00	  445.48	 -570.75	   91.25
     15.7919	  497.00	  552.28	 -604.56	   91.10
     15.8253	  633.00	  707.95	 -624.23	   90.94
     15.8588	  825.00	  933.22	 -657.49	   90.79
     15.8922	 1171.00	 1246.70	 -624.97	   90.64
     15.9256	 1546.00	 1639.79	 -643.06	   90.48
     15.9590	 1718.00	 2020.02	 -851.30	   90.33
     15.9924	 1849.00	 2197.10	 -897.37	   90.18
     16.0259	 1816.00	 2056.15	 -789.43	   90.03
     16.0593	 1528.00	 1697.43	 -718.71	   89.87
     16.0927	 1176.00	 1302.46	 -675.73	   89.72
     16.1261	  932.00	  976.23	 -593.51	   89.57
     16.1596	  700.00	  738.03	 -587.31	   89.42
     16.1930	  551.00	  572.31	 -570.59	   89.26
     16.2264	  419.00	  458.44	 -588.71	   89.11
     16.2598	  365.00	  379.35	 -563.62	   88.96
     16.2932	  304.00	  323.03	 -568.30	   88.81
     16.3267	  286.00	  281.63	 -544.90	   88.66
     16.3601	  225.00	  250.26	 -574.53	   88.51
     16.3935	  236.00	  225.87	 -539.14	   88.36
     16.4269	  205.00	  206.51	 -550.78	   88.21
     16.4604	  204.00	  190.89	 -536.16	   88.06
     16.4938	  171.00	  178.10	 -556.37	   87.91
     16.5272	  154.00	  167.50	 -562.77	   87.76
     16.5606	  193.00	  158.62	 -514.89	   87.61
     16.5941	  167.00	  151.10	 -533.37	   87.46
     16.6275	  141.00	  144.68	 -552.95	   87.31
     16.6609	  144.00	  139.15	 -544.42	   87.16
     16.6943	  144.00	  134.35	 -539.62	   87.01
     16.7277	  142.00	  130.15	 -537.42	   86.86
     16.7612	  119.00	  126.46	 -556.74	   86.71
     16.7946	  151.00	  123.20	 -521.47	   86.57
     16.8280	  116.00	  120.29	 -553.57	   86.42
     16.8614	  128.00	  117.70	 -538.97	   86.27
     16.8949	  126.00	  115.36	 -538.64	   86.12
     16.9283	  140.00	  113.26	 -522.53	   85.97
     16.9617	  116.00	  111.35	 -544.62	   85.83
     16.9951	  114.00	  109.61	 -544.88	   85.68
     17.0285	  124.00	  108.02	 -533.29	   85.53
     17.0620	  128.00	  106.56	 -527.84	   85.38
     17.0954	  122.00	  105.22	 -532.49	   85.24
     17.1288	  112.00	  103.98	 -541.26	   85.09
     17.1622	  121.00	  102.84	 -531.11	   84.95
     17.1957	  111.00	  101.77	 -540.05	   84.80
     17.2291	  115.00	  100.78	 -535.06	   84.65
     17.2625	  119.00	   99.86	 -530.13	   84.51
     17.2959	   97.00	   98.99	 -551.26	   84.36
     17.3293	  118.00	   98.18	 -529.45	   84.22
     17.3628	   95.00	   97.41	 -551.69	   84.07
     17.3962	  113.00	   96.69	 -532.96	   83.93
     17.4296	  114.00	   96.01	 -531.28	   83.78
     17.4630	   99.00	   95.36	 -545.64	   83.64
     17.4965	  124.00	   94.75	 -520.02	   83.49
     17.5299	  110.00	   94.17	 -533.44	   83.35
     17.5633	  113.00	   93.61	 -529.89	   83.20
     17.5967	  119.00	   93.08	 -523.36	   83.06
     17.6301	  112.00	   92.58	 -529.85	   82.91
     17.6636	   97.00	   92.09	 -544.37	   82.77
     17.6970	  114.00	   91.63	 -526.91	   82.63
     17.7304	  109.00	   91.19	 -531.46	   82.48
     17.7638	  109.00	   90.76	 -531.03	   82.34
     17.7973	  104.00	   90.34	 -535.62	   82.20
     17.8307	   89.00	   89.95	 -550.22	   82.06
     17.8641	   98.00	   89.56	 -540.84	   81.91
     17.8975	   89.00	   89.19	 -549.46	   81.77
     17.9310	   89.00	   88.83	 -549.10	   81.63
     17.9644	  105.00	   88.48	 -532.76	   81.49
     17.9978	  112.00	   88.14	 -525.42	   81.34
     18.0312	  110.00	   87.82	 -527.09	   81.20
     18.0646	   84.00	   87.50	 -552.77	   81.06
     18.0981	  102.00	   87.19	 -534.46	   80.92
     18.1315	  114.00	   86.88	 -522.16	   80.78
     18.1649	  100.00	   86.59	 -535.86	   80.64
     18.1983	  102.00	   86.30	 -533.57	   80.50
     18.2318	   88.00	   86.02	 -547.29	   80.36
     18.2652	  101.00	   85.74	 -534.02	   80.22
     18.2986	   96.00	   85.47	 -538.75	   80.08
     18.3320	   95.00	   85.21	 -539.49	   79.94
     18.3654	   94.00	   84.95	 -540.23	   79.80
     18.3989	   96.00	   84.70	 -537.97	   79.66
     18.4323	   85.00	   84.45	 -548.73	   79.52
     18.4657	   86.00	   84.21	 -547.48	   79.38
     18.4991	  105.00	   83.97	 -528.24	   79.24
     18.5326	  100.00	   83.73	 -533.01	   79.10
     18.5660	   87.00	   83.50	 -545.78	   78.96
     18.5994	  104.00	   83.27	 -528.55	   78.82
     18.6328	   92.00	   83.05	 -540.33	   78.68
     18.6662	   96.00	   82.83	 -536.10	   78.55
     18.6997	   98.00	   82.61	 -533.89	   78.41
     18.7331	   96.00	   82.40	 -535.67	   78.27
     18.7665	   75.00	   82.19	 -556.46	   78.13
     18.7999	   92.00	   81.98	 -539.25	   77.99
     18.8334	   99.00	   81.77	 -532.05	   77.86
     18.8668	   85.00	   81.57	 -545.84	   77.72
     18.9002	  106.00	   81.37	 -524.64	   77.58
     18.9336	   75.00	   81.17	 -555.44	   77.45
     18.9671	   83.00	   80.97	 -547.25	   77.31
     19.0005	   85.00	   80.78	 -545.05	   77.17
     19.0339	   76.00	   80.59	 -553.86	   77.04
     19.0673	   73.00	   80.40	 -556.67	   76.90
     19.1007	   91.00	   80.21	 -538.48	   76.76
     19.1342	   73.00	   80.02	 -556.30	   76.63
     19.1676	   97.00	   79.84	 -532.11	   76.49
     19.2010	   96.00	   79.65	 -532.93	   76.36
     19.2344	   86.00	   79.47	 -542.75	   76.22
     19.2679	   66.00	   79.29	 -562.57	   76.09
     19.3013	   72.00	   79.11	 -556.39	   75.95
     19.3347	   89.00	   78.94	 -539.21	   75.82
     19.3681	   76.00	   78.76	 -552.04	   75.68
     19.4015	   98.00	   78.59	 -529.86	   75.55
     19.4350	   99.00	   78.42	 -528.69	   75.41
     19.4684	  100.00	   78.24	 -527.52	   75.28
     19.5018	   79.00	   78.07	 -548.35	   75.15
     19.5352	   92.00	   77.91	 -535.18	   75.01
     19.5687	   68.00	   77.74	 -559.01	   74.88
     19.6021	   84.00	   77.57	 -542.85	   74.75
     19.6355	   89.00	   77.41	 -537.68	   74.61
     19.6689	   74.00	   77.24	 -552.51	   74.48
     19.7023	   74.00	   77.08	 -552.35	   74.35
     19.7358	   74.00	   76.91	 -552.19	   74.21
     19.7692	   74.00	   76.75	 -552.03	   74.08
     19.8026	   86.00	   76.59	 -539.87	   73.95
     19.8360	   82.00	   74.87	 -542.14	   73.82
     19.8695	   96.00	   74.73	 -528.01	   73.69
     19.9029	   94.00	   74.60	 -529.88	   73.55
     19.9363	   95.00	   74.47	 -528.75	   73.42
     19.9697	  101.00	   74.34	 -522.61	   73.29
     20.0032	   75.00	   74.21	 -548.48	   73.16
     20.0366	   75.00	   74.08	 -548.35	   73.03
     20.0700	   86.00	   73.95	 -537.22	   72.90
     20.1034	   76.00	   73.82	 -547.09	   72.77
     20.1368	  105.00	   73.69	 -517.96	   72.64
     20.1703	   74.00	   73.55	 -548.83	   72.51
     20.2037	   75.00	   73.42	 -547.70	   72.38
     20.2371	   77.00	   73.29	 -545.57	   72.25
     20.2705	   85.00	   73.16	 -537.44	   72.12
     20.3040	   94.00	   73.04	 -528.31	   71.99
     20.3374	   94.00	   72.91	 -528.18	   71.86
     20.3708	   76.00	   72.78	 -546.05	   71.73
     20.4042	   88.00	   72.65	 -533.92	   71.60
     20.4376	   56.00	   72.52	 -565.79	   71.47
     20.4711	   68.00	   72.39	 -553.66	   71.34
     20.5045	   75.00	   72.26	 -546.54	   71.21
     20.5379	   84.00	   72.13	 -537.41	   71.08
     20.5713	   74.00	   72.00	 -547.28	   70.96
     20.6048	   52.00	   71.88	 -569.15	   70.83
     20.6382	   97.00	   71.75	 -524.02	   70.70
     20.6716	   81.00	   71.62	 -539.89	   70.57
     20.7050	   72.00	   71.49	 -548.77	   70.44
     20.7384	   73.00	   71.37	 -547.64	   70.32
     20.7719	   78.00	   71.24	 -542.51	   70.19
     20.8053	   84.00	   71.11	 -536.39	   70.06
     20.8387	   70.00	   70.98	 -550.26	   69.94
     20.8721	   69.00	   70.86	 -551.13	   69.81
     20.9056	   86.00	   70.73	 -534.00	   69.68
     20.9390	   76.00	   70.60	 -543.88	   69.56
     20.9724	   64.00	   70.48	 -555.75	   69.43
     21.0058	   75.00	   70.35	 -544.63	   69.30
     21.0392	   69.00	   70.23	 -550.50	   69.18
     21.0727	   74.00	   70.10	 -545.37	   69.05
     21.1061	   68.00	   69.97	 -551.25	   68.93
     21.1395	   63.00	   69.85	 -556.12	   68.80
     21.1729	   61.00	   69.72	 -558.00	   68.68
     21.2064	   76.00	   69.60	 -542.87	   68.55
     21.2398	   78.00	   69.47	 -540.75	   68.43
     21.2732	   60.00	   69.35	 -558.62	   68.30
     21.3066	   73.00	   69.22	 -545.50	   68.18
     21.3401	   75.00	   69.10	 -543.37	   68.05
     21.3735	   66.00	   68.98	 -552.25	   67.93
     21.4069	   75.00	   68.85	 -543.13	   67.80
     21.4403	   69.00	   68.73	 -549.00	   67.68
     21.4737	   76.00	   68.60	 -541.88	   67.56
     21.5072	   68.00	   68.48	 -549.76	   67.43
     21.5406	   68.00	   68.36	 -549.63	   67.31
     21.5740	   82.00	   68.23	 -535.51	   67.19
     21.6074	   62.00	   68.11	 -555.39	   67.06
     21.6409	   77.00	   67.99	 -540.26	   66.94
     21.6743	   61.00	   67.87	 -556.14	   66.82
     21.7077	   66.00	   67.74	 -551.02	   66.69
     21.7411	   59.00	   67.62	 -557.90	   66.57
     21.7745	   50.00	   67.50	 -566.77	   66.45
     21.8080	   76.00	   67.38	 -540.65	   66.33
     21.8414	   64.00	   67.25	 -552.53	   66.21
     21.8748	   60.00	   67.13	 -556.41	   66.08
     21.9082	   75.00	   67.01	 -541.29	   65.96
     21.9417	   49.00	   66.89	 -567.16	   65.84
     21.9751	   58.00	   66.77	 -558.04	   65.72
     22.0085	   64.00	   66.65	 -551.92	   65.60
     22.0419	   63.00	   66.53	 -552.80	   65.48
     22.0753	   76.00	   66.41	 -539.68	   65.36
     22.1088	   77.00	   66.29	 -538.56	   65.24
     22.1422	   66.00	   66.17	 -549.44	   65.12
     22.1756	   73.00	   66.05	 -542.32	   65.00
     22.2090	   69.00	   65.93	 -546.20	   64.88
     22.2425	   65.00	   65.81	 -550.08	   64.76
     22.2759	   76.00	   65.69	 -538.96	   64.64
     22.3093	   70.00	   65.57	 -544.84	   64.52
     22.3427	   55.00	   65.45	 -559.72	   64.40
     22.3762	   61.00	   65.33	 -553.60	   64.28
     22.4096	   69.00	   65.21	 -545.48	   64.16
     22.4430	   68.00	   65.09	 -546.36	   64.04
     22.4764	   69.00	   64.97	 -545.25	   63.92
     22.5098	   65.00	   64.85	 -549.13	   63.80
     22.5433	   68.00	   64.73	 -546.01	   63.69
     22.5767	   82.00	   64.62	 -531.89	   63.57
     22.6101	   69.00	   64.50	 -544.77	   63.45
     22.6435	   54.00	   64.38	 -559.65	   63.33
     22.6770	   58.00	   64.26	 -555.54	   63.21
     22.7104	   58.00	   64.15	 -555.42	   63.10
     22.7438	   50.00	   64.03	 -563.30	   62.98
     22.7772	   70.00	   63.91	 -543.18	   62.86
     22.8106	   79.00	   63.79	 -534.07	   62.75
     22.8441	   60.00	   63.68	 -552.95	   62.63
     22.8775	   60.00	   63.56	 -552.83	   62.51
     22.9109	   52.00	   63.44	 -560.72	   62.40
     22.9443	   74.00	   63.33	 -538.60	   62.28
     22.9778	   60.00	   63.21	 -552.49	   62.16
     23.0112	   60.00	   63.09	 -552.37	   62.05
     23.0446	   61.00	   62.98	 -551.25	   61.93
     23.0780	   64.00	   62.86	 -548.14	   61.81
     23.1114	   64.00	   62.75	 -548.02	   61.70
     23.1449	   56.00	   62.63	 -555.91	   61.58
     23.1783	   72.00	   62.52	 -539.79	   61.47
     23.2117	   65.00	   62.40	 -546.68	   61.35
     23.2451	   65.00	   62.29	 -546.56	   61.24
     23.2786	   50.00	   62.17	 -561.45	   61.12
     23.3120	   76.00	   62.06	 -535.33	   61.01
     23.3454	   55.00	   61.94	 -556.22	   60.89
     23.3788	   66.00	   61.83	 -545.10	   60.78
     23.4122	   76.00	   61.71	 -534.99	   60.67
     23.4457	   59.00	   61.60	 -551.88	   60.55
     23.4791	   66.00	   61.49	 -544.76	   60.44
     23.5125	   55.00	   61.37	 -555.65	   60.32
     23.5459	   66.00	   61.26	 -544.53	   60.21
     23.5794	   58.00	   61.15	 -552.42	   60.10
     23.6128	   63.00	   61.03	 -547.31	   59.99
     23.6462	   56.00	   60.92	 -554.19	   59.87
     23.6796	   62.00	   60.81	 -548.08	   59.76
     23.7131	   63.00	   60.70	 -546.97	   59.65
     23.7465	   62.00	   60.58	 -547.86	   59.53
     23.7799	   54.00	   60.47	 -555.74	   59.42
     23.8133	   62.00	   60.36	 -547.63	   59.31
     23.8467	   58.00	   60.25	 -551.52	   59.20
     23.8802	   71.00	   60.13	 -538.41	   59.09
     23.9136	   64.00	   60.02	 -545.30	   58.97
     23.9470	   56.00	   60.81	 -554.08	   58.86
     23.9804	   48.00	   60.71	 -561.99	   58.75
     24.0139	   57.00	   61.06	 -553.34	   58.64
     24.0473	   69.00	   60.98	 -541.25	   58.53
     24.0807	   48.00	   60.89	 -562.17	   58.42
     24.1141	   49.00	   60.81	 -561.08	   58.31
     24.1475	   54.00	   60.72	 -556.00	   58.20
     24.1810	   52.00	   60.64	 -557.91	   58.09
     24.2144	   70.00	   60.56	 -539.83	   57.98
     24.2478	   64.00	   60.48	 -545.75	   57.87
     24.2812	   63.00	   60.40	 -546.67	   57.76
     24.3147	   69.00	   60.32	 -540.59	   57.65
     24.3481	   66.00	   60.24	 -543.51	   57.54
     24.3815	   81.00	   60.16	 -528.43	   57.43
     24.4149	   66.00	   60.08	 -543.36	   57.32
     24.4483	   48.00	   60.01	 -561.28	   57.21
     24.4818	   61.00	   59.94	 -548.21	   57.10
     24.5152	   59.00	   59.86	 -550.14	   56.99
     24.5486	   60.00	   59.79	 -549.07	   56.88
     24.5820	   66.00	   59.72	 -543.00	   56.77
     24.6155	   48.00	   59.65	 -560.93	   56.67
     24.6489	   73.00	   59.58	 -535.86	   56.56
     24.6823	   50.00	   59.52	 -558.79	   56.45
     24.7157	   58.00	   59.45	 -550.73	   56.34
     24.7491	   58.00	   59.39	 -550.67	   56.23
     24.7826	   56.00	   59.33	 -552.60	   56.13
     24.8160	   74.00	   59.27	 -534.54	   56.02
     24.8494	   47.00	   59.21	 -561.49	   55.91
     24.8828	   55.00	   59.16	 -553.43	   55.80
     24.9163	   58.00	   60.48	 -551.76	   55.70
     24.9497	   72.00	   60.45	 -537.73	   55.59
     24.9831	   41.00	   60.43	 -568.70	   55.48
     25.0165	   50.00	   61.10	 -560.38	   55.38
     25.0500	   60.00	   61.10	 -550.37	   55.27
     25.0834	   59.00	   61.09	 -551.37	   55.17
     25.1168	   63.00	   61.09	 -547.37	   55.06
     25.1502	   56.00	   61.09	 -554.37	   54.95
     25.1836	   48.00	   61.10	 -562.38	   54.85
     25.2171	   66.00	   61.11	 -544.39	   54.74
     25.2505	   64.00	   61.13	 -546.40	   54.64
     25.2839	   51.00	   61.15	 -559.42	   54.53
     25.3173	   57.00	   61.17	 -553.45	   54.43
     25.3508	   64.00	   61.20	 -546.48	   54.32
     25.3842	   58.00	   61.24	 -552.51	   54.22
     25.4176	   52.00	   61.28	 -558.55	   54.11
     25.4510	   57.00	   61.32	 -553.60	   54.01
     25.4844	   76.00	   61.37	 -534.65	   53.90
     25.5179	   50.00	   61.43	 -560.71	   53.80
     25.5513	   61.00	   61.49	 -549.77	   53.70
     25.5847	   47.00	   61.57	 -563.84	   53.59
     25.6181	   45.00	   61.64	 -565.92	   53.49
     25.6516	   63.00	   61.73	 -548.00	   53.39
     25.6850	   51.00	   61.82	 -560.10	   53.28
     25.7184	   56.00	   61.93	 -555.20	   53.18
     25.7518	   41.00	   62.04	 -570.31	   53.08
     25.7852	   50.00	   62.16	 -561.43	   52.97
     25.8187	   55.00	   62.29	 -556.56	   52.87
     25.8521	   63.00	   62.43	 -548.71	   52.77
     25.8855	   59.00	   62.58	 -552.86	   52.67
     25.9189	   58.00	   62.75	 -554.02	   52.56
     25.9524	   55.00	   62.93	 -557.20	   52.46
     25.9858	   42.00	   63.12	 -570.39	   52.36
     26.0192	   57.00	   63.33	 -555.60	   52.26
     26.0526	   61.00	   63.55	 -551.82	   52.16
     26.0861	   52.00	   63.79	 -561.06	   52.05
     26.1195	   46.00	   64.04	 -567.32	   51.95
     26.1529	   58.00	   64.32	 -555.60	   51.85
     26.1863	   48.00	   64.62	 -565.89	   51.75
     26.2197	   46.00	   64.94	 -568.21	   51.65
     26.2532	   57.00	   65.28	 -557.56	   51.55
     26.2866	   56.00	   65.65	 -558.92	   51.45
     26.3200	   47.00	   66.05	 -568.32	   51.35
     26.3534	   55.00	   66.48	 -560.75	   51.25
     26.3869	   56.00	   66.94	 -560.21	   51.15
     26.4203	   55.00	   67.43	 -561.71	   51.05
     26.4537	   45.00	   67.97	 -572.24	   50.95
     26.4871	   59.00	   68.55	 -558.82	   50.85
     26.5205	   52.00	   69.17	 -566.45	   50.75
     26.5540	   50.00	   69.85	 -569.12	   50.65
     26.5874	   49.00	   70.58	 -570.86	   50.55
     26.6208	   55.00	   71.38	 -565.65	   50.45
     26.6542	   58.00	   72.24	 -563.52	   50.35
     26.6877	   75.00	   73.18	 -547.46	   50.25
     26.7211	   68.00	   74.21	 -555.48	   50.15
     26.7545	   71.00	   75.33	 -553.60	   50.06
     26.7879	   66.00	   76.55	 -559.83	   49.96
     26.8213	   77.00	   77.90	 -550.17	   49.86
     26.8548	   73.00	   79.38	 -555.65	   49.76
     26.8882	   78.00	   81.01	 -552.28	   49.66
     26.9216	   72.00	   82.81	 -560.09	   49.57
     26.9550	   72.00	   84.82	 -562.09	   49.47
     26.9885	   86.00	   87.05	 -550.32	   49.37
     27.0219	   88.00	   89.54	 -550.82	   49.27
     27.0553	   97.00	   92.34	 -544.62	   49.18
     27.0887	  106.00	   95.50	 -538.77	   49.08
     27.1222	   99.00	   99.08	 -549.35	   48.98
     27.1556	  112.00	  103.15	 -540.43	   48.89
     27.1890	   96.00	  107.83	 -561.10	   48.79
     27.2224	  105.00	  113.22	 -557.49	   48.69
     27.2558	  102.00	  119.48	 -566.75	   48.60
     27.2893	  116.00	  126.81	 -560.08	   48.50
     27.3227	  135.00	  135.47	 -549.75	   48.41
     27.3561	  126.00	  145.81	 -569.08	   48.31
     27.3895	  132.00	  158.28	 -575.56	   48.21
     27.4230	  167.00	  173.54	 -555.82	   48.12
     27.4564	  210.00	  192.51	 -531.78	   48.02
     27.4898	  215.00	  216.51	 -550.79	   47.93
     27.5232	  256.00	  247.54	 -540.81	   47.83
     27.5566	  326.00	  288.45	 -511.72	   47.74
     27.5901	  395.00	  343.31	 -497.59	   47.64
     27.6235	  439.00	  417.66	 -527.93	   47.55
     27.6569	  616.00	  518.32	 -451.60	   47.46
     27.6903	  772.00	  652.27	 -429.54	   47.36
     27.7238	  918.00	  822.08	 -453.36	   47.27
     27.7572	 1122.00	 1014.91	 -442.18	   47.17
     27.7906	 1317.00	 1188.19	 -420.46	   47.08
     27.8240	 1386.00	 1279.73	 -443.00	   46.99
     27.8574	 1369.00	 1256.95	 -437.22	   46.89
     27.8909	 1242.00	 1138.37	 -445.64	   46.80
     27.9243	  997.00	  967.21	 -519.48	   46.71
     27.9577	  926.00	  789.52	 -412.79	   46.61
     27.9911	  723.00	  636.00	 -462.27	   46.52
     28.0246	  599.00	  516.29	 -466.57	   46.43
     28.0580	  454.00	  427.72	 -522.99	   46.33
     28.0914	  414.00	  363.89	 -499.17	   46.24
     28.1248	  369.00	  318.60	 -498.87	   46.15
     28.1582	  277.00	  286.88	 -559.16	   46.06
     28.1917	  273.00	  265.17	 -541.44	   45.96
     28.2251	  240.00	  251.03	 -560.30	   45.87
     28.2585	  234.00	  242.91	 -558.18	   45.78
     28.2919	  219.00	  240.16	 -570.44	   45.69
     28.3254	  212.00	  241.83	 -579.10	   45.60
     28.3588	  213.00	  248.13	 -584.41	   45.51
     28.3922	  220.00	  259.54	 -588.81	   45.42
     28.4256	  231.00	  276.52	 -594.80	   45.32
     28.4591	  243.00	  300.50	 -606.77	   45.23
     28.4925	  266.00	  333.49	 -616.77	   45.14
     28.5259	  306.00	  378.61	 -621.88	   45.05
     28.5593	  388.00	  440.39	 -601.66	   44.96
     28.5927	  470.00	  525.26	 -604.53	   44.87
     28.6262	  575.00	  641.71	 -615.99	   44.78
     28.6596	  736.00	  799.89	 -613.17	   44.69
     28.6930	 1011.00	 1009.00	 -547.28	   44.60
     28.7264	 1185.00	 1268.82	 -633.09	   44.51
     28.7599	 1443.00	 1551.26	 -657.53	   44.42
     28.7933	 1675.00	 1784.06	 -658.33	   44.33
     28.8267	 1749.00	 1880.69	 -680.96	   44.24
     28.8601	 1806.00	 1811.71	 -554.98	   44.15
     28.8935	 1507.00	 1614.21	 -656.48	   44.07
     28.9270	 1255.00	 1351.24	 -645.52	   43.98
     28.9604	 1026.00	 1086.14	 -609.41	   43.89
     28.9938	  786.00	  858.77	 -622.04	   43.80
     29.0272	  650.00	  680.26	 -579.54	   43.71
     29.0607	  508.00	  545.79	 -587.06	   43.62
     29.0941	  392.00	  445.90	 -603.18	   43.53
     29.1275	  313.00	  371.63	 -607.90	   43.45
     29.1609	  282.00	  315.79	 -583.07	   43.36
     29.1943	  205.00	  273.12	 -617.39	   43.27
     29.2278	  200.00	  239.86	 -589.14	   43.18
     29.2612	  175.00	  213.45	 -587.73	   43.10
     29.2946	  139.00	  192.10	 -602.38	   43.01
     29.3280	  155.00	  174.59	 -568.87	   42.92
     29.3615	  119.00	  160.04	 -590.31	   42.83
     29.3949	  113.00	  147.81	 -584.08	   42.75
     29.4283	  101.00	  137.43	 -585.70	   42.66
     29.4617	   88.00	  128.54	 -589.82	   42.57
     29.4951	   73.00	  120.88	 -597.15	   42.49
     29.5286	   83.00	  114.22	 -580.49	   42.40
     29.5620	   75.00	  108.39	 -582.67	   42.32
     29.5954	   94.00	  103.27	 -558.54	   42.23
     29.6288	   82.00	   98.73	 -566.01	   42.14
     29.6623	   72.00	   94.70	 -571.97	   42.06
     29.6957	   76.00	   91.09	 -564.37	   41.97
     29.7291	   81.00	   87.86	 -556.13	   41.89
     29.7625	   70.00	   84.94	 -564.22	   41.80
     29.7960	   82.00	   82.30	 -549.58	   41.72
     29.8294	   73.00	   79.91	 -556.18	   41.63
     29.8628	   71.00	   77.73	 -556.00	   41.55
     29.8962	   59.00	   75.73	 -566.01	   41.46
     29.9296	   58.00	   73.91	 -565.18	   41.38
     29.9631	   58.00	   72.23	 -563.51	   41.29
     29.9965	   52.00	   70.69	 -567.96	   41.21
     30.0299	   61.00	   69.26	 -557.53	   41.13
     30.0633	   59.00	   67.94	 -558.21	   41.04
     30.0968	   50.00	   66.72	 -565.99	   40.96
     30.1302	   58.00	   65.58	 -556.86	   40.87
     30.1636	   52.00	   64.53	 -561.80	   40.79
     30.1970	   45.00	   63.54	 -567.82	   40.71
     30.2304	   57.00	   62.62	 -554.90	   40.62
     30.2639	   56.00	   61.76	 -555.04	   40.54
     30.2973	   49.00	   60.96	 -561.24	   40.46
     30.3307	   60.00	   60.21	 -549.49	   40.37
     30.3641	   50.00	   59.51	 -558.78	   40.29
     30.3976	   41.00	   58.85	 -567.12	   40.21
     30.4310	   47.00	   58.23	 -560.51	   40.13
     30.4644	   56.00	   57.65	 -550.93	   40.04
     30.4978	   51.00	   57.11	 -555.38	   39.96
     30.5312	   59.00	   56.60	 -546.88	   39.88
     30.5647	   52.00	   56.12	 -553.40	   39.80
     30.5981	   36.00	   55.68	 -568.95	   39.72
     30.6315	   52.00	   55.26	 -552.54	   39.63
     30.6649	   45.00	   54.87	 -559.15	   39.55
     30.6984	   56.00	   54.51	 -547.79	   39.47
     30.7318	   54.00	   54.18	 -549.45	   39.39
     30.7652	   42.00	   53.87	 -561.14	   39.31
     30.7986	   52.00	   53.59	 -550.86	   39.23
     30.8321	   48.00	   53.33	 -554.60	   39.15
     30.8655	   60.00	   53.09	 -542.37	   39.07
     30.8989	   49.00	   52.88	 -553.16	   38.99
     30.9323	   65.00	   52.70	 -536.98	   38.91
     30.9657	   58.00	   52.54	 -543.82	   38.83
     30.9992	   60.00	   52.41	 -541.69	   38.75
     31.0326	   52.00	   52.31	 -549.59	   38.67
     31.0660	   45.00	   52.24	 -556.51	   38.59
     31.0994	   44.00	   52.20	 -557.47	   38.51
     31.1329	   45.00	   52.19	 -556.46	   38.43
     31.1663	   55.00	   52.21	 -546.49	   38.35
     31.1997	   56.00	   52.27	 -545.55	   38.27
     31.2331	   63.00	   52.38	 -538.65	   38.19
     31.2665	   63.00	   52.53	 -538.80	   38.11
     31.3000	   47.00	   52.73	 -555.00	   38.03
     31.3334	   48.00	   52.99	 -554.26	   37.95
     31.3668	   52.00	   53.31	 -550.58	   37.87
     31.4002	   48.00	   53.70	 -554.98	   37.79
     31.4337	   48.00	   54.18	 -555.45	   37.72
     31.4671	   47.00	   54.75	 -557.02	   37.64
     31.5005	   62.00	   55.43	 -542.71	   37.56
     31.5339	   68.00	   56.25	 -537.52	   37.48
     31.5673	   61.00	   57.22	 -545.49	   37.40
     31.6008	   59.00	   58.37	 -548.64	   37.33
     31.6342	   68.00	   59.75	 -541.02	   37.25
     31.6676	   57.00	   61.39	 -553.67	   37.17
     31.7010	   55.00	   62.48	 -556.76	   37.09
     31.7345	   62.00	   64.90	 -552.17	   37.02
     31.7679	   64.00	   67.83	 -553.11	   36.94
     31.8013	   63.00	   71.01	 -557.28	   36.86
     31.8347	   79.00	   75.51	 -545.78	   36.79
     31.8682	   63.00	   81.19	 -567.47	   36.71
     31.9016	   97.00	   88.49	 -540.76	   36.63
     31.9350	   96.00	   98.00	 -551.27	   36.56
     31.9684	  121.00	  110.57	 -538.84	   36.48
     32.0018	  156.00	  127.34	 -520.61	   36.40
     32.0353	  180.00	  149.73	 -519.00	   36.33
     32.0687	  191.00	  179.33	 -537.60	   36.25
     32.1021	  273.00	  217.24	 -493.52	   36.18
     32.1355	  291.00	  262.51	 -520.79	   36.10
     32.1690	  361.00	  309.22	 -497.50	   36.03
     32.2024	  409.00	  345.15	 -485.42	   35.95
     32.2358	  388.00	  358.13	 -519.41	   35.88
     32.2692	  386.00	  345.71	 -508.98	   35.80
     32.3026	  372.00	  313.92	 -491.19	   35.73
     32.3361	  305.00	  271.35	 -515.62	   35.65
     32.3695	  275.00	  227.11	 -501.39	   35.58
     32.4029	  217.00	  187.86	 -520.13	   35.50
     32.4363	  164.00	  156.13	 -541.40	   35.43
     32.4698	  142.00	  131.66	 -538.93	   35.35
     32.5032	  113.00	  113.14	 -549.42	   35.28
     32.5366	  110.00	   99.18	 -538.45	   35.21
     32.5700	  110.00	   88.56	 -527.84	   35.13
     32.6034	   92.00	   80.39	 -537.67	   35.06
     32.6369	   85.00	   73.99	 -538.27	   34.98
     32.6703	   58.00	   68.90	 -560.17	   34.91
     32.7037	   73.00	   64.77	 -541.04	   34.84
     32.7371	   62.00	   60.02	 -547.29	   34.76
     32.7706	   55.00	   57.21	 -551.48	   34.69
     32.8040	   66.00	   54.16	 -537.44	   34.62
     32.8374	   42.00	   52.16	 -559.43	   34.55
     32.8708	   44.00	   50.44	 -555.71	   34.47
     32.9043	   42.00	   48.95	 -556.22	   34.40
     32.9377	   37.00	   47.65	 -559.93	   34.33
     32.9711	   36.00	   46.60	 -559.87	   34.26
     33.0045	   51.00	   45.59	 -543.87	   34.18
     33.0379	   46.00	   44.74	 -548.02	   34.11
     33.0714	   31.00	   43.94	 -562.22	   34.04
     33.1048	   38.00	   43.23	 -554.50	   33.97
     33.1382	   41.00	   42.58	 -550.85	   33.90
     33.1716	   39.00	   41.99	 -552.26	   33.83
     33.2051	   49.00	   41.45	 -541.73	   33.75
     33.2385	   42.00	   40.96	 -548.24	   33.68
     33.2719	   24.00	   40.51	 -565.79	   33.61
     33.3053	   33.00	   40.09	 -556.37	   33.54
     33.3387	   33.00	   39.71	 -555.98	   33.47
     33.3722	   41.00	   39.35	 -547.63	   33.40
     33.4056	   42.00	   39.02	 -546.29	   33.33
     33.4390	   37.00	   38.71	 -550.98	   33.26
     33.4724	   32.00	   38.42	 -555.69	   33.19
     33.5059	   32.00	   38.14	 -555.42	   33.12
     33.5393	   28.00	   37.88	 -559.16	   33.05
     33.5727	   33.00	   37.64	 -553.91	   32.98
     33.6061	   38.00	   37.41	 -548.68	   32.91
     33.6395	   33.00	   37.19	 -553.46	   32.84
     33.6730	   33.00	   36.98	 -553.26	   32.77
     33.7064	   43.00	   36.78	 -543.06	   32.70
     33.7398	   23.00	   36.59	 -562.87	   32.63
     33.7732	   33.00	   36.41	 -552.69	   32.56
     33.8067	   38.00	   36.24	 -547.51	   32.49
     33.8401	   24.00	   36.07	 -561.34	   32.42
     33.8735	   31.00	   35.91	 -554.18	   32.35
     33.9069	   22.00	   35.75	 -563.03	   32.29
     33.9403	   41.00	   35.61	 -543.88	   32.22
     33.9738	   24.00	   35.46	 -560.74	   32.15
     34.0072	   30.00	   35.32	 -554.60	   32.08
     34.0406	   24.00	   35.19	 -560.46	   32.01
     34.0740	   33.00	   35.06	 -551.33	   31.94
     34.1075	   27.00	   34.93	 -557.21	   31.88
     34.1409	   34.00	   34.81	 -550.08	   31.81
     34.1743	   32.00	   34.69	 -551.96	   31.74
     34.2077	   34.00	   34.57	 -549.85	   31.67
     34.2411	   23.00	   34.46	 -560.73	   31.61
     34.2746	   24.00	   34.35	 -559.62	   31.54
     34.3080	   30.00	   34.24	 -553.52	   31.47
     34.3414	   39.00	   34.14	 -544.41	   31.41
     34.3748	   25.00	   34.04	 -558.31	   31.34
     34.4083	   31.00	   33.94	 -552.21	   31.27
     34.4417	   25.00	   33.84	 -558.11	   31.21
     34.4751	   33.00	   33.74	 -550.02	   31.14
     34.5085	   32.00	   33.65	 -550.92	   31.07
     34.5420	   31.00	   33.56	 -551.83	   31.01
     34.5754	   29.00	   33.47	 -553.74	   30.94
     34.6088	   29.00	   33.38	 -553.66	   30.87
     34.6422	   34.00	   33.30	 -548.57	   30.81
     34.6756	   25.00	   33.21	 -557.49	   30.74
     34.7091	   37.00	   33.13	 -545.41	   30.68
     34.7425	   20.00	   33.05	 -562.33	   30.61
     34.7759	   21.00	   32.97	 -561.25	   30.55
     34.8093	   25.00	   32.90	 -557.17	   30.48
     34.8428	   23.00	   32.82	 -559.10	   30.42
     34.8762	   27.00	   32.75	 -555.02	   30.35
     34.9096	   29.00	   32.68	 -552.95	   30.29
     34.9430	   43.00	   32.61	 -538.88	   30.22
     34.9764	   35.00	   32.54	 -546.82	   30.16
     35.0099	   32.00	   32.47	 -549.75	   30.09
     35.0433	   30.00	   32.41	 -551.68	   30.03
     35.0767	   32.00	   32.35	 -549.62	   29.96
     35.1101	   27.00	   32.29	 -554.56	   29.90
     35.1436	   31.00	   32.23	 -550.50	   29.84
     35.1770	   18.00	   32.17	 -563.44	   29.77
     35.2104	   24.00	   32.11	 -557.39	   29.71
     35.2438	   33.00	   32.06	 -548.34	   29.64
     35.2773	   23.00	   32.01	 -558.29	   29.58
     35.3107	   35.00	   31.96	 -546.24	   29.52
     35.3441	   29.00	   31.92	 -552.19	   29.45
     35.3775	   21.00	   31.87	 -560.15	   29.39
     35.4109	   43.00	   31.83	 -538.11	   29.33
     35.4444	   25.00	   31.79	 -556.07	   29.27
     35.4778	   20.00	   31.76	 -561.03	   29.20
     35.5112	   20.00	   31.73	 -561.00	   29.14
     35.5446	   30.00	   31.70	 -550.97	   29.08
     35.5781	   31.00	   31.67	 -549.95	   29.01
     35.6115	   32.00	   31.65	 -548.93	   28.95
     35.6449	   21.00	   31.64	 -559.91	   28.89
     35.6783	   28.00	   31.63	 -552.90	   28.83
     35.7117	   30.00	   31.62	 -550.90	   28.77
     35.7452	   30.00	   31.62	 -550.90	   28.70
     35.7786	   34.00	   31.63	 -546.90	   28.64
     35.8120	   25.00	   31.64	 -555.92	   28.58
     35.8454	   32.00	   31.67	 -548.94	   28.52
     35.8789	   29.00	   31.70	 -551.97	   28.46
     35.9123	   27.00	   31.74	 -554.01	   28.40
     35.9457	   21.00	   31.79	 -560.07	   28.34
     35.9791	   21.00	   31.86	 -560.13	   28.28
     36.0125	   21.00	   31.94	 -560.21	   28.21
     36.0460	   34.00	   32.03	 -547.31	   28.15
     36.0794	   23.00	   32.15	 -558.42	   28.09
     36.1128	   21.00	   32.29	 -560.56	   28.03
     36.1462	   28.00	   32.18	 -553.46	   27.97
     36.1797	   16.00	   32.38	 -565.66	   27.91
     36.2131	   23.00	   32.61	 -558.89	   27.85
     36.2465	   23.00	   32.75	 -559.03	   27.79
     36.2799	   22.00	   33.08	 -560.35	   27.73
     36.3133	   25.00	   33.46	 -557.73	   27.67
     36.3468	   34.00	   33.91	 -549.19	   27.61
     36.3802	   43.00	   34.45	 -540.72	   27.55
     36.4136	   44.00	   35.10	 -540.37	   27.49
     36.4470	   42.00	   36.94	 -544.21	   27.44
     36.4805	   38.00	   37.90	 -549.17	   27.38
     36.5139	   44.00	   39.08	 -544.35	   27.32
     36.5473	   37.00	   41.07	 -553.35	   27.26
     36.5807	   41.00	   42.92	 -551.19	   27.20
     36.6142	   51.00	   45.27	 -543.54	   27.14
     36.6476	   43.00	   48.30	 -554.58	   27.08
     36.6810	   66.00	   52.26	 -535.53	   27.02
     36.7144	   62.00	   57.43	 -544.71	   26.97
     36.7478	   54.00	   64.19	 -559.46	   26.91
     36.7813	   95.00	   72.87	 -527.14	   26.85
     36.8147	   90.00	   83.63	 -542.90	   26.79
     36.8481	   98.00	   95.94	 -547.21	   26.73
     36.8815	  100.00	  108.02	 -557.30	   26.68
     36.9150	  116.00	  116.85	 -550.12	   26.62
     36.9484	  119.00	  119.85	 -550.13	   26.56
     36.9818	  133.00	  116.81	 -533.09	   26.50
     37.0152	  126.00	  109.16	 -532.43	   26.45
     37.0486	  109.00	   98.59	 -538.87	   26.39
     37.0821	  104.00	   87.00	 -532.28	   26.33
     37.1155	   63.00	   76.11	 -562.39	   26.27
     37.1489	   77.00	   66.88	 -539.16	   26.22
     37.1823	   48.00	   59.50	 -560.78	   26.16
     37.2158	   54.00	   53.78	 -549.05	   26.10
     37.2492	   55.00	   49.37	 -543.65	   26.05
     37.2826	   44.00	   45.98	 -551.26	   25.99
     37.3160	   49.00	   43.36	 -543.63	   25.94
     37.3494	   43.00	   41.30	 -547.57	   25.88
     37.3829	   34.00	   39.66	 -554.94	   25.82
     37.4163	   23.00	   38.35	 -564.62	   25.77
     37.4497	   27.00	   37.27	 -559.55	   25.71
     37.4831	   31.00	   36.38	 -554.66	   25.66
     37.5166	   31.00	   35.64	 -553.92	   25.60
     37.5500	   32.00	   35.02	 -552.29	   25.55
     37.5834	   36.00	   34.49	 -547.76	   25.49
     37.6168	   34.00	   34.04	 -549.31	   25.44
     37.6502	   24.00	   33.66	 -558.93	   25.38
     37.6837	   27.00	   33.33	 -555.60	   25.33
     37.7171	   29.00	   33.04	 -553.32	   25.27
     37.7505	   28.00	   32.80	 -554.07	   25.22
     37.7839	   30.00	   32.59	 -551.86	   25.16
     37.8174	   24.00	   32.41	 -557.68	   25.11
     37.8508	   24.00	   32.26	 -557.53	   25.05
     37.8842	   27.00	   32.13	 -554.40	   25.00
     37.9176	   28.00	   32.02	 -553.29	   24.94
     37.9510	   25.00	   31.93	 -556.20	   24.89
     37.9845	   32.00	   31.86	 -549.13	   24.84
     38.0179	   30.00	   31.80	 -551.07	   24.78
     38.0513	   29.00	   31.76	 -552.03	   24.73
     38.0847	   29.00	   31.73	 -552.00	   24.68
     38.1182	   22.00	   31.71	 -558.99	   24.62
     38.1516	   23.00	   31.71	 -557.99	   24.57
     38.1850	   18.00	   31.72	 -563.00	   24.52
     38.2184	   34.00	   31.75	 -547.02	   24.46
     38.2519	   24.00	   31.78	 -557.05	   24.41
     38.2853	   32.00	   31.83	 -549.10	   24.36
     38.3187	   30.00	   31.88	 -551.16	   24.30
     38.3521	   38.00	   31.95	 -543.23	   24.25
     38.3855	   31.00	   32.03	 -550.31	   24.20
     38.4190	   31.00	   32.13	 -550.40	   24.15
     38.4524	   31.00	   32.23	 -550.51	   24.09
     38.4858	   28.00	   32.35	 -553.62	   24.04
     38.5192	   25.00	   32.48	 -556.76	   23.99
     38.5527	   28.00	   32.63	 -553.90	   23.94
     38.5861	   30.00	   32.79	 -552.06	   23.89
     38.6195	   21.00	   32.96	 -561.24	   23.83
     38.6529	   41.00	   33.15	 -541.43	   23.78
     38.6863	   29.00	   33.36	 -553.63	   23.73
     38.7198	   23.00	   33.59	 -559.86	   23.68
     38.7532	   32.00	   33.83	 -551.11	   23.63
     38.7866	   29.00	   34.10	 -554.37	   23.58
     38.8200	   29.00	   34.38	 -554.66	   23.53
     38.8535	   37.00	   34.69	 -546.97	   23.47
     38.8869	   36.00	   35.03	 -548.30	   23.42
     38.9203	   32.00	   35.39	 -552.67	   23.37
     38.9537	   37.00	   35.79	 -548.06	   23.32
     38.9872	   49.00	   36.40	 -536.68	   23.27
     39.0206	   44.00	   36.86	 -542.14	   23.22
     39.0540	   30.00	   37.36	 -556.64	   23.17
     39.0874	   54.00	   38.00	 -533.27	   23.12
     39.1208	   36.00	   38.59	 -551.86	   23.07
     39.1543	   42.00	   39.23	 -546.50	   23.02
     39.1877	   46.00	   39.92	 -543.20	   22.97
     39.2211	   56.00	   40.68	 -533.95	   22.92
     39.2545	   56.00	   41.50	 -534.77	   22.87
     39.2880	   37.00	   42.39	 -554.67	   22.82
     39.3214	   38.00	   43.37	 -554.65	   22.77
     39.3548	   59.00	   44.44	 -534.72	   22.72
     39.3882	   64.00	   45.62	 -530.89	   22.67
     39.4216	   45.00	   46.91	 -551.19	   22.62
     39.4551	   56.00	   48.34	 -541.61	   22.58
     39.4885	   55.00	   49.91	 -544.18	   22.53
     39.5219	   70.00	   51.65	 -530.93	   22.48
     39.5553	   56.00	   53.59	 -546.87	   22.43
     39.5888	   47.00	   55.75	 -558.02	   22.38
     39.6222	   50.00	   58.17	 -557.44	   22.33
     39.6556	   48.00	   60.88	 -562.15	   22.28
     39.6890	   60.00	   63.94	 -553.21	   22.24
     39.7224	   65.00	   67.40	 -551.68	   22.19
     39.7559	   49.00	   71.34	 -571.62	   22.14
     39.7893	   57.00	   75.85	 -568.13	   22.09
     39.8227	   59.00	   81.04	 -571.32	   22.04
     39.8561	   66.00	   87.04	 -570.32	   22.00
     39.8896	   98.00	   94.04	 -545.31	   21.95
     39.9230	  102.00	  102.25	 -549.53	   21.90
     39.9564	  109.00	  111.98	 -552.25	   21.85
     39.9898	   96.00	  123.61	 -576.89	   21.81
     40.0233	  122.00	  137.67	 -564.95	   21.76
     40.0567	  129.00	  154.89	 -575.17	   21.71
     40.0901	  179.00	  176.26	 -546.54	   21.67
     40.1235	  198.00	  203.11	 -554.39	   21.62
     40.1569	  211.00	  237.28	 -575.55	   21.57
     40.1904	  252.00	  281.13	 -578.40	   21.53
     40.2238	  310.00	  337.66	 -576.94	   21.48
     40.2572	  391.00	  410.42	 -568.70	   21.43
     40.2906	  451.00	  502.78	 -601.05	   21.39
     40.3241	  610.00	  616.37	 -555.64	   21.34
     40.3575	  676.00	  747.15	 -620.42	   21.29
     40.3909	  762.00	  879.63	 -666.91	   21.25
     40.4243	  908.00	  985.72	 -626.99	   21.20
     40.4577	  887.00	 1037.27	 -699.54	   21.16
     40.4912	  899.00	 1026.11	 -676.39	   21.11
     40.5246	  820.00	  963.69	 -692.96	   21.07
     40.5580	  757.00	  865.45	 -657.72	   21.02
     40.5914	  687.00	  746.68	 -608.95	   20.97
     40.6249	  622.00	  624.71	 -551.98	   20.93
     40.6583	  446.00	  513.90	 -617.18	   20.88
     40.6917	  440.00	  420.97	 -530.24	   20.84
     40.7251	  351.00	  346.50	 -544.77	   20.79
     40.7585	  297.00	  288.07	 -540.35	   20.75
     40.7920	  252.00	  242.55	 -539.82	   20.70
     40.8254	  200.00	  207.03	 -556.30	   20.66
     40.8588	  194.00	  179.10	 -534.37	   20.62
     40.8922	  156.00	  156.89	 -550.17	   20.57
     40.9257	  130.00	  138.95	 -558.22	   20.53
     40.9591	  101.00	  124.39	 -572.66	   20.48
     40.9925	  102.00	  112.37	 -559.65	   20.44
     41.0259	   82.00	  102.30	 -569.58	   20.39
     41.0593	   82.00	   93.85	 -561.12	   20.35
     41.0928	   89.00	   86.65	 -546.93	   20.31
     41.1262	   83.00	   80.48	 -546.76	   20.26
     41.1596	   63.00	   75.15	 -561.43	   20.22
     41.1930	   63.00	   70.52	 -556.80	   20.18
     41.2265	   57.00	   66.47	 -558.75	   20.13
     41.2599	   47.00	   62.91	 -565.19	   20.09
     41.2933	   57.00	   59.77	 -552.05	   20.05
     41.3267	   61.00	   56.99	 -545.26	   20.00
     41.3602	   48.00	   54.51	 -555.78	   19.96
     41.3936	   49.00	   52.29	 -552.56	   19.92
     41.4270	   38.00	   50.30	 -561.58	   19.87
     41.4604	   59.00	   48.52	 -538.79	   19.83
     41.4938	   36.00	   46.91	 -560.18	   19.79
     41.5273	   44.00	   45.46	 -550.73	   19.75
     41.5607	   45.00	   44.14	 -548.42	   19.70
     41.5941	   45.00	   42.95	 -547.23	   19.66
     41.6275	   42.00	   41.87	 -549.15	   19.62
     41.6610	   38.00	   40.89	 -552.17	   19.58
     41.6944	   31.00	   40.01	 -558.28	   19.54
     41.7278	   32.00	   39.20	 -556.47	   19.49
     41.7612	   39.00	   38.47	 -548.75	   19.45
     41.7946	   31.00	   37.82	 -556.09	   19.41
     41.8281	   28.00	   37.22	 -558.50	   19.37
     41.8615	   21.00	   36.70	 -564.97	   19.33
     41.8949	   34.00	   36.23	 -551.50	   19.29
     41.9283	   41.00	   35.81	 -544.09	   19.25
     41.9618	   39.00	   35.46	 -545.73	   19.20
     41.9952	   39.00	   35.15	 -545.43	   19.16
     42.0286	   46.00	   34.90	 -538.18	   19.12
     42.0620	   39.00	   34.71	 -544.98	   19.08
     42.0954	   34.00	   34.57	 -549.84	   19.04
     42.1289	   30.00	   34.48	 -553.76	   19.00
     42.1623	   43.00	   34.46	 -540.73	   18.96
     42.1957	   39.00	   34.49	 -544.77	   18.92
     42.2291	   46.00	   34.60	 -537.88	   18.88
     42.2626	   31.00	   34.78	 -553.06	   18.84
     42.2960	   42.00	   35.05	 -542.32	   18.80
     42.3294	   36.00	   35.41	 -548.68	   18.76
     42.3628	   30.00	   35.87	 -555.15	   18.72
     42.3963	   39.00	   36.46	 -546.73	   18.68
     42.4297	   29.00	   37.19	 -557.46	   18.64
     42.4631	   44.00	   38.09	 -543.36	   18.60
     42.4965	   58.00	   39.19	 -530.47	   18.56
     42.5299	   52.00	   40.55	 -537.82	   18.52
     42.5634	   48.00	   42.21	 -543.48	   18.48
     42.5968	   52.00	   44.25	 -541.52	   18.44
     42.6302	   46.00	   46.78	 -550.05	   18.40
     42.6636	   50.00	   49.94	 -549.21	   18.36
     42.6971	   58.00	   53.92	 -545.19	   18.33
     42.7305	   79.00	   58.98	 -529.26	   18.29
     42.7639	   76.00	   65.46	 -538.73	   18.25
     42.7973	   82.00	   73.78	 -541.05	   18.21
     42.8307	  117.00	   84.46	 -516.73	   18.17
     42.8642	   99.00	   98.04	 -548.32	   18.13
     42.8976	  161.00	  114.95	 -503.23	   18.09
     42.9310	  181.00	  135.07	 -503.34	   18.06
     42.9644	  194.00	  156.99	 -512.26	   18.02
     42.9979	  185.00	  177.35	 -541.62	   17.98
     43.0313	  193.00	  191.43	 -547.71	   17.94
     43.0647	  208.00	  195.93	 -537.20	   17.90
     43.0981	  207.00	  191.04	 -533.31	   17.87
     43.1315	  186.00	  179.04	 -542.31	   17.83
     43.1650	  231.00	  162.09	 -480.36	   17.79
     43.1984	  177.00	  142.39	 -514.66	   17.75
     43.2318	  185.00	  122.50	 -486.78	   17.72
     43.2652	  117.00	  104.49	 -536.76	   17.68
     43.2987	  126.00	   89.31	 -512.58	   17.64
     43.3321	  108.00	   77.03	 -518.30	   17.60
     43.3655	   90.00	   67.29	 -526.56	   17.57
     43.3989	   68.00	   59.60	 -540.88	   17.53
     43.4324	   78.00	   53.53	 -524.80	   17.49
     43.4658	   57.00	   48.70	 -540.97	   17.46
     43.4992	   65.00	   44.81	 -529.08	   17.42
     43.5326	   55.00	   41.65	 -535.92	   17.38
     43.5660	   37.00	   39.04	 -551.32	   17.35
     43.5995	   38.00	   36.87	 -548.14	   17.31
     43.6329	   45.00	   35.03	 -539.31	   17.27
     43.6663	   47.00	   33.47	 -535.74	   17.24
     43.6997	   27.00	   32.12	 -554.40	   17.20
     43.7332	   43.00	   30.96	 -537.23	   17.17
     43.7666	   33.00	   29.94	 -546.21	   17.13
     43.8000	   37.00	   29.04	 -541.31	   17.09
     43.8334	   34.00	   28.24	 -543.51	   17.06
     43.8668	   29.00	   27.53	 -547.80	   17.02
     43.9003	   23.00	   26.89	 -553.17	   16.99
     43.9337	   28.00	   26.32	 -547.59	   16.95
     43.9671	   30.00	   25.80	 -545.07	   16.92
     44.0005	   21.00	   25.32	 -553.60	   16.88
     44.0340	   30.00	   24.89	 -544.17	   16.85
     44.0674	   33.00	   24.50	 -540.77	   16.81
     44.1008	   29.00	   24.13	 -544.41	   16.78
     44.1342	   29.00	   23.80	 -544.07	   16.74
     44.1676	   33.00	   23.48	 -539.76	   16.71
     44.2011	   23.00	   23.19	 -549.47	   16.67
     44.2345	   28.00	   22.92	 -544.20	   16.64
     44.2679	   41.00	   22.67	 -530.94	   16.60
     44.3013	   19.00	   22.43	 -552.71	   16.57
     44.3348	   18.00	   22.21	 -553.48	   16.54
     44.3682	   20.00	   22.00	 -551.27	   16.50
     44.4016	   22.00	   21.80	 -549.07	   16.47
     44.4350	   29.00	   21.61	 -541.89	   16.43
     44.4684	   24.00	   21.43	 -546.71	   16.40
     44.5019	   33.00	   20.23	 -536.51	   16.37
     44.5353	   24.00	   20.09	 -545.36	   16.33
     44.5687	   28.00	   19.95	 -541.23	   16.30
     44.6021	   22.00	   19.48	 -546.76	   16.27
     44.6356	   24.00	   19.37	 -544.64	   16.23
     44.6690	   29.00	   19.26	 -539.53	   16.20
     44.7024	   23.00	   19.24	 -545.52	   16.17
     44.7358	   23.00	   19.14	 -545.42	   16.13
     44.7692	   28.00	   19.05	 -540.33	   16.10
     44.8027	   18.00	   18.96	 -550.24	   16.07
     44.8361	   22.00	   18.87	 -546.15	   16.03
     44.8695	   32.00	   18.79	 -536.07	   16.00
     44.9029	   29.00	   18.71	 -538.99	   15.97
     44.9364	   21.00	   18.64	 -546.91	   15.94
     44.9698	   21.00	   18.56	 -546.84	   15.90
     45.0032	   29.00	   18.89	 -539.16	   15.87
     45.0366	   25.00	   18.82	 -543.10	   15.84
     45.0701	   19.00	   18.76	 -549.04	   15.81
     45.1035	   21.00	   18.71	 -546.98	   15.77
     45.1369	   11.00	   18.85	 -557.12	   15.74
     45.1703	   23.00	   18.80	 -545.07	   15.71
     45.2037	   18.00	   18.75	 -550.03	   15.68
     45.2372	   22.00	   18.71	 -545.98	   15.65
     45.2706	   20.00	   18.66	 -547.94	   15.61
     45.3040	   18.00	   18.62	 -549.89	   15.58
     45.3374	   22.00	   18.58	 -545.85	   15.55
     45.3709	   21.00	   18.54	 -546.82	   15.52
     45.4043	   23.00	   18.51	 -544.78	   15.49
     45.4377	   23.00	   18.47	 -544.75	   15.46
     45.4711	   15.00	   18.44	 -552.71	   15.43
     45.5045	   14.00	   18.41	 -553.68	   15.39
     45.5380	   23.00	   18.38	 -544.65	   15.36
     45.5714	   18.00	   18.35	 -549.62	   15.33
     45.6048	   15.00	   19.23	 -553.50	   15.30
     45.6382	   19.00	   19.22	 -549.49	   15.27
     45.6717	   25.00	   19.21	 -543.48	   15.24
     45.7051	   21.00	   19.20	 -547.48	   15.21
     45.7385	   19.00	   19.65	 -549.92	   15.18
     45.7719	   24.00	   19.65	 -544.93	   15.15
     45.8053	   15.00	   19.66	 -553.93	   15.12
     45.8388	   12.00	   19.67	 -556.94	   15.09
     45.8722	   16.00	   19.68	 -552.96	   15.06
     45.9056	   14.00	   19.69	 -554.97	   15.03
     45.9390	   21.00	   19.71	 -547.98	   15.00
     45.9725	   15.00	   19.73	 -554.00	   14.97
     46.0059	   21.00	   19.75	 -548.02	   14.94
     46.0393	   19.00	   19.77	 -550.05	   14.91
     46.0727	   22.00	   19.80	 -547.07	   14.88
     46.1062	   29.00	   19.83	 -540.10	   14.85
     46.1396	   16.00	   19.86	 -553.13	   14.82
     46.1730	   22.00	   19.89	 -547.16	   14.79
     46.2064	   14.00	   19.93	 -555.20	   14.76
     46.2398	   20.00	   19.96	 -549.24	   14.73
     46.2733	   17.00	   20.01	 -552.28	   14.70
     46.3067	   23.00	   20.05	 -546.33	   14.68
     46.3401	   22.00	   20.10	 -547.37	   14.65
     46.3735	   18.00	   20.15	 -551.43	   14.62
     46.4070	   19.00	   20.21	 -550.48	   14.59
     46.4404	   12.00	   20.27	 -557.54	   14.56
     46.4738	   22.00	   20.33	 -547.60	   14.53
     46.5072	   22.00	   20.40	 -547.67	   14.50
     46.5406	   22.00	   20.47	 -547.74	   14.48
     46.5741	   30.00	   20.54	 -539.82	   14.45
     46.6075	   16.00	   20.62	 -553.89	   14.42
     46.6409	   27.00	   20.70	 -542.98	   14.39
     46.6743	   14.00	   20.79	 -556.07	   14.36
     46.7078	   22.00	   20.89	 -548.16	   14.34
     46.7412	   29.00	   20.99	 -541.26	   14.31
     46.7746	   21.00	   21.09	 -549.37	   14.28
     46.8080	   28.00	   21.20	 -542.48	   14.25
     46.8414	   22.00	   21.32	 -548.59	   14.22
     46.8749	   30.00	   21.44	 -540.72	   14.20
     46.9083	   32.00	   21.58	 -538.85	   14.17
     46.9417	   17.00	   21.71	 -553.99	   14.14
     46.9751	   32.00	   21.86	 -539.13	   14.11
     47.0086	   28.00	   22.01	 -543.29	   14.09
     47.0420	   31.00	   22.18	 -540.45	   14.06
     47.0754	   23.00	   22.35	 -548.63	   14.03
     47.1088	   21.00	   22.35	 -550.62	   14.01
     47.1423	   28.00	   22.54	 -543.82	   13.98
     47.1757	   23.00	   22.75	 -549.02	   13.95
     47.2091	   36.00	   22.97	 -536.24	   13.93
     47.2425	   25.00	   23.11	 -547.38	   13.90
     47.2759	   30.00	   23.36	 -542.63	   13.87
     47.3094	   30.00	   23.62	 -542.90	   13.85
     47.3428	   28.00	   23.90	 -545.17	   13.82
     47.3762	   34.00	   24.20	 -539.47	   13.79
     47.4096	   37.00	   24.64	 -536.92	   13.77
     47.4431	   27.00	   24.98	 -547.25	   13.74
     47.4765	   37.00	   25.34	 -537.61	   13.72
     47.5099	   28.00	   25.72	 -547.00	   13.69
     47.5433	   35.00	   26.19	 -540.47	   13.66
     47.5767	   49.00	   26.63	 -526.91	   13.64
     47.6102	   35.00	   27.10	 -541.37	   13.61
     47.6436	   36.00	   27.60	 -540.88	   13.59
     47.6770	   33.00	   28.14	 -544.41	   13.56
     47.7104	   36.00	   28.72	 -541.99	   13.54
     47.7439	   43.00	   29.34	 -535.62	   13.51
     47.7773	   37.00	   30.02	 -542.29	   13.49
     47.8107	   55.00	   30.74	 -525.02	   13.46
     47.8441	   38.00	   31.53	 -542.81	   13.44
     47.8775	   48.00	   32.39	 -533.67	   13.41
     47.9110	   43.00	   33.33	 -539.61	   13.39
     47.9444	   45.00	   34.36	 -538.63	   13.36
     47.9778	   45.00	   35.48	 -539.76	   13.34
     48.0112	   50.00	   36.72	 -535.99	   13.31
     48.0447	   64.00	   38.09	 -523.36	   13.29
     48.0781	   54.00	   39.61	 -534.88	   13.26
     48.1115	   51.00	   41.30	 -539.57	   13.24
     48.1449	   45.00	   43.20	 -547.47	   13.21
     48.1783	   60.00	   45.34	 -534.61	   13.19
     48.2118	   62.00	   47.77	 -535.04	   13.16
     48.2452	   60.00	   50.54	 -539.82	   13.14
     48.2786	   63.00	   53.74	 -540.02	   13.12
     48.3120	   52.00	   57.46	 -554.74	   13.09
     48.3455	   88.00	   61.84	 -523.11	   13.07
     48.3789	  100.00	   67.03	 -516.30	   13.04
     48.4123	   75.00	   73.25	 -547.52	   13.02
     48.4457	   83.00	   80.77	 -547.05	   13.00
     48.4792	  109.00	   89.93	 -530.20	   12.97
     48.5126	  119.00	  101.10	 -531.37	   12.95
     48.5460	  137.00	  114.70	 -526.97	   12.93
     48.5794	  165.00	  131.03	 -515.30	   12.90
     48.6128	  152.00	  150.07	 -547.34	   12.88
     48.6463	  203.00	  171.01	 -517.29	   12.86
     48.6797	  210.00	  191.91	 -531.19	   12.83
     48.7131	  264.00	  209.92	 -495.20	   12.81
     48.7465	  266.00	  222.77	 -506.05	   12.79
     48.7800	  262.00	  230.37	 -517.65	   12.77
     48.8134	  280.00	  234.47	 -503.75	   12.74
     48.8468	  277.00	  237.07	 -509.35	   12.72
     48.8802	  304.00	  239.88	 -485.16	   12.70
     48.9136	  294.00	  244.91	 -500.18	   12.67
     48.9471	  317.00	  254.50	 -486.77	   12.65
     48.9805	  319.00	  270.62	 -500.89	   12.63
     49.0139	  358.00	  294.06	 -485.33	   12.61
     49.0473	  400.00	  323.70	 -472.98	   12.59
     49.0808	  409.00	  355.85	 -496.12	   12.56
     49.1142	  498.00	  384.17	 -435.44	   12.54
     49.1476	  451.00	  402.08	 -500.36	   12.52
     49.1810	  453.00	  406.66	 -502.94	   12.50
     49.2144	  484.00	  399.76	 -465.04	   12.48
     49.2479	  488.00	  384.91	 -446.19	   12.45
     49.2813	  466.00	  364.87	 -448.14	   12.43
     49.3147	  431.00	  342.22	 -460.50	   12.41
     49.3481	  420.00	  320.55	 -449.83	   12.39
     49.3816	  411.00	  303.56	 -441.83	   12.37
     49.4150	  408.00	  293.91	 -435.19	   12.35
     49.4484	  364.00	  293.19	 -478.46	   12.32
     49.4818	  384.00	  302.34	 -467.62	   12.30
     49.5153	  390.00	  322.24	 -481.51	   12.28
     49.5487	  441.00	  353.90	 -462.17	   12.26
     49.5821	  479.00	  398.38	 -468.66	   12.24
     49.6155	  525.00	  456.21	 -480.48	   12.22
     49.6489	  533.00	  526.12	 -542.39	   12.20
     49.6824	  599.00	  602.83	 -553.11	   12.18
     49.7158	  683.00	  675.46	 -541.73	   12.16
     49.7492	  686.00	  729.00	 -592.28	   12.14
     49.7826	  678.00	  751.80	 -623.08	   12.12
     49.8161	  680.00	  742.48	 -611.75	   12.09
     49.8495	  735.00	  707.87	 -522.14	   12.07
     49.8829	  636.00	  655.07	 -568.34	   12.05
     49.9163	  614.00	  588.98	 -524.26	   12.03
     49.9497	  537.00	  515.43	 -527.71	   12.01
     49.9832	  445.00	  441.75	 -546.02	   11.99
     50.0166	  393.00	  374.15	 -530.43	   11.97
     50.0500	  345.00	  315.89	 -520.16	   11.95
     50.0834	  292.00	  267.52	 -524.79	   11.93
     50.1169	  246.00	  228.15	 -531.43	   11.91
     50.1503	  244.00	  196.36	 -501.64	   11.89
     50.1837	  194.00	  170.72	 -525.99	   11.87
     50.2171	  178.00	  149.94	 -521.21	   11.85
     50.2505	  124.00	  132.99	 -558.27	   11.83
     50.2840	  129.00	  119.06	 -539.33	   11.82
     50.3174	  133.00	  107.49	 -523.77	   11.80
     50.3508	   95.00	   97.80	 -552.08	   11.78
     50.3842	   75.00	   89.61	 -563.89	   11.76
     50.4177	   83.00	   82.63	 -548.90	   11.74
     50.4511	   81.00	   76.63	 -544.91	   11.72
     50.4845	   74.00	   71.45	 -546.73	   11.70
     50.5179	   43.00	   66.96	 -573.23	   11.68
     50.5513	   70.00	   63.03	 -542.30	   11.66
     50.5848	   75.00	   59.59	 -533.87	   11.64
     50.6182	   61.00	   56.57	 -544.85	   11.62
     50.6516	   52.00	   53.92	 -551.19	   11.61
     50.6850	   64.00	   51.58	 -536.86	   11.59
     50.7185	   51.00	   49.53	 -547.80	   11.57
     50.7519	   43.00	   47.73	 -554.00	   11.55
     50.7853	   44.00	   46.16	 -551.43	   11.53
     50.8187	   38.00	   44.80	 -556.07	   11.51
     50.8521	   44.00	   43.64	 -548.91	   11.50
     50.8856	   42.00	   42.66	 -549.94	   11.48
     50.9190	   52.00	   41.87	 -539.15	   11.46
     50.9524	   43.00	   41.26	 -547.54	   11.44
     50.9858	   50.00	   40.84	 -540.11	   11.42
     51.0193	   55.00	   40.60	 -534.88	   11.41
     51.0527	   47.00	   40.58	 -542.86	   11.39
     51.0861	   37.00	   40.79	 -553.07	   11.37
     51.1195	   52.00	   41.27	 -538.54	   11.35
     51.1530	   46.00	   42.05	 -545.32	   11.33
     51.1864	   37.00	   43.21	 -555.48	   11.32
     51.2198	   30.00	   44.81	 -564.09	   11.30
     51.2532	   56.00	   46.98	 -540.26	   11.28
     51.2866	   38.00	   49.85	 -561.13	   11.27
     51.3201	   51.00	   53.59	 -551.87	   11.25
     51.3535	   50.00	   58.41	 -557.68	   11.23
     51.3869	   83.00	   64.52	 -530.79	   11.21
     51.4203	   87.00	   72.12	 -534.39	   11.20
     51.4538	   86.00	   81.26	 -544.53	   11.18
     51.4872	   74.00	   91.65	 -566.93	   11.16
     51.5206	  115.00	  102.39	 -536.66	   11.15
     51.5540	  106.00	  111.83	 -555.10	   11.13
     51.5874	  122.00	  118.05	 -545.32	   11.11
     51.6209	  143.00	  119.94	 -526.21	   11.10
     51.6543	  117.00	  117.73	 -550.01	   11.08
     51.6877	  108.00	  112.47	 -553.75	   11.06
     51.7211	  118.00	  104.98	 -536.26	   11.05
     51.7546	  112.00	   95.85	 -533.13	   11.03
     51.7880	   94.00	   85.83	 -541.10	   11.01
     51.8214	   68.00	   75.85	 -557.13	   11.00
     51.8548	   78.00	   66.71	 -537.98	   10.98
     51.8883	   61.00	   58.79	 -547.06	   10.97
     51.9217	   48.00	   52.17	 -553.44	   10.95
     51.9551	   49.00	   46.73	 -547.00	   10.93
     51.9885	   58.00	   42.29	 -533.56	   10.92
     52.0219	   42.00	   38.67	 -545.94	   10.90
     52.0554	   27.00	   35.69	 -557.97	   10.89
     52.0888	   25.00	   33.24	 -557.52	   10.87
     52.1222	   35.00	   31.20	 -545.47	   10.85
     52.1556	   28.00	   29.47	 -550.75	   10.84
     52.1891	   32.00	   28.01	 -545.28	   10.82
     52.2225	   31.00	   26.75	 -545.03	   10.81
     52.2559	   37.00	   25.66	 -537.93	   10.79
     52.2893	   41.00	   24.71	 -532.98	   10.78
     52.3227	   22.00	   23.87	 -551.14	   10.76
     52.3562	   32.00	   23.12	 -540.39	   10.75
     52.3896	   30.00	   22.45	 -541.73	   10.73
     52.4230	   21.00	   21.85	 -550.13	   10.72
     52.4564	   35.00	   21.31	 -535.59	   10.70
     52.4899	   21.00	   20.82	 -549.10	   10.69
     52.5233	   23.00	   20.37	 -546.65	   10.67
     52.5567	   24.00	   19.96	 -545.24	   10.66
     52.5901	   16.00	   19.59	 -552.86	   10.64
     52.6235	   30.00	   19.24	 -538.51	   10.63
     52.6570	   16.00	   18.92	 -552.19	   10.61
     52.6904	   17.00	   18.62	 -550.89	   10.60
     52.7238	   21.00	   18.63	 -546.90	   10.59
     52.7572	   21.00	   18.37	 -546.65	   10.57
     52.7907	   20.00	   18.13	 -547.41	   10.56
     52.8241	   12.00	   17.91	 -555.18	   10.54
     52.8575	   20.00	   17.84	 -547.11	   10.53
     52.8909	   17.00	   17.47	 -549.74	   10.51
     52.9244	   17.00	   17.29	 -549.56	   10.50
     52.9578	   12.00	   17.11	 -554.39	   10.49
     52.9912	   24.00	   16.95	 -542.23	   10.47
     53.0246	   20.00	   16.71	 -545.99	   10.46
     53.0580	   19.00	   16.57	 -546.84	   10.44
     53.0915	   19.00	   16.60	 -546.87	   10.43
     53.1249	   28.00	   16.47	 -537.74	   10.42
     53.1583	   20.00	   16.35	 -545.62	   10.40
     53.1917	   20.00	   16.23	 -545.51	   10.39
     53.2252	   23.00	   16.21	 -542.48	   10.38
     53.2586	   23.00	   16.10	 -542.38	   10.36
     53.2920	   21.00	   16.01	 -544.28	   10.35
     53.3254	   19.00	   15.53	 -545.80	   10.34
     53.3588	   18.00	   15.44	 -546.72	   10.32
     53.3923	   22.00	   15.37	 -542.64	   10.31
     53.4257	   17.00	   15.29	 -547.57	   10.30
     53.4591	   23.00	   15.03	 -541.30	   10.28
     53.4925	   16.00	   14.96	 -548.24	   10.27
     53.5260	   10.00	   14.90	 -554.18	   10.26
     53.5594	   12.00	   14.84	 -552.12	   10.25
     53.5928	   12.00	   14.79	 -552.06	   10.23
     53.6262	   10.00	   14.74	 -554.01	   10.22
     53.6596	   11.00	   14.69	 -552.96	   10.21
     53.6931	   23.00	   14.64	 -540.92	   10.20
     53.7265	   14.00	   14.60	 -549.87	   10.18
     53.7599	   17.00	   14.56	 -546.83	   10.17
     53.7933	   21.00	   14.52	 -542.79	   10.16
     53.8268	   17.00	   14.48	 -546.76	   10.15
     53.8602	    6.00	   14.45	 -557.72	   10.13
     53.8936	   16.00	   14.42	 -547.69	   10.12
     53.9270	   20.00	   14.39	 -543.66	   10.11
     53.9604	   19.00	   13.47	 -543.75	   10.10
     53.9939	   18.00	   13.46	 -544.74	   10.09
     54.0273	   15.00	   13.45	 -547.73	   10.07
     54.0607	   19.00	   13.44	 -543.72	   10.06
     54.0941	   15.00	   13.00	 -547.27	   10.05
     54.1276	   10.00	   13.00	 -552.27	   10.04
     54.1610	   17.00	   13.00	 -545.28	   10.03
     54.1944	   15.00	   13.01	 -547.29	   10.01
     54.2278	   14.00	   13.02	 -548.29	   10.00
     54.2612	   22.00	   13.03	 -540.30	    9.99
     54.2947	   25.00	   13.04	 -537.32	    9.98
     54.3281	    9.00	   13.05	 -553.33	    9.97
     54.3615	   24.00	   13.07	 -538.34	    9.96
     54.3949	   18.00	   13.09	 -544.36	    9.95
     54.4284	   24.00	   13.11	 -538.38	    9.93
     54.4618	   11.00	   13.13	 -551.40	    9.92
     54.4952	    6.00	   13.15	 -556.43	    9.91
     54.5286	   12.00	   13.18	 -550.45	    9.90
     54.5621	   17.00	   13.21	 -545.48	    9.89
     54.5955	   19.00	   13.24	 -543.51	    9.88
     54.6289	   28.00	   13.27	 -534.54	    9.87
     54.6623	   12.00	   13.31	 -550.58	    9.86
     54.6957	   18.00	   13.34	 -544.62	    9.85
     54.7292	   15.00	   13.39	 -547.66	    9.84
     54.7626	   19.00	   13.43	 -543.71	    9.83
     54.7960	   17.00	   13.48	 -545.76	    9.81
     54.8294	   16.00	   13.53	 -546.81	    9.80
     54.8629	   23.00	   13.59	 -539.87	    9.79
     54.8963	   15.00	   13.65	 -547.93	    9.78
     54.9297	   15.00	   13.72	 -548.00	    9.77
     54.9631	   20.00	   13.80	 -543.07	    9.76
     54.9965	   14.00	   13.88	 -549.15	    9.75
     55.0300	   19.00	   13.97	 -544.24	    9.74
     55.0634	   25.00	   14.06	 -538.34	    9.73
     55.0968	   27.00	   14.17	 -536.45	    9.72
     55.1302	   18.00	   14.29	 -545.57	    9.71
     55.1637	   22.00	   14.42	 -541.70	    9.70
     55.1971	   25.00	   14.57	 -538.84	    9.69
     55.2305	   19.00	   14.81	 -545.08	    9.68
     55.2639	   16.00	   14.96	 -548.23	    9.67
     55.2973	   16.00	   15.10	 -548.38	    9.66
     55.3308	   29.00	   15.23	 -535.51	    9.65
     55.3642	   24.00	   15.35	 -540.63	    9.64
     55.3976	   24.00	   15.51	 -540.79	    9.63
     55.4310	   23.00	   15.63	 -541.90	    9.62
     55.4645	   27.00	   15.74	 -538.02	    9.62
     55.4979	   16.00	   15.87	 -549.14	    9.61
     55.5313	   29.00	   16.00	 -536.27	    9.60
     55.5647	   21.00	   16.14	 -544.42	    9.59
     55.5982	   25.00	   16.39	 -540.67	    9.58
     55.6316	   20.00	   16.58	 -545.85	    9.57
     55.6650	   27.00	   16.78	 -539.05	    9.56
     55.6984	   21.00	   17.01	 -545.28	    9.55
     55.7318	   18.00	   17.26	 -548.53	    9.54
     55.7653	   28.00	   17.57	 -538.85	    9.53
     55.7987	   22.00	   17.74	 -545.02	    9.52
     55.8321	   24.00	   18.07	 -543.35	    9.51
     55.8655	   21.00	   18.43	 -546.71	    9.51
     55.8990	   25.00	   18.82	 -543.10	    9.50
     55.9324	   23.00	   19.18	 -545.46	    9.49
     55.9658	   17.00	   19.65	 -551.92	    9.48
     55.9992	   23.00	   20.16	 -546.43	    9.47
     56.0326	   14.00	   20.71	 -555.99	    9.46
     56.0661	   19.00	   21.32	 -551.60	    9.45
     56.0995	   29.00	   21.99	 -542.27	    9.45
     56.1329	   23.00	   22.73	 -549.01	    9.44
     56.1663	   34.00	   23.55	 -538.82	    9.43
     56.1998	   23.00	   24.46	 -550.73	    9.42
     56.2332	   24.00	   25.46	 -550.74	    9.41
     56.2666	   30.00	   26.59	 -545.87	    9.41
     56.3000	   27.00	   27.86	 -550.13	    9.40
     56.3334	   31.00	   29.28	 -547.56	    9.39
     56.3669	   32.00	   30.90	 -548.17	    9.38
     56.4003	   38.00	   32.74	 -544.01	    9.37
     56.4337	   25.00	   34.85	 -559.12	    9.37
     56.4671	   50.00	   37.27	 -536.55	    9.36
     56.5006	   47.00	   40.09	 -542.37	    9.35
     56.5340	   52.00	   43.39	 -540.67	    9.34
     56.5674	   59.00	   47.28	 -537.56	    9.33
     56.6008	   60.00	   51.91	 -541.18	    9.33
     56.6343	   68.00	   57.45	 -538.72	    9.32
     56.6677	   69.00	   64.13	 -544.40	    9.31
     56.7011	   84.00	   72.23	 -537.50	    9.30
     56.7345	  104.00	   82.07	 -527.34	    9.30
     56.7679	  100.00	   94.03	 -543.31	    9.29
     56.8014	  123.00	  108.49	 -534.76	    9.28
     56.8348	  121.00	  125.70	 -553.97	    9.27
     56.8682	  161.00	  145.63	 -533.91	    9.27
     56.9016	  171.00	  167.59	 -545.86	    9.26
     56.9351	  219.00	  189.86	 -520.13	    9.25
     56.9685	  207.00	  209.68	 -551.96	    9.25
     57.0019	  240.00	  224.15	 -533.42	    9.24
     57.0353	  280.00	  231.72	 -500.99	    9.23
     57.0687	  262.00	  233.05	 -520.32	    9.23
     57.1022	  255.00	  230.07	 -524.35	    9.22
     57.1356	  255.00	  224.44	 -518.72	    9.21
     57.1690	  225.00	  217.15	 -541.43	    9.21
     57.2024	  248.00	  209.15	 -510.43	    9.20
     57.2359	  244.00	  201.70	 -506.98	    9.19
     57.2693	  235.00	  195.88	 -510.15	    9.19
     57.3027	  213.00	  191.80	 -528.07	    9.18
     57.3361	  173.00	  188.39	 -564.67	    9.17
     57.3695	  219.00	  184.00	 -514.27	    9.17
     57.4030	  193.00	  177.36	 -533.64	    9.16
     57.4364	  165.00	  168.39	 -552.66	    9.15
     57.4698	  176.00	  157.73	 -531.01	    9.15
     57.5032	  165.00	  146.02	 -530.29	    9.14
     57.5367	  127.00	  133.49	 -555.76	    9.13
     57.5701	  129.00	  120.38	 -540.65	    9.13
     57.6035	  124.00	  107.24	 -532.51	    9.12
     57.6369	  126.00	   94.77	 -518.04	    9.12
     57.6703	  112.00	   83.53	 -520.81	    9.11
     57.7038	   81.00	   73.78	 -542.05	    9.10
     57.7372	   61.00	   65.50	 -553.78	    9.10
     57.7706	   66.00	   58.58	 -541.85	    9.09
     57.8040	   68.00	   52.80	 -534.08	    9.09
     57.8375	   68.00	   47.99	 -529.26	    9.08
     57.8709	   71.00	   43.96	 -522.24	    9.08
     57.9043	   55.00	   40.58	 -534.86	    9.07
     57.9377	   39.00	   37.72	 -548.00	    9.06
     57.9712	   42.00	   35.29	 -542.56	    9.06
     58.0046	   42.00	   33.20	 -540.48	    9.05
     58.0380	   34.00	   31.41	 -546.68	    9.05
     58.0714	   30.00	   29.85	 -549.12	    9.04
     58.1048	   46.00	   28.49	 -531.77	    9.04
     58.1383	   37.00	   27.31	 -539.58	    9.03
     58.1717	   25.00	   26.26	 -550.54	    9.03
     58.2051	   29.00	   25.35	 -545.62	    9.02
     58.2385	   25.00	   24.54	 -548.81	    9.02
     58.2720	   22.00	   23.82	 -551.10	    9.01
     58.3054	   29.00	   23.20	 -543.47	    9.01
     58.3388	   30.00	   22.64	 -541.92	    9.00
     58.3722	   33.00	   22.15	 -538.43	    9.00
     58.4056	   31.00	   21.73	 -540.00	    8.99
     58.4391	   30.00	   21.36	 -540.64	    8.99
     58.4725	   31.00	   21.04	 -539.32	    8.98
     58.5059	   22.00	   20.78	 -548.05	    8.98
     58.5393	   21.00	   20.56	 -548.83	    8.97
     58.5728	   15.00	   20.38	 -554.66	    8.97
     58.6062	   28.00	   20.25	 -541.52	    8.96
     58.6396	   30.00	   20.16	 -539.43	    8.96
     58.6730	   17.00	   20.11	 -552.38	    8.95
     58.7064	   25.00	   20.10	 -544.38	    8.95
     58.7399	   28.00	   20.15	 -541.42	    8.94
     58.7733	   32.00	   20.23	 -537.51	    8.94
     58.8067	   25.00	   20.37	 -544.65	    8.94
     58.8401	   24.00	   20.56	 -545.84	    8.93
     58.8736	   27.00	   20.82	 -543.09	    8.93
     58.9070	   22.00	   21.13	 -548.41	    8.92
     58.9404	   22.00	   21.52	 -548.80	    8.92
     58.9738	   21.00	   22.00	 -550.28	    8.91
     59.0073	   31.00	   22.58	 -540.85	    8.91
     59.0407	   19.00	   23.27	 -553.54	    8.91
     59.0741	   24.00	   24.09	 -549.37	    8.90
     59.1075	   30.00	   25.08	 -544.35	    8.90
     59.1409	   31.00	   26.27	 -544.54	    8.89
     59.1744	   29.00	   27.69	 -547.97	    8.89
     59.2078	   48.00	   29.41	 -530.69	    8.89
     59.2412	   30.00	   31.50	 -550.77	    8.88
     59.2746	   39.00	   34.02	 -544.30	    8.88
     59.3081	   39.00	   37.09	 -547.36	    8.87
     59.3415	   41.00	   40.81	 -549.08	    8.87
     59.3749	   38.00	   45.28	 -556.56	    8.87
     59.4083	   45.00	   50.61	 -554.88	    8.86
     59.4417	   43.00	   56.78	 -563.06	    8.86
     59.4752	   68.00	   63.65	 -544.93	    8.86
     59.5086	   82.00	   70.80	 -538.07	    8.85
     59.5420	   66.00	   77.49	 -560.76	    8.85
     59.5754	   71.00	   82.89	 -561.17	    8.85
     59.6089	   70.00	   86.48	 -565.75	    8.84
     59.6423	   87.00	   88.31	 -550.58	    8.84
     59.6757	   94.00	   88.92	 -544.19	    8.84
     59.7091	   96.00	   88.88	 -542.16	    8.83
     59.7425	   99.00	   88.57	 -538.84	    8.83
     59.7760	   96.00	   88.19	 -541.46	    8.83
     59.8094	   89.00	   87.98	 -548.26	    8.82
     59.8428	  113.00	   88.14	 -524.41	    8.82
     59.8762	   84.00	   88.56	 -553.83	    8.82
     59.9097	   95.00	   88.77	 -543.05	    8.81
     59.9431	  106.00	   88.09	 -531.37	    8.81
     59.9765	   78.00	   86.08	 -557.35	    8.81
     60.0099	  100.00	   82.76	 -532.03	    8.81
     60.0434	   87.00	   78.50	 -540.77	    8.80
     60.0768	   88.00	   73.62	 -534.90	    8.80
     60.1102	   81.00	   68.27	 -536.54	    8.80
     60.1436	   81.00	   62.54	 -530.81	    8.80
     60.1770	   69.00	   56.64	 -536.91	    8.79
     60.2105	   65.00	   50.89	 -535.17	    8.79
     60.2439	   48.00	   45.59	 -546.86	    8.79
     60.2773	   55.00	   40.90	 -535.18	    8.79
     60.3107	   55.00	   36.88	 -531.15	    8.78
     60.3442	   42.00	   33.47	 -540.74	    8.78
     60.3776	   35.00	   30.61	 -544.89	    8.78
     60.4110	   32.00	   28.22	 -545.49	    8.78
     60.4444	   43.00	   26.21	 -532.48	    8.77
     60.4778	   37.00	   24.51	 -536.79	    8.77
     60.5113	   24.00	   23.08	 -548.35	    8.77
     60.5447	   24.00	   21.85	 -547.13	    8.77
     60.5781	   36.00	   20.80	 -534.07	    8.76
     60.6115	   29.00	   19.89	 -540.16	    8.76
     60.6450	   25.00	   19.09	 -543.37	    8.76
     60.6784	   28.00	   18.40	 -539.67	    8.76
     60.7118	   19.00	   17.78	 -548.06	    8.76
     60.7452	   21.00	   17.24	 -545.51	    8.75
     60.7786	   15.00	   16.75	 -551.02	    8.75
     60.8121	   19.00	   16.31	 -546.59	    8.75
     60.8455	   12.00	   15.92	 -553.19	    8.75
     60.8789	   20.00	   15.56	 -544.84	    8.75
     60.9123	   20.00	   15.24	 -544.51	    8.74
     60.9458	   16.00	   15.23	 -548.50	    8.74
     60.9792	   16.00	   14.96	 -548.24	    8.74
     61.0126	   19.00	   14.72	 -544.99	    8.74
     61.0460	   22.00	   14.50	 -541.77	    8.74
     61.0794	   16.00	   14.29	 -547.57	    8.74
     61.1129	   15.00	   14.25	 -548.52	    8.73
     61.1463	   24.00	   14.07	 -539.35	    8.73
     61.1797	   14.00	   13.92	 -549.19	    8.73
     61.2131	   18.00	   13.77	 -545.04	    8.73
     61.2466	   16.00	   13.63	 -546.91	    8.73
     61.2800	   14.00	   13.51	 -548.78	    8.73
     61.3134	   12.00	   13.10	 -550.38	    8.73
     61.3468	   25.00	   13.00	 -537.27	    8.73
     61.3803	    9.00	   12.90	 -553.18	    8.72
     61.4137	   18.00	   12.81	 -544.08	    8.72
     61.4471	   15.00	   12.73	 -547.00	    8.72
     61.4805	   11.00	   12.51	 -550.78	    8.72
     61.5139	   11.00	   12.43	 -550.71	    8.72
     61.5474	   16.00	   12.37	 -545.64	    8.72
     61.5808	   14.00	   12.31	 -547.58	    8.72
     61.6142	   22.00	   12.25	 -539.52	    8.72
     61.6476	   17.00	   12.20	 -544.47	    8.72
     61.6811	   22.00	   12.15	 -539.42	    8.71
     61.7145	   16.00	   11.94	 -545.21	    8.71
     61.7479	   10.00	   11.90	 -551.17	    8.71
     61.7813	   21.00	   11.86	 -540.14	    8.71
     61.8147	   14.00	   11.83	 -547.10	    8.71
     61.8482	   10.00	   11.71	 -550.99	    8.71
     61.8816	    6.00	   11.69	 -554.96	    8.71
     61.9150	   14.00	   11.66	 -546.94	    8.71
     61.9484	   11.00	   11.64	 -549.92	    8.71
     61.9819	    9.00	   11.62	 -551.90	    8.71
     62.0153	   14.00	   11.60	 -546.88	    8.71
     62.0487	   14.00	   11.59	 -546.86	    8.71
     62.0821	   14.00	   11.58	 -546.85	    8.71
     62.1155	   16.00	   11.57	 -544.84	    8.71
     62.1490	   14.00	   11.56	 -546.83	    8.70
     62.1824	   12.00	   11.55	 -548.83	    8.70
     62.2158	    7.00	   11.55	 -553.83	    8.70
     62.2492	   15.00	   11.55	 -545.83	    8.70
     62.2827	   10.00	   11.55	 -550.83	    8.70
     62.3161	   16.00	   11.56	 -544.83	    8.70
     62.3495	   12.00	   11.57	 -548.84	    8.70
     62.3829	    9.00	   11.58	 -551.85	    8.70
     62.4164	    9.00	   11.60	 -551.87	    8.70
     62.4498	   21.00	   11.72	 -539.99	    8.70
     62.4832	   17.00	   11.74	 -544.02	    8.70
     62.5166	    9.00	   11.77	 -552.05	    8.70
     62.5500	    7.00	   11.81	 -554.08	    8.70
     62.5835	   14.00	   11.85	 -547.13	    8.70
     62.6169	   14.00	   11.91	 -547.18	    8.70
     62.6503	    9.00	   12.02	 -552.30	    8.70
     62.6837	   12.00	   12.10	 -549.37	    8.70
     62.7172	   11.00	   12.19	 -550.46	    8.70
     62.7506	    6.00	   12.30	 -555.57	    8.70
     62.7840	   16.00	   12.46	 -545.73	    8.70
     62.8174	   12.00	   12.61	 -549.88	    8.70
     62.8508	   12.00	   12.77	 -550.04	    8.70
     62.8843	   23.00	   12.94	 -539.22	    8.70
     62.9177	   15.00	   13.11	 -547.39	    8.70
     62.9511	   18.00	   13.28	 -544.56	    8.70
     62.9845	   16.00	   13.39	 -546.66	    8.70
     63.0180	   12.00	   13.45	 -550.72	    8.70
     63.0514	   19.00	   13.46	 -543.74	    8.71
     63.0848	    8.00	   13.45	 -554.72	    8.71
     63.1182	   19.00	   13.40	 -543.68	    8.71
     63.1516	   20.00	   13.35	 -542.62	    8.71
     63.1851	   15.00	   13.27	 -547.55	    8.71
     63.2185	   11.00	   13.19	 -551.46	    8.71
     63.2519	   15.00	   13.11	 -547.38	    8.71
     63.2853	   15.00	   13.03	 -547.31	    8.71
     63.3188	   18.00	   12.97	 -544.25	    8.71
     63.3522	   14.00	   12.93	 -548.20	    8.71
     63.3856	   17.00	   12.90	 -545.18	    8.71
     63.4190	   17.00	   12.89	 -545.17	    8.71
     63.4524	   11.00	   12.90	 -551.17	    8.71
     63.4859	   10.00	   12.92	 -552.19	    8.71
     63.5193	   12.00	   12.95	 -550.22	    8.71
     63.5527	   14.00	   12.99	 -548.27	    8.72
     63.5861	   15.00	   13.04	 -547.32	    8.72
     63.6196	   11.00	   13.10	 -551.38	    8.72
     63.6530	   14.00	   13.17	 -548.45	    8.72
     63.6864	    9.00	   13.25	 -553.52	    8.72
     63.7198	   14.00	   13.34	 -548.61	    8.72
     63.7533	   12.00	   13.43	 -550.70	    8.72
     63.7867	   17.00	   13.53	 -545.81	    8.72
     63.8201	   16.00	   13.64	 -546.92	    8.72
     63.8535	   19.00	   13.76	 -544.03	    8.72
     63.8869	   15.00	   13.89	 -548.16	    8.73
     63.9204	   18.00	   14.03	 -545.30	    8.73
     63.9538	   18.00	   14.08	 -545.35	    8.73
     63.9872	   18.00	   14.24	 -545.52	    8.73
     64.0206	   11.00	   14.41	 -552.69	    8.73
     64.0541	   17.00	   14.60	 -546.87	    8.73
     64.0875	   11.00	   14.80	 -553.07	    8.73
     64.1209	    7.00	   14.97	 -557.24	    8.73
     64.1543	   21.00	   15.20	 -543.47	    8.74
     64.1877	   17.00	   15.45	 -547.72	    8.74
     64.2212	   23.00	   15.71	 -541.99	    8.74
     64.2546	   20.00	   16.01	 -545.28	    8.74
     64.2880	   12.00	   16.32	 -553.59	    8.74
     64.3214	   14.00	   16.58	 -551.85	    8.74
     64.3549	   20.00	   16.95	 -546.22	    8.74
     64.3883	   21.00	   17.35	 -545.63	    8.75
     64.4217	   16.00	   17.80	 -551.07	    8.75
     64.4551	   15.00	   18.28	 -552.55	    8.75
     64.4885	   15.00	   18.77	 -553.04	    8.75
     64.5220	   18.00	   19.35	 -550.63	    8.75
     64.5554	   24.00	   20.00	 -545.27	    8.75
     64.5888	   23.00	   20.71	 -546.98	    8.76
     64.6222	   18.00	   21.50	 -552.78	    8.76
     64.6557	   22.00	   22.38	 -549.66	    8.76
     64.6891	   36.00	   23.37	 -536.65	    8.76
     64.7225	   25.00	   24.48	 -548.76	    8.76
     64.7559	   28.00	   25.73	 -547.01	    8.77
     64.7894	   37.00	   27.15	 -539.43	    8.77
     64.8228	   34.00	   28.78	 -544.05	    8.77
     64.8562	   45.00	   30.64	 -534.91	    8.77
     64.8896	   52.00	   32.78	 -530.06	    8.77
     64.9230	   38.00	   35.28	 -546.55	    8.78
     64.9565	   39.00	   38.19	 -548.47	    8.78
     64.9899	   56.00	   41.63	 -534.90	    8.78
     65.0233	   50.00	   45.69	 -544.96	    8.78
     65.0567	   62.00	   50.52	 -537.80	    8.78
     65.0901	   62.00	   56.29	 -543.56	    8.79
     65.1236	   83.00	   63.19	 -529.46	    8.79
     65.1570	   96.00	   71.43	 -524.70	    8.79
     65.1904	   90.00	   81.22	 -540.50	    8.79
     65.2238	   87.00	   92.74	 -555.01	    8.79
     65.2573	  112.00	  106.00	 -543.27	    8.80
     65.2907	  138.00	  120.74	 -532.01	    8.80
     65.3241	  132.00	  136.21	 -553.48	    8.80
     65.3575	  148.00	  151.05	 -552.32	    8.80
     65.3910	  154.00	  163.42	 -558.69	    8.81
     65.4244	  153.00	  171.56	 -567.84	    8.81
     65.4578	  171.00	  174.66	 -552.93	    8.81
     65.4912	  164.00	  173.09	 -558.37	    8.81
     65.5246	  164.00	  168.03	 -553.31	    8.82
     65.5581	  154.00	  160.50	 -555.78	    8.82
     65.5915	  161.00	  151.04	 -539.32	    8.82
     65.6249	  165.00	  139.89	 -524.16	    8.82
     65.6583	  148.00	  127.44	 -528.71	    8.83
     65.6918	  138.00	  114.43	 -525.70	    8.83
     65.7252	  112.00	  101.71	 -538.99	    8.83
     65.7586	  100.00	   89.96	 -539.24	    8.83
     65.7920	   82.00	   79.56	 -546.83	    8.84
     65.8254	   89.00	   70.59	 -530.87	    8.84
     65.8589	   60.00	   63.01	 -552.28	    8.84
     65.8923	   61.00	   56.65	 -544.92	    8.84
     65.9257	   63.00	   51.34	 -537.61	    8.85
     65.9591	   54.00	   46.92	 -542.20	    8.85
     65.9926	   57.00	   43.25	 -535.52	    8.85
     66.0260	   69.00	   40.19	 -520.46	    8.85
     66.0594	   49.00	   37.64	 -537.92	    8.86
     66.0928	   45.00	   35.52	 -539.80	    8.86
     66.1263	   47.00	   33.76	 -536.04	    8.86
     66.1597	   33.00	   32.31	 -548.58	    8.87
     66.1931	   39.00	   31.12	 -541.39	    8.87
     66.2265	   32.00	   30.16	 -547.44	    8.87
     66.2599	   24.00	   29.42	 -554.69	    8.87
     66.2934	   23.00	   28.86	 -555.13	    8.88
     66.3268	   30.00	   28.48	 -547.76	    8.88
     66.3602	   38.00	   28.28	 -539.56	    8.88
     66.3936	   31.00	   28.26	 -546.54	    8.89
     66.4271	   34.00	   28.42	 -543.69	    8.89
     66.4605	   34.00	   28.77	 -544.05	    8.89
     66.4939	   42.00	   29.34	 -536.61	    8.89
     66.5273	   39.00	   30.15	 -540.42	    8.90
     66.5607	   35.00	   31.22	 -545.50	    8.90
     66.5942	   35.00	   32.62	 -546.89	    8.90
     66.6276	   33.00	   34.38	 -550.66	    8.91
     66.6610	   41.00	   36.58	 -544.86	    8.91
     66.6944	   51.00	   39.29	 -537.56	    8.91
     66.7279	   48.00	   42.57	 -543.84	    8.92
     66.7613	   59.00	   46.49	 -536.76	    8.92
     66.7947	   42.00	   51.07	 -558.34	    8.92
     66.8281	   58.00	   56.24	 -547.51	    8.93
     66.8615	   64.00	   61.79	 -547.06	    8.93
     66.8950	   72.00	   67.30	 -544.58	    8.93
     66.9284	   62.00	   72.21	 -559.48	    8.94
     66.9618	   73.00	   75.91	 -552.18	    8.94
     66.9952	   86.00	   78.07	 -541.34	    8.94
     67.0287	   79.00	   79.00	 -549.28	    8.95
     67.0621	   81.00	   78.61	 -546.88	    8.95
     67.0955	   75.00	   77.54	 -551.81	    8.95
     67.1289	   68.00	   76.02	 -557.29	    8.96
     67.1624	   86.00	   74.11	 -537.39	    8.96
     67.1958	   81.00	   71.83	 -540.10	    8.96
     67.2292	   75.00	   69.34	 -543.61	    8.97
     67.2626	   94.00	   66.46	 -521.74	    8.97
     67.2960	   79.00	   63.36	 -533.63	    8.97
     67.3295	   68.00	   60.03	 -541.30	    8.98
     67.3629	   70.00	   56.56	 -535.84	    8.98
     67.3963	   59.00	   53.08	 -543.35	    8.98
     67.4297	   61.00	   49.68	 -537.95	    8.99
     67.4632	   60.00	   46.41	 -535.69	    8.99
     67.4966	   47.00	   43.26	 -545.53	    8.99
     67.5300	   55.00	   40.18	 -534.45	    9.00
     67.5634	   51.00	   37.20	 -535.48	    9.00
     67.5968	   44.00	   34.39	 -539.67	    9.00
     67.6303	   34.00	   31.81	 -547.08	    9.01
     67.6637	   34.00	   29.50	 -544.78	    9.01
     67.6971	   28.00	   27.48	 -548.75	    9.02
     67.7305	   39.00	   25.72	 -536.00	    9.02
     67.7640	   24.00	   24.21	 -549.49	    9.02
     67.7974	   17.00	   22.91	 -555.19	    9.03
     67.8308	   30.00	   21.89	 -541.16	    9.03
     67.8642	   21.00	   20.93	 -549.20	    9.03
     67.8976	   31.00	   20.10	 -538.37	    9.04
     67.9311	   21.00	   19.37	 -547.65	    9.04
     67.9645	   27.00	   18.74	 -541.01	    9.05
     67.9979	   25.00	   18.18	 -542.46	    9.05
     68.0313	   21.00	   17.74	 -546.01	    9.05
     68.0648	   21.00	   17.30	 -545.57	    9.06
     68.0982	   20.00	   16.91	 -546.19	    9.06
     68.1316	   21.00	   16.56	 -544.84	    9.06
     68.1650	   20.00	   16.25	 -545.53	    9.07
     68.1984	   14.00	   15.97	 -551.25	    9.07
     68.2319	   14.00	   15.72	 -550.99	    9.08
     68.2653	   17.00	   15.49	 -547.76	    9.08
     68.2987	   16.00	   15.28	 -548.55	    9.08
     68.3321	   14.00	   15.09	 -550.36	    9.09
     68.3656	   18.00	   14.91	 -546.19	    9.09
     68.3990	   21.00	   14.76	 -543.03	    9.10
     68.4324	   17.00	   14.61	 -546.89	    9.10
     68.4658	   16.00	   14.48	 -547.75	    9.10
     68.4993	   14.00	   14.36	 -549.63	    9.11
     68.5327	   17.00	   14.25	 -546.52	    9.11
     68.5661	   12.00	   14.14	 -551.42	    9.12
     68.5995	   10.00	   14.05	 -553.32	    9.12
     68.6329	   17.00	   13.96	 -546.24	    9.12
     68.6664	   20.00	   13.89	 -543.16	    9.13
     68.6998	   16.00	   13.81	 -547.09	    9.13
     68.7332	    6.00	   13.75	 -557.02	    9.14
     68.7666	   14.00	   13.69	 -548.96	    9.14
     68.8000	   17.00	   13.64	 -545.91	    9.14
     68.8335	   12.00	   13.59	 -550.86	    9.15
     68.8669	   15.00	   13.54	 -547.82	    9.15
     68.9003	   12.00	   13.50	 -550.78	    9.16
     68.9337	   14.00	   13.47	 -548.74	    9.16
     68.9672	   15.00	   13.44	 -547.71	    9.17
     69.0006	   15.00	   13.41	 -547.69	    9.17
     69.0340	    4.00	   13.39	 -558.66	    9.17
     69.0674	   10.00	   13.37	 -552.65	    9.18
     69.1009	    8.00	   13.36	 -554.63	    9.18
     69.1343	   19.00	   13.34	 -543.62	    9.19
     69.1677	   10.00	   13.34	 -552.61	    9.19
     69.2011	   14.00	   13.33	 -548.61	    9.19
     69.2345	   15.00	   13.33	 -547.60	    9.20
     69.2680	   19.00	   13.33	 -543.61	    9.20
     69.3014	   14.00	   13.34	 -548.61	    9.21
     69.3348	   20.00	   13.35	 -542.62	    9.21
     69.3682	   14.00	   13.36	 -548.63	    9.22
     69.4017	   12.00	   13.37	 -550.65	    9.22
     69.4351	   10.00	   13.39	 -552.66	    9.22
     69.4685	   19.00	   13.41	 -543.69	    9.23
     69.5019	   16.00	   13.44	 -546.71	    9.23
     69.5354	   12.00	   13.46	 -550.74	    9.24
     69.5688	   16.00	   13.55	 -546.82	    9.24
     69.6022	   15.00	   13.58	 -547.86	    9.25
     69.6356	   16.00	   13.62	 -546.90	    9.25
     69.6690	   14.00	   13.67	 -548.94	    9.26
     69.7025	    9.00	   13.71	 -553.99	    9.26
     69.7359	    9.00	   13.76	 -554.04	    9.26
     69.7693	   17.00	   13.85	 -546.12	    9.27
     69.8027	   14.00	   13.91	 -549.18	    9.27
     69.8362	   25.00	   13.97	 -538.25	    9.28
     69.8696	    9.00	   14.04	 -554.32	    9.28
     69.9030	   14.00	   14.12	 -549.39	    9.29
     69.9364	   17.00	   13.92	 -546.20	    9.29
     69.9698	   21.00	   14.01	 -542.29	    9.30
     70.0033	   20.00	   14.11	 -543.39	    9.30
     70.0367	   15.00	   14.22	 -548.49	    9.30
     70.0701	   12.00	   14.33	 -551.60	    9.31
     70.1035	   17.00	   14.44	 -546.72	    9.31
     70.1370	   12.00	   14.43	 -551.71	    9.32
     70.1704	   12.00	   14.57	 -551.85	    9.32
     70.2038	   19.00	   14.72	 -544.99	    9.33
     70.2372	   19.00	   14.87	 -545.15	    9.33
     70.2706	   14.00	   15.04	 -550.32	    9.34
     70.3041	   16.00	   15.22	 -548.49	    9.34
     70.3375	   17.00	   15.41	 -547.69	    9.34
     70.3709	   20.00	   15.62	 -544.89	    9.35
     70.4043	   19.00	   15.84	 -546.11	    9.35
     70.4378	   12.00	   16.08	 -553.35	    9.36
     70.4712	   21.00	   16.33	 -544.61	    9.36
     70.5046	   10.00	   16.61	 -555.88	    9.37
     70.5380	   18.00	   16.91	 -548.18	    9.37
     70.5714	   14.00	   17.23	 -552.51	    9.38
     70.6049	   12.00	   17.58	 -554.86	    9.38
     70.6383	   17.00	   17.97	 -550.24	    9.39
     70.6717	   15.00	   18.38	 -552.66	    9.39
     70.7051	   11.00	   18.84	 -557.11	    9.40
     70.7386	   12.00	   19.33	 -556.61	    9.40
     70.7720	   20.00	   19.88	 -549.16	    9.40
     70.8054	   16.00	   20.48	 -553.76	    9.41
     70.8388	   21.00	   21.15	 -549.42	    9.41
     70.8723	   25.00	   21.89	 -546.16	    9.42
     70.9057	   29.00	   22.71	 -542.98	    9.42
     70.9391	   28.00	   23.62	 -544.90	    9.43
     70.9725	   32.00	   24.65	 -541.93	    9.43
     71.0059	   24.00	   25.81	 -551.08	    9.44
     71.0394	   22.00	   27.12	 -554.39	    9.44
     71.0728	   33.00	   28.61	 -544.88	    9.45
     71.1062	   38.00	   30.31	 -541.59	    9.45
     71.1396	   33.00	   32.27	 -548.54	    9.46
     71.1730	   33.00	   34.53	 -550.81	    9.46
     71.2065	   38.00	   37.16	 -548.44	    9.46
     71.2399	   51.00	   40.23	 -538.51	    9.47
     71.2733	   49.00	   43.83	 -544.11	    9.47
     71.3067	   61.00	   48.06	 -536.33	    9.48
     71.3402	   51.00	   53.03	 -551.31	    9.48
     71.3736	   58.00	   58.89	 -550.16	    9.49
     71.4070	   58.00	   65.75	 -557.02	    9.49
     71.4404	   82.00	   73.71	 -540.99	    9.50
     71.4739	   95.00	   82.83	 -537.10	    9.50
     71.5073	  110.00	   92.88	 -532.16	    9.51
     71.5407	   84.00	  103.76	 -569.03	    9.51
     71.5741	  109.00	  114.68	 -554.96	    9.52
     71.6075	  105.00	  124.67	 -568.94	    9.52
     71.6410	  121.00	  132.58	 -560.86	    9.53
     71.6744	   98.00	  137.52	 -588.80	    9.53
     71.7078	  137.00	  139.16	 -551.43	    9.54
     71.7412	  122.00	  138.00	 -565.27	    9.54
     71.7747	  131.00	  134.75	 -553.02	    9.54
     71.8081	  123.00	  130.06	 -556.34	    9.55
     71.8415	  109.00	  124.27	 -564.55	    9.55
     71.8749	  101.00	  117.43	 -565.71	    9.56
     71.9084	  101.00	  109.75	 -558.02	    9.56
     71.9418	  100.00	  101.51	 -550.79	    9.57
     71.9752	   91.00	   93.23	 -551.50	    9.57
     72.0086	   91.00	   85.40	 -543.67	    9.58
     72.0420	   86.00	   78.40	 -541.68	    9.58
     72.0755	   87.00	   72.43	 -534.70	    9.59
     72.1089	   81.00	   67.60	 -535.87	    9.59
     72.1423	   79.00	   63.89	 -534.17	    9.60
     72.1757	   63.00	   61.26	 -547.54	    9.60
     72.2092	   59.00	   59.67	 -549.94	    9.61
     72.2426	   64.00	   59.04	 -544.32	    9.61
     72.2760	   68.00	   59.33	 -540.60	    9.62
     72.3094	   60.00	   60.43	 -549.71	    9.62
     72.3428	   68.00	   62.23	 -543.51	    9.63
     72.3763	   56.00	   64.48	 -557.76	    9.63
     72.4097	   63.00	   66.85	 -553.12	    9.63
     72.4431	   62.00	   68.89	 -556.16	    9.64
     72.4765	   59.00	   70.16	 -560.44	    9.64
     72.5100	   73.00	   70.40	 -546.67	    9.65
     72.5434	   57.00	   69.57	 -561.84	    9.65
     72.5768	   62.00	   67.87	 -555.15	    9.66
     72.6102	   64.00	   65.58	 -550.85	    9.66
     72.6436	   69.00	   62.88	 -543.15	    9.67
     72.6771	   45.00	   59.83	 -564.10	    9.67
     72.7105	   54.00	   56.45	 -551.73	    9.68
     72.7439	   51.00	   52.80	 -551.08	    9.68
     72.7773	   38.00	   49.01	 -560.29	    9.69
     72.8108	   42.00	   45.25	 -552.53	    9.69
     72.8442	   43.00	   41.69	 -547.97	    9.70
     72.8776	   49.00	   38.44	 -538.71	    9.70
     72.9110	   36.00	   35.54	 -548.82	    9.71
     72.9445	   41.00	   33.01	 -541.29	    9.71
     72.9779	   29.00	   30.82	 -551.10	    9.72
     73.0113	   28.00	   28.94	 -550.21	    9.72
     73.0447	   34.00	   27.32	 -542.60	    9.72
     73.0781	   19.00	   25.94	 -556.21	    9.73
     73.1116	   24.00	   24.75	 -550.02	    9.73
     73.1450	   24.00	   23.73	 -549.00	    9.74
     73.1784	   11.00	   22.85	 -561.12	    9.74
     73.2118	   28.00	   22.08	 -543.36	    9.75
     73.2453	   22.00	   21.43	 -548.70	    9.75
     73.2787	   23.00	   20.86	 -547.14	    9.76
     73.3121	   16.00	   20.37	 -553.65	    9.76
     73.3455	   21.00	   19.95	 -548.23	    9.77
     73.3789	   24.00	   19.59	 -544.87	    9.77
     73.4124	   21.00	   19.29	 -547.57	    9.78
     73.4458	   24.00	   19.04	 -544.31	    9.78
     73.4792	   16.00	   18.84	 -552.11	    9.79
     73.5126	   10.00	   18.68	 -557.96	    9.79
     73.5461	   19.00	   18.57	 -548.84	    9.80
     73.5795	   18.00	   18.50	 -549.78	    9.80
     73.6129	   22.00	   18.48	 -545.76	    9.80
     73.6463	   28.00	   18.64	 -539.92	    9.81
     73.6797	   19.00	   18.72	 -549.00	    9.81
     73.7132	   19.00	   18.86	 -549.14	    9.82
     73.7466	   21.00	   19.06	 -547.34	    9.82
     73.7800	   29.00	   19.42	 -539.70	    9.83
     73.8134	   20.00	   19.77	 -549.05	    9.83
     73.8469	   19.00	   20.28	 -550.56	    9.84
     73.8803	   19.00	   20.84	 -551.11	    9.84
     73.9137	   28.00	   21.52	 -542.79	    9.85
     73.9471	   21.00	   22.48	 -550.76	    9.85
     73.9805	   30.00	   23.48	 -542.75	    9.86
     74.0140	   31.00	   24.71	 -542.98	    9.86
     74.0474	   28.00	   26.11	 -547.39	    9.87
     74.0808	   18.00	   27.73	 -559.01	    9.87
     74.1142	   25.00	   29.57	 -553.84	    9.87
     74.1477	   34.00	   31.56	 -546.83	    9.88
     74.1811	   27.00	   33.69	 -555.96	    9.88
     74.2145	   42.00	   35.64	 -542.91	    9.89
     74.2479	   34.00	   37.28	 -552.56	    9.89
     74.2813	   36.00	   38.43	 -551.70	    9.90
     74.3148	   31.00	   38.96	 -557.23	    9.90
     74.3482	   38.00	   38.89	 -550.17	    9.91
     74.3816	   35.00	   38.35	 -552.62	    9.91
     74.4150	   38.00	   37.74	 -549.01	    9.92
     74.4485	   41.00	   36.63	 -544.90	    9.92
     74.4819	   20.00	   35.31	 -564.59	    9.92
     74.5153	   32.00	   33.81	 -551.08	    9.93
     74.5487	   24.00	   32.13	 -557.41	    9.93
     74.5822	   32.00	   30.35	 -547.63	    9.94
     74.6156	   28.00	   28.69	 -549.96	    9.94
     74.6490	   23.00	   26.97	 -553.24	    9.95
     74.6824	   16.00	   25.38	 -558.66	    9.95
     74.7158	   27.00	   23.96	 -546.24	    9.96
     74.7493	   28.00	   22.71	 -543.99	    9.96
     74.7827	   16.00	   21.63	 -554.91	    9.97
     74.8161	   21.00	   20.71	 -548.98	    9.97
     74.8495	   22.00	   19.91	 -547.18	    9.97
     74.8830	   18.00	   19.23	 -550.50	    9.98
     74.9164	   20.00	   18.64	 -547.92	    9.98
     74.9498	   12.00	   18.14	 -555.42	    9.99
     74.9832	   15.00	   17.71	 -551.98	    9.99
     75.0166	   15.00	   17.34	 -551.61	   10.00
     75.0501	   17.00	   17.01	 -549.29	   10.00
     75.0835	   22.00	   16.73	 -544.01	   10.00
     75.1169	   16.00	   16.49	 -549.76	   10.01
     75.1503	   17.00	   16.27	 -548.54	   10.01
     75.1838	   22.00	   16.08	 -543.36	   10.02
     75.2172	   11.00	   15.92	 -554.19	   10.02
     75.2506	   22.00	   15.77	 -543.04	   10.03
     75.2840	   18.00	   15.64	 -546.92	   10.03
     75.3175	   11.00	   15.53	 -553.80	   10.04
     75.3509	   16.00	   15.43	 -548.70	   10.04
     75.3843	   18.00	   15.34	 -546.62	   10.04
     75.4177	   14.00	   15.26	 -550.54	   10.05
     75.4511	   20.00	   15.20	 -544.47	   10.05
     75.4846	   18.00	   15.14	 -546.41	   10.06
     75.5180	   16.00	   15.09	 -548.36	   10.06
     75.5514	    9.00	   15.05	 -555.32	   10.07
     75.5848	   15.00	   15.01	 -549.29	   10.07
     75.6183	   17.00	   14.98	 -547.26	   10.07
     75.6517	   18.00	   14.96	 -546.23	   10.08
     75.6851	   14.00	   14.94	 -550.22	   10.08
     75.7185	   29.00	   14.93	 -535.20	   10.09
     75.7519	   18.00	   14.92	 -546.20	   10.09
     75.7854	   15.00	   14.99	 -549.26	   10.09
     75.8188	   27.00	   14.99	 -537.27	   10.10
     75.8522	   15.00	   15.00	 -549.27	   10.10
     75.8856	   12.00	   15.01	 -552.28	   10.11
     75.9191	   15.00	   15.03	 -549.30	   10.11
     75.9525	   16.00	   15.04	 -548.32	   10.12
     75.9859	    8.00	   15.07	 -556.34	   10.12
     76.0193	   16.00	   15.13	 -548.40	   10.12
     76.0527	   28.00	   15.16	 -536.43	   10.13
     76.0862	    8.00	   15.20	 -556.47	   10.13
     76.1196	   12.00	   15.24	 -552.51	   10.14
     76.1530	   16.00	   15.28	 -548.55	   10.14
     76.1864	   11.00	   15.32	 -553.60	   10.14
     76.2199	   17.00	   15.38	 -547.65	   10.15
     76.2533	   16.00	   15.43	 -548.70	   10.15
     76.2867	   15.00	   15.49	 -549.76	   10.16
     76.3201	   19.00	   15.55	 -545.83	   10.16
     76.3535	   14.00	   15.39	 -550.66	   10.16
     76.3870	   22.00	   15.46	 -542.74	   10.17
     76.4204	   19.00	   15.54	 -545.81	   10.17
     76.4538	   24.00	   15.62	 -540.90	   10.18
     76.4872	   15.00	   15.71	 -549.99	   10.18
     76.5207	   29.00	   15.81	 -536.08	   10.18
     76.5541	   14.00	   15.79	 -551.06	   10.19
     76.5875	   21.00	   15.90	 -544.17	   10.19
     76.6209	   19.00	   16.01	 -546.28	   10.20
     76.6544	   12.00	   16.13	 -553.40	   10.20
     76.6878	   16.00	   16.25	 -549.52	   10.20
     76.7212	   19.00	   16.38	 -546.65	   10.21
     76.7546	   20.00	   16.52	 -545.79	   10.21
     76.7880	   14.00	   16.66	 -551.94	   10.21
     76.8215	   22.00	   16.82	 -544.09	   10.22
     76.8549	   23.00	   16.98	 -543.25	   10.22
     76.8883	    8.00	   17.15	 -558.42	   10.23
     76.9217	   17.00	   17.33	 -549.60	   10.23
     76.9552	   18.00	   17.52	 -548.79	   10.23
     76.9886	   16.00	   17.72	 -551.00	   10.24
     77.0220	   14.00	   17.93	 -553.21	   10.24
     77.0554	   18.00	   18.16	 -549.43	   10.24
     77.0888	   12.00	   18.40	 -555.67	   10.25
     77.1223	   17.00	   18.65	 -550.93	   10.25
     77.1557	   20.00	   18.92	 -548.20	   10.25
     77.1891	   18.00	   19.12	 -550.39	   10.26
     77.2225	   37.00	   19.42	 -531.70	   10.26
     77.2560	   27.00	   19.75	 -542.02	   10.27
     77.2894	   24.00	   20.10	 -545.37	   10.27
     77.3228	   21.00	   20.47	 -548.74	   10.27
     77.3562	   27.00	   20.87	 -543.14	   10.28
     77.3896	   22.00	   21.25	 -548.52	   10.28
     77.4231	   25.00	   21.71	 -545.98	   10.28
     77.4565	   20.00	   22.20	 -551.47	   10.29
     77.4899	   28.00	   22.73	 -544.00	   10.29
     77.5233	   23.00	   23.30	 -549.58	   10.29
     77.5568	   29.00	   23.92	 -544.20	   10.30
     77.5902	   24.00	   24.59	 -549.87	   10.30
     77.6236	   23.00	   25.32	 -551.60	   10.30
     77.6570	   33.00	   26.12	 -542.39	   10.31
     77.6905	   33.00	   26.98	 -543.26	   10.31
     77.7239	   25.00	   27.94	 -552.21	   10.31
     77.7573	   34.00	   28.98	 -544.25	   10.32
     77.7907	   28.00	   30.13	 -551.41	   10.32
     77.8241	   41.00	   31.41	 -539.68	   10.32
     77.8576	   44.00	   32.82	 -538.09	   10.33
     77.8910	   28.00	   34.40	 -555.67	   10.33
     77.9244	   45.00	   36.16	 -540.44	   10.33
     77.9578	   43.00	   38.15	 -544.42	   10.34
     77.9912	   37.00	   40.39	 -552.66	   10.34
     78.0247	   59.00	   42.93	 -533.20	   10.34
     78.0581	   43.00	   45.82	 -552.10	   10.35
     78.0915	   50.00	   49.13	 -548.40	   10.35
     78.1249	   64.00	   52.90	 -538.18	   10.35
     78.1584	   63.00	   57.24	 -543.51	   10.36
     78.1918	   71.00	   62.22	 -540.49	   10.36
     78.2252	   72.00	   67.92	 -545.19	   10.36
     78.2586	   78.00	   74.42	 -545.69	   10.36
     78.2921	   90.00	   81.77	 -541.04	   10.37
     78.3255	  101.00	   89.96	 -538.24	   10.37
     78.3589	  103.00	   98.91	 -545.18	   10.37
     78.3923	  112.00	  108.39	 -545.67	   10.38
     78.4257	  125.00	  118.10	 -542.37	   10.38
     78.4592	  148.00	  127.64	 -528.92	   10.38
     78.4926	  140.00	  136.69	 -545.97	   10.39
     78.5260	  164.00	  145.06	 -530.34	   10.39
     78.5594	  162.00	  152.72	 -539.99	   10.39
     78.5929	  166.00	  159.69	 -542.97	   10.39
     78.6263	  190.00	  165.96	 -525.23	   10.40
     78.6597	  186.00	  171.38	 -534.66	   10.40
     78.6931	  177.00	  175.76	 -548.04	   10.40
     78.7265	  172.00	  178.87	 -556.15	   10.41
     78.7600	  216.00	  180.56	 -513.83	   10.41
     78.7934	  217.00	  180.75	 -513.03	   10.41
     78.8268	  204.00	  179.54	 -524.81	   10.41
     78.8602	  219.00	  177.21	 -507.48	   10.42
     78.8937	  211.00	  174.20	 -512.47	   10.42
     78.9271	  196.00	  171.04	 -524.32	   10.42
     78.9605	  204.00	  168.21	 -513.49	   10.42
     78.9939	  176.00	  166.05	 -539.32	   10.43
     79.0274	  181.00	  164.74	 -533.02	   10.43
     79.0608	  166.00	  164.36	 -547.64	   10.43
     79.0942	  179.00	  165.06	 -535.33	   10.43
     79.1276	  183.00	  166.73	 -533.01	   10.44
     79.1610	  175.00	  169.20	 -543.47	   10.44
     79.1945	  169.00	  171.98	 -552.25	   10.44
     79.2279	  152.00	  174.35	 -571.63	   10.44
     79.2613	  173.00	  175.50	 -551.78	   10.45
     79.2947	  171.00	  174.84	 -553.11	   10.45
     79.3282	  167.00	  172.11	 -554.38	   10.45
     79.3616	  183.00	  167.55	 -533.82	   10.45
     79.3950	  162.00	  161.66	 -548.93	   10.46
     79.4284	  146.00	  154.94	 -558.21	   10.46
     79.4618	  145.00	  147.67	 -551.94	   10.46
     79.4953	  137.00	  139.89	 -552.16	   10.46
     79.5287	  132.00	  131.56	 -548.83	   10.46
     79.5621	  124.00	  122.71	 -547.98	   10.47
     79.5955	   98.00	  113.53	 -564.80	   10.47
     79.6290	  112.00	  104.33	 -541.61	   10.47
     79.6624	  113.00	   95.46	 -531.74	   10.47
     79.6958	   75.00	   87.18	 -561.46	   10.48
     79.7292	   95.00	   79.66	 -533.93	   10.48
     79.7626	   90.00	   72.96	 -532.23	   10.48
     79.7961	   79.00	   67.07	 -537.34	   10.48
     79.8295	   70.00	   61.93	 -541.20	   10.48
     79.8629	   65.00	   57.48	 -541.75	   10.49
     79.8963	   50.00	   53.64	 -552.91	   10.49
     79.9298	   57.00	   50.33	 -542.60	   10.49
     79.9632	   54.00	   47.49	 -542.76	   10.49
     79.9966	   44.00	   45.05	 -550.32	   10.49
     80.0300	   43.00	   42.97	 -549.24	   10.50
     80.0634	   45.00	   41.20	 -545.47	   10.50
     80.0969	   42.00	   39.71	 -546.99	   10.50
     80.1303	   65.00	   38.48	 -522.75	   10.50
     80.1637	   37.00	   37.48	 -549.76	   10.50
     80.1971	   36.00	   36.82	 -550.09	   10.50
     80.2306	   39.00	   36.26	 -546.54	   10.51
     80.2640	   33.00	   35.92	 -552.19	   10.51
     80.2974	   39.00	   35.79	 -546.06	   10.51
     80.3308	   46.00	   35.89	 -539.16	   10.51
     80.3643	   34.00	   36.22	 -551.49	   10.51
     80.3977	   45.00	   36.79	 -541.07	   10.51
     80.4311	   39.00	   37.63	 -547.91	   10.52
     80.4645	   34.00	   38.80	 -554.07	   10.52
     80.4979	   30.00	   40.19	 -559.46	   10.52
     80.5314	   34.00	   41.83	 -557.10	   10.52
     80.5648	   38.00	   43.67	 -554.94	   10.52
     80.5982	   47.00	   45.61	 -547.89	   10.52
     80.6316	   51.00	   47.50	 -545.77	   10.52
     80.6651	   42.00	   49.14	 -556.41	   10.53
     80.6985	   58.00	   50.33	 -541.60	   10.53
     80.7319	   63.00	   50.92	 -537.20	   10.53
     80.7653	   39.00	   50.90	 -561.17	   10.53
     80.7987	   47.00	   50.32	 -552.59	   10.53
     80.8322	   54.00	   49.32	 -544.60	   10.53
     80.8656	   48.00	   48.05	 -549.32	   10.53
     80.8990	   47.00	   46.58	 -548.85	   10.53
     80.9324	   41.00	   44.92	 -553.20	   10.54
     80.9659	   39.00	   43.09	 -553.36	   10.54
     80.9993	   41.00	   41.08	 -549.36	   10.54
     81.0327	   31.00	   38.95	 -557.23	   10.54
     81.0661	   29.00	   36.78	 -557.05	   10.54
     81.0995	   39.00	   34.64	 -544.91	   10.54
     81.1330	   35.00	   32.61	 -546.88	   10.54
     81.1664	   33.00	   30.74	 -547.01	   10.54
     81.1998	   36.00	   29.05	 -542.32	   10.54
     81.2332	   37.00	   27.54	 -539.81	   10.54
     81.2667	   32.00	   26.21	 -543.48	   10.55
     81.3001	   16.00	   25.04	 -558.31	   10.55
     81.3335	   24.00	   24.01	 -549.29	   10.55
     81.3669	   27.00	   23.11	 -545.38	   10.55
     81.4004	   19.00	   22.31	 -552.59	   10.55
     81.4338	   18.00	   21.61	 -552.89	   10.55
     81.4672	   24.00	   20.99	 -546.26	   10.55
     81.5006	   25.00	   20.44	 -544.71	   10.55
     81.5340	   27.00	   19.94	 -542.22	   10.55
     81.5675	   20.00	   19.50	 -548.77	   10.55
     81.6009	   14.00	   19.10	 -554.38	   10.55
     81.6343	   22.00	   18.74	 -546.02	   10.55
     81.6677	   20.00	   18.42	 -547.69	   10.55
     81.7012	   18.00	   18.12	 -549.39	   10.55
     81.7346	   11.00	   17.85	 -556.12	   10.55
     81.7680	   19.00	   17.60	 -547.87	   10.55
     81.8014	   25.00	   17.37	 -541.65	   10.55
     81.8348	   29.00	   17.16	 -537.43	   10.55
     81.8683	   19.00	   16.97	 -547.24	   10.56
     81.9017	   16.00	   16.79	 -550.06	   10.56
     81.9351	   16.00	   16.62	 -549.90	   10.56
     81.9685	   18.00	   16.47	 -547.74	   10.56
     82.0020	   14.00	   16.33	 -551.60	   10.56
     82.0354	   14.00	   16.19	 -551.47	   10.56
     82.0688	   16.00	   16.07	 -549.34	   10.56
     82.1022	   18.00	   15.96	 -547.23	   10.56
     82.1356	   12.00	   15.85	 -553.12	   10.56
     82.1691	   17.00	   15.79	 -548.06	   10.56
     82.2025	   15.00	   15.70	 -549.97	   10.56
     82.2359	   19.00	   15.61	 -545.89	   10.56
     82.2693	   18.00	   15.54	 -546.81	   10.56
     82.3028	   17.00	   15.47	 -547.74	   10.56
     82.3362	   11.00	   15.40	 -553.68	   10.56
     82.3696	   10.00	   15.34	 -554.62	   10.56
     82.4030	   12.00	   15.31	 -552.58	   10.56
     82.4364	   24.00	   15.26	 -540.54	   10.56
     82.4699	    6.00	   15.24	 -558.52	   10.55
     82.5033	   21.00	   15.21	 -543.49	   10.55
     82.5367	   12.00	   15.19	 -552.46	   10.55
     82.5701	   10.00	   15.17	 -554.44	   10.55
     82.6036	   15.00	   15.16	 -549.43	   10.55
     82.6370	   12.00	   15.16	 -552.43	   10.55
     82.6704	   11.00	   15.17	 -553.44	   10.55
     82.7038	   27.00	   15.20	 -537.47	   10.55
     82.7373	   15.00	   15.23	 -549.50	   10.55
     82.7707	   12.00	   15.27	 -552.55	   10.55
     82.8041	   11.00	   15.33	 -553.60	   10.55
     82.8375	   14.00	   15.40	 -550.68	   10.55
     82.8709	   15.00	   15.49	 -549.77	   10.55
     82.9044	   15.00	   15.59	 -549.87	   10.55
     82.9378	   12.00	   15.71	 -552.98	   10.55
     82.9712	    9.00	   15.83	 -556.10	   10.55
     83.0046	   15.00	   15.94	 -550.22	   10.55
     83.0381	   11.00	   16.05	 -554.32	   10.54
     83.0715	   11.00	   16.13	 -554.41	   10.54
     83.1049	   24.00	   16.18	 -541.46	   10.54
     83.1383	   12.00	   16.20	 -553.47	   10.54
     83.1717	    8.00	   16.18	 -557.46	   10.54
     83.2052	    6.00	   16.15	 -559.42	   10.54
     83.2386	   12.00	   16.09	 -553.37	   10.54
     83.2720	    9.00	   16.03	 -556.30	   10.54
     83.3054	   16.00	   15.96	 -549.23	   10.54
     83.3389	   20.00	   15.88	 -545.15	   10.54
     83.3723	   12.00	   15.66	 -552.94	   10.53
     83.4057	    8.00	   15.57	 -556.85	   10.53
     83.4391	   10.00	   15.48	 -554.75	   10.53
     83.4725	   14.00	   15.39	 -550.66	   10.53
     83.5060	   14.00	   15.31	 -550.58	   10.53
     83.5394	   10.00	   15.15	 -554.42	   10.53
     83.5728	   12.00	   15.09	 -552.36	   10.53
     83.6062	   10.00	   14.98	 -554.25	   10.52
     83.6397	    6.00	   14.94	 -558.22	   10.52
     83.6731	   15.00	   14.92	 -549.20	   10.52
     83.7065	   11.00	   14.78	 -553.05	   10.52
     83.7399	   12.00	   14.77	 -552.05	   10.52
     83.7734	   18.00	   14.73	 -546.01	   10.52
     83.8068	   17.00	   14.74	 -547.02	   10.51
     83.8402	   15.00	   14.76	 -549.04	   10.51
     83.8736	   16.00	   14.79	 -548.06	   10.51
     83.9070	   12.00	   14.82	 -552.10	   10.51
     83.9405	    9.00	   14.80	 -555.07	   10.51
     83.9739	    9.00	   14.85	 -555.12	   10.51
     84.0073	   14.00	   14.91	 -550.18	   10.50
     84.0407	   16.00	   14.98	 -548.25	   10.50
     84.0742	   12.00	   15.05	 -552.33	   10.50
     84.1076	    8.00	   15.14	 -556.41	   10.50
     84.1410	   14.00	   15.24	 -550.51	   10.50
     84.1744	   12.00	   15.35	 -552.62	   10.49
     84.2078	   14.00	   15.21	 -550.49	   10.49
     84.2413	    9.00	   15.35	 -555.63	   10.49
     84.2747	   16.00	   15.51	 -548.79	   10.49
     84.3081	    8.00	   15.69	 -556.96	   10.48
     84.3415	   15.00	   15.89	 -550.16	   10.48
     84.3750	   12.00	   16.10	 -553.38	   10.48
     84.4084	   14.00	   16.34	 -551.62	   10.48
     84.4418	   18.00	   16.48	 -547.76	   10.47
     84.4752	   20.00	   16.78	 -546.05	   10.47
     84.5086	   14.00	   17.11	 -552.39	   10.47
     84.5421	   14.00	   17.48	 -552.76	   10.47
     84.5755	   25.00	   17.90	 -542.17	   10.46
     84.6089	   15.00	   18.37	 -552.64	   10.46
     84.6423	   18.00	   18.89	 -550.16	   10.46
     84.6758	   16.00	   19.48	 -552.75	   10.46
     84.7092	   14.00	   20.15	 -555.42	   10.45
     84.7426	   16.00	   20.91	 -554.18	   10.45
     84.7760	   28.00	   21.77	 -543.05	   10.45
     84.8094	   34.00	   22.76	 -538.03	   10.45
     84.8429	   25.00	   23.89	 -548.16	   10.44
     84.8763	   22.00	   25.18	 -552.46	   10.44
     84.9097	   24.00	   26.67	 -551.94	   10.44
     84.9431	   27.00	   28.37	 -550.64	   10.43
     84.9766	   34.00	   30.32	 -545.59	   10.43
     85.0100	   38.00	   32.53	 -543.81	   10.43
     85.0434	   36.00	   35.03	 -548.31	   10.42
     85.0768	   39.00	   37.83	 -548.10	   10.42
     85.1103	   46.00	   40.88	 -544.16	   10.42
     85.1437	   42.00	   44.13	 -551.40	   10.41
     85.1771	   45.00	   47.45	 -551.72	   10.41
     85.2105	   44.00	   50.65	 -555.92	   10.41
     85.2439	   44.00	   53.49	 -558.77	   10.40
     85.2774	   58.00	   55.74	 -547.02	   10.40
     85.3108	   47.00	   57.21	 -559.49	   10.40
     85.3442	   73.00	   57.84	 -534.12	   10.39
     85.3776	   58.00	   57.69	 -548.97	   10.39
     85.4111	   42.00	   56.93	 -564.20	   10.39
     85.4445	   44.00	   55.72	 -561.00	   10.38
     85.4779	   51.00	   54.22	 -552.50	   10.38
     85.5113	   46.00	   52.48	 -555.75	   10.37
     85.5447	   47.00	   50.50	 -552.77	   10.37
     85.5782	   50.00	   48.27	 -547.55	   10.37
     85.6116	   47.00	   45.82	 -548.09	   10.36
     85.6450	   42.00	   43.20	 -550.47	   10.36
     85.6784	   35.00	   40.43	 -554.71	   10.35
     85.7119	   28.00	   37.77	 -559.04	   10.35
     85.7453	   35.00	   35.23	 -549.50	   10.35
     85.7787	   45.00	   32.88	 -537.15	   10.34
     85.8121	   23.00	   30.74	 -557.01	   10.34
     85.8456	   21.00	   28.83	 -557.11	   10.33
     85.8790	   15.00	   27.15	 -561.42	   10.33
     85.9124	   18.00	   25.67	 -556.94	   10.33
     85.9458	   23.00	   24.34	 -550.61	   10.32
     85.9792	   17.00	   23.21	 -555.49	   10.32
     86.0127	   29.00	   22.23	 -542.51	   10.31
     86.0461	   17.00	   21.38	 -553.65	   10.31
     86.0795	   21.00	   20.63	 -548.91	   10.30
     86.1129	   14.00	   19.98	 -555.26	   10.30
     86.1464	   27.00	   19.42	 -541.69	   10.29
     86.1798	   23.00	   18.93	 -545.20	   10.29
     86.2132	   20.00	   18.50	 -547.77	   10.28
     86.2466	   15.00	   18.13	 -552.40	   10.28
     86.2800	   22.00	   17.80	 -545.08	   10.28
     86.3135	   25.00	   17.53	 -541.80	   10.27
     86.3469	   18.00	   17.29	 -548.56	   10.27
     86.3803	   18.00	   17.09	 -548.36	   10.26
     86.4137	   11.00	   16.92	 -555.19	   10.26
     86.4472	    9.00	   16.78	 -557.06	   10.25
     86.4806	   18.00	   16.68	 -547.95	   10.25
     86.5140	   10.00	   16.75	 -556.02	   10.24
     86.5474	   10.00	   16.70	 -555.98	   10.23
     86.5808	   16.00	   16.69	 -549.96	   10.23
     86.6143	   18.00	   16.70	 -547.98	   10.22
     86.6477	   15.00	   16.79	 -551.06	   10.22
     86.6811	   11.00	   16.86	 -555.14	   10.21
     86.7145	   14.00	   16.97	 -552.25	   10.21
     86.7480	   10.00	   17.12	 -556.40	   10.20
     86.7814	   10.00	   17.38	 -556.66	   10.20
     86.8148	   12.00	   17.62	 -554.89	   10.19
     86.8482	   14.00	   17.91	 -553.18	   10.19
     86.8816	    9.00	   18.25	 -558.52	   10.18
     86.9151	   29.00	   18.68	 -538.95	   10.17
     86.9485	   20.00	   19.16	 -548.43	   10.17
     86.9819	   22.00	   19.72	 -547.00	   10.16
     87.0153	   11.00	   20.38	 -558.65	   10.16
     87.0488	   22.00	   21.13	 -548.40	   10.15
     87.0822	   14.00	   21.98	 -557.26	   10.15
     87.1156	   22.00	   23.04	 -550.31	   10.14
     87.1490	   25.00	   24.10	 -548.38	   10.13
     87.1824	   25.00	   25.24	 -549.52	   10.13
     87.2159	   21.00	   26.43	 -554.71	   10.12
     87.2493	   29.00	   27.62	 -547.89	   10.11
     87.2827	   31.00	   28.72	 -547.00	   10.11
     87.3161	   29.00	   29.69	 -549.97	   10.10
     87.3496	   45.00	   30.47	 -534.75	   10.10
     87.3830	   27.00	   31.09	 -553.36	   10.09
     87.4164	   19.00	   31.47	 -561.75	   10.08
     87.4498	   27.00	   31.71	 -553.98	   10.08
     87.4833	   42.00	   31.84	 -539.11	   10.07
     87.5167	   38.00	   31.90	 -543.17	   10.06
     87.5501	   32.00	   31.87	 -549.15	   10.06
     87.5835	   22.00	   31.73	 -559.01	   10.05
     87.6169	   20.00	   31.44	 -560.72	   10.04
     87.6504	   29.00	   30.97	 -551.24	   10.04
     87.6838	   23.00	   30.30	 -556.58	   10.03
     87.7172	   32.00	   29.48	 -546.75	   10.02
     87.7506	   36.00	   28.54	 -541.81	   10.02
     87.7841	   22.00	   27.55	 -554.82	   10.01
     87.8175	   18.00	   26.55	 -557.82	   10.00
     87.8509	   29.00	   25.57	 -545.84	    9.99
     87.8843	   12.00	   24.62	 -561.90	    9.99
     87.9177	   25.00	   23.71	 -547.98	    9.98
     87.9512	   24.00	   22.82	 -548.10	    9.97
     87.9846	   29.00	   21.96	 -542.23	    9.97
     88.0180	   23.00	   21.13	 -547.40	    9.96
     88.0514	   12.00	   20.34	 -557.61	    9.95
     88.0849	   18.00	   19.60	 -550.87	    9.94
     88.1183	   24.00	   18.91	 -544.19	    9.94
     88.1517	   15.00	   18.28	 -552.56	    9.93
     88.1851	   22.00	   17.72	 -545.00	    9.92
     88.2186	   18.00	   17.22	 -548.49	    9.91
     88.2520	   17.00	   16.77	 -549.04	    9.91
     88.2854	   20.00	   16.37	 -545.65	    9.90
     88.3188	   19.00	   16.02	 -546.29	    9.89
     88.3522	   10.00	   15.71	 -554.98	    9.88
     88.3857	   11.00	   15.43	 -553.70	    9.87
     88.4191	   24.00	   15.18	 -540.45	    9.87
     88.4525	   15.00	   15.01	 -549.29	    9.86
     88.4859	   14.00	   14.82	 -550.09	    9.85
     88.5193	   15.00	   14.64	 -548.92	    9.84
     88.5528	    7.00	   14.48	 -556.76	    9.83
     88.5862	    7.00	   14.34	 -556.62	    9.83
     88.6196	   15.00	   14.21	 -548.49	    9.82
     88.6530	   12.00	   14.10	 -551.37	    9.81
     88.6865	   17.00	   14.00	 -546.27	    9.80
     88.7199	   14.00	   13.93	 -549.20	    9.79
     88.7533	   14.00	   13.86	 -549.13	    9.78
     88.7867	    9.00	   13.78	 -554.06	    9.77
     88.8202	    8.00	   13.71	 -554.99	    9.77
     88.8536	   15.00	   13.65	 -547.92	    9.76
     88.8870	   15.00	   13.59	 -547.87	    9.75
     88.9204	    7.00	   13.54	 -555.82	    9.74
     88.9538	    9.00	   13.50	 -553.77	    9.73
     88.9873	   15.00	   13.46	 -547.73	    9.72
     89.0207	   18.00	   13.43	 -544.70	    9.71
     89.0541	   10.00	   13.40	 -552.67	    9.70
     89.0875	   14.00	   13.37	 -548.64	    9.69
     89.1210	   16.00	   13.34	 -546.62	    9.69
     89.1544	   10.00	   13.32	 -552.60	    9.68
     89.1878	   12.00	   13.31	 -550.58	    9.67
     89.2212	   16.00	   13.29	 -546.57	    9.66
     89.2546	    7.00	   13.28	 -555.56	    9.65
     89.2881	   12.00	   13.27	 -550.55	    9.64
     89.3215	   11.00	   13.27	 -551.54	    9.63
     89.3549	    8.00	   13.27	 -554.54	    9.62
     89.3883	   15.00	   13.27	 -547.54	    9.61
     89.4218	   19.00	   13.27	 -543.54	    9.60
     89.4552	   14.00	   13.28	 -548.55	    9.59
     89.4886	   10.00	   13.28	 -552.56	    9.58
     89.5220	    9.00	   13.30	 -553.57	    9.57
     89.5555	   21.00	   13.31	 -541.58	    9.56
     89.5889	    8.00	   13.33	 -554.60	    9.55
     89.6223	   12.00	   13.35	 -550.62	    9.54
     89.6557	   16.00	   13.37	 -546.64	    9.53
     89.6891	   11.00	   13.40	 -551.67	    9.52
     89.7226	    7.00	   13.42	 -555.70	    9.51
     89.7560	   16.00	   13.45	 -546.73	    9.50
     89.7894	   12.00	   13.49	 -550.76	    9.49
     89.8228	   14.00	   13.53	 -548.80	    9.48
     89.8563	   10.00	   13.57	 -552.84	    9.47
     89.8897	   17.00	   13.61	 -545.89	    9.46
     89.9231	   12.00	   13.66	 -550.94	    9.45
     89.9565	   18.00	   13.71	 -544.99	    9.44
     89.9899	   12.00	   13.77	 -551.04	    9.43
     90.0234	    9.00	   13.83	 -554.10	    9.42
     90.0568	   14.00	   13.89	 -549.17	    9.41
     90.0902	    8.00	   13.96	 -555.24	    9.40
     90.1236	   18.00	   14.04	 -545.31	    9.39
     90.1571	    9.00	   14.12	 -554.39	    9.37
     90.1905	    9.00	   14.20	 -554.47	    9.36
     90.2239	   15.00	   14.29	 -548.56	    9.35
     90.2573	   23.00	   14.39	 -540.66	    9.34
     90.2907	   12.00	   14.49	 -551.76	    9.33
     90.3242	    9.00	   14.60	 -554.87	    9.32
     90.3576	   10.00	   14.72	 -553.99	    9.31
     90.3910	   11.00	   14.84	 -553.12	    9.30
     90.4244	   19.00	   14.98	 -545.25	    9.29
     90.4579	   16.00	   15.02	 -548.29	    9.27
     90.4913	    8.00	   15.17	 -556.44	    9.26
     90.5247	   12.00	   15.34	 -552.61	    9.25
     90.5581	   17.00	   15.51	 -547.79	    9.24
     90.5915	   20.00	   15.70	 -544.98	    9.23
     90.6250	   15.00	   15.91	 -550.18	    9.22
     90.6584	   20.00	   16.13	 -545.40	    9.20
     90.6918	   16.00	   16.36	 -549.64	    9.19
     90.7252	   19.00	   16.56	 -546.84	    9.18
     90.7587	   19.00	   16.84	 -547.11	    9.17
     90.7921	   16.00	   17.13	 -550.41	    9.16
     90.8255	   17.00	   17.45	 -549.73	    9.14
     90.8589	   15.00	   17.80	 -552.07	    9.13
     90.8923	   16.00	   18.17	 -551.45	    9.12
     90.9258	   17.00	   18.58	 -550.86	    9.11
     90.9592	   20.00	   19.03	 -548.30	    9.10
     90.9926	   23.00	   19.51	 -545.78	    9.08
     91.0260	   20.00	   20.04	 -549.31	    9.07
     91.0595	   18.00	   20.62	 -551.89	    9.06
     91.0929	   18.00	   21.26	 -552.53	    9.05
     91.1263	   19.00	   21.96	 -552.23	    9.03
     91.1597	   20.00	   22.73	 -552.01	    9.02
     91.1932	   24.00	   23.59	 -548.87	    9.01
     91.2266	   23.00	   24.55	 -550.82	    8.99
     91.2600	   25.00	   25.61	 -549.88	    8.98
     91.2934	   23.00	   26.79	 -553.07	    8.97
     91.3268	   39.00	   28.12	 -538.40	    8.96
     91.3603	   39.00	   29.61	 -539.89	    8.94
     91.3937	   41.00	   31.29	 -539.57	    8.93
     91.4271	   35.00	   33.18	 -547.46	    8.92
     91.4605	   38.00	   35.31	 -546.59	    8.90
     91.4940	   52.00	   37.72	 -535.00	    8.89
     91.5274	   49.00	   40.43	 -540.71	    8.88
     91.5608	   56.00	   43.49	 -536.76	    8.86
     91.5942	   57.00	   46.91	 -539.18	    8.85
     91.6276	   70.00	   50.71	 -529.99	    8.84
     91.6611	   55.00	   54.91	 -549.18	    8.82
     91.6945	   69.00	   59.45	 -539.73	    8.81
     91.7279	   88.00	   64.28	 -525.55	    8.79
     91.7613	   68.00	   69.27	 -550.54	    8.78
     91.7948	   69.00	   74.22	 -554.50	    8.77
     91.8282	   81.00	   78.92	 -547.19	    8.75
     91.8616	   76.00	   83.11	 -556.39	    8.74
     91.8950	   89.00	   86.60	 -546.88	    8.72
     91.9285	   64.00	   89.26	 -574.54	    8.71
     91.9619	   96.00	   91.08	 -544.35	    8.70
     91.9953	  102.00	   92.12	 -539.39	    8.68
     92.0287	   96.00	   92.52	 -545.79	    8.67
     92.0621	  100.00	   92.41	 -541.68	    8.65
     92.0956	   87.00	   91.90	 -554.17	    8.64
     92.1290	   83.00	   91.08	 -557.35	    8.62
     92.1624	   98.00	   89.99	 -541.27	    8.61
     92.1958	   94.00	   88.70	 -543.98	    8.59
     92.2293	   99.00	   87.25	 -537.53	    8.58
     92.2627	   96.00	   85.71	 -538.99	    8.56
     92.2961	   94.00	   84.16	 -539.43	    8.55
     92.3295	   90.00	   82.65	 -541.92	    8.53
     92.3629	   81.00	   81.21	 -549.49	    8.52
     92.3964	   78.00	   79.84	 -551.11	    8.50
     92.4298	   72.00	   78.47	 -555.75	    8.49
     92.4632	   69.00	   77.03	 -557.30	    8.47
     92.4966	   71.00	   75.40	 -553.68	    8.46
     92.5301	   88.00	   73.54	 -534.81	    8.44
     92.5635	   68.00	   71.37	 -552.64	    8.43
     92.5969	   72.00	   69.01	 -546.28	    8.41
     92.6303	   65.00	   66.65	 -550.93	    8.40
     92.6637	   66.00	   64.08	 -547.36	    8.38
     92.6972	   47.00	   61.52	 -563.80	    8.37
     92.7306	   64.00	   59.00	 -544.28	    8.35
     92.7640	   55.00	   56.51	 -550.79	    8.33
     92.7974	   47.00	   54.03	 -556.31	    8.32
     92.8309	   42.00	   51.53	 -558.81	    8.30
     92.8643	   33.00	   48.98	 -565.26	    8.29
     92.8977	   43.00	   46.42	 -552.70	    8.27
     92.9311	   39.00	   44.00	 -554.27	    8.25
     92.9645	   45.00	   41.57	 -545.85	    8.24
     92.9980	   49.00	   39.28	 -539.55	    8.22
     93.0314	   35.00	   37.15	 -551.43	    8.20
     93.0648	   47.00	   35.21	 -537.49	    8.19
     93.0982	   36.00	   33.48	 -546.75	    8.17
     93.1317	   43.00	   31.94	 -538.21	    8.16
     93.1651	   38.00	   30.59	 -541.86	    8.14
     93.1985	   43.00	   29.41	 -535.69	    8.12
     93.2319	   45.00	   28.42	 -532.69	    8.11
     93.2654	   43.00	   27.58	 -533.85	    8.09
     93.2988	   28.00	   26.89	 -548.16	    8.07
     93.3322	   29.00	   26.34	 -546.62	    8.05
     93.3656	   28.00	   26.04	 -547.31	    8.04
     93.3990	   36.00	   25.76	 -539.03	    8.02
     93.4325	   39.00	   25.60	 -535.88	    8.00
     93.4659	   31.00	   25.58	 -543.85	    7.99
     93.4993	   32.00	   25.68	 -542.95	    7.97
     93.5327	   30.00	   25.91	 -545.19	    7.95
     93.5662	   31.00	   26.28	 -544.56	    7.93
     93.5996	   28.00	   26.79	 -548.07	    7.92
     93.6330	   21.00	   27.45	 -555.72	    7.90
     93.6664	   33.00	   28.24	 -544.51	    7.88
     93.6998	   25.00	   29.22	 -553.50	    7.86
     93.7333	   33.00	   30.26	 -546.54	    7.85
     93.7667	   39.00	   31.40	 -541.67	    7.83
     93.8001	   39.00	   32.56	 -542.84	    7.81
     93.8335	   30.00	   33.71	 -552.99	    7.79
     93.8670	   21.00	   34.76	 -563.03	    7.77
     93.9004	   28.00	   35.64	 -556.91	    7.75
     93.9338	   32.00	   36.29	 -553.56	    7.74
     93.9672	   30.00	   36.68	 -555.96	    7.72
     94.0006	   37.00	   36.83	 -549.11	    7.70
     94.0341	   36.00	   36.78	 -550.05	    7.68
     94.0675	   41.00	   36.56	 -544.84	    7.66
     94.1009	   25.00	   36.24	 -560.51	    7.64
     94.1343	   24.00	   35.83	 -561.10	    7.63
     94.1678	   38.00	   35.32	 -546.59	    7.61
     94.2012	   29.00	   34.70	 -554.97	    7.59
     94.2346	   27.00	   33.94	 -556.21	    7.57
     94.2680	   34.00	   33.03	 -548.30	    7.55
     94.3015	   28.00	   31.97	 -553.25	    7.53
     94.3349	   24.00	   30.81	 -556.08	    7.51
     94.3683	   37.00	   29.58	 -541.85	    7.49
     94.4017	   29.00	   28.32	 -548.60	    7.47
     94.4351	   22.00	   27.08	 -554.36	    7.45
     94.4686	   28.00	   25.89	 -547.17	    7.43
     94.5020	   25.00	   24.76	 -549.03	    7.42
     94.5354	   37.00	   23.68	 -535.96	    7.40
     94.5688	   30.00	   22.67	 -541.94	    7.38
     94.6022	   25.00	   21.71	 -545.98	    7.36
     94.6357	   27.00	   20.81	 -543.08	    7.34
     94.6691	   21.00	   19.96	 -548.23	    7.32
     94.7025	   21.00	   19.17	 -547.45	    7.30
     94.7359	   19.00	   18.44	 -548.72	    7.28
     94.7694	   17.00	   17.77	 -550.05	    7.26
     94.8028	   19.00	   17.16	 -547.44	    7.24
     94.8362	   24.00	   16.61	 -541.88	    7.22
     94.8696	   18.00	   16.11	 -547.38	    7.20
     94.9031	   20.00	   15.65	 -544.93	    7.18
     94.9365	   21.00	   15.24	 -543.51	    7.15
     94.9699	   15.00	   14.87	 -549.14	    7.13
     95.0033	   17.00	   14.53	 -546.80	    7.11
     95.0367	   14.00	   14.24	 -549.51	    7.09
     95.0702	   12.00	   13.96	 -551.23	    7.07
     95.1036	   15.00	   13.70	 -547.98	    7.05
     95.1370	   21.00	   13.47	 -541.74	    7.03
     95.1704	   21.00	   13.26	 -541.53	    7.01
     95.2039	    8.00	   13.06	 -554.34	    6.99
     95.2373	   18.00	   12.88	 -544.16	    6.97
     95.2707	   16.00	   12.72	 -545.99	    6.95
     95.3041	   19.00	   12.56	 -542.84	    6.93
     95.3375	   10.00	   12.43	 -551.70	    6.90
     95.3710	   19.00	   12.30	 -542.57	    6.88
     95.4044	   19.00	   12.18	 -542.45	    6.86
     95.4378	   11.00	   12.07	 -550.34	    6.84
     95.4712	   19.00	   11.96	 -542.24	    6.82
     95.5047	   10.00	   11.87	 -551.14	    6.80
     95.5381	   19.00	   11.78	 -542.05	    6.77
     95.5715	   15.00	   11.69	 -545.97	    6.75
     95.6049	   16.00	   11.62	 -544.89	    6.73
     95.6384	   11.00	   11.55	 -549.82	    6.71
     95.6718	   10.00	   11.48	 -550.75	    6.69
     95.7052	   18.00	   11.42	 -542.69	    6.66
     95.7386	   21.00	   11.36	 -539.64	    6.64
     95.7720	   10.00	   11.31	 -550.59	    6.62
     95.8055	   16.00	   11.27	 -544.54	    6.60
     95.8389	   17.00	   11.22	 -543.50	    6.57
     95.8723	   16.00	   11.18	 -544.46	    6.55
     95.9057	   10.00	   11.15	 -550.42	    6.53
     95.9392	   14.00	   11.12	 -546.39	    6.51
     95.9726	   16.00	   11.09	 -544.37	    6.48
     96.0060	    6.00	   11.07	 -554.34	    6.46
     96.0394	   11.00	   11.05	 -549.33	    6.44
     96.0728	    9.00	   11.04	 -551.31	    6.41
     96.1063	   18.00	   11.02	 -542.30	    6.39
     96.1397	   11.00	   11.02	 -549.29	    6.37
     96.1731	   14.00	   11.01	 -546.29	    6.34
     96.2065	   10.00	   11.01	 -550.29	    6.32
     96.2400	   11.00	   11.01	 -549.29	    6.30
     96.2734	   11.00	   11.02	 -549.30	    6.27
     96.3068	    9.00	   11.03	 -551.30	    6.25
     96.3402	   11.00	   11.04	 -549.32	    6.23
     96.3736	   16.00	   11.06	 -544.33	    6.20
     96.4071	   12.00	   11.08	 -548.35	    6.18
     96.4405	   10.00	   11.10	 -550.38	    6.16
     96.4739	    5.00	   11.13	 -555.41	    6.13
     96.5073	   11.00	   11.17	 -549.44	    6.11
     96.5408	   16.00	   11.20	 -544.48	    6.08
     96.5742	   19.00	   11.25	 -541.52	    6.06
     96.6076	   19.00	   11.30	 -541.57	    6.03
     96.6410	    9.00	   11.35	 -551.62	    6.01
     96.6745	   12.00	   11.41	 -548.68	    5.99
     96.7079	   15.00	   11.47	 -545.75	    5.96
     96.7413	    7.00	   11.55	 -553.82	    5.94
     96.7747	   11.00	   11.62	 -549.90	    5.91
     96.8081	   17.00	   11.71	 -543.99	    5.89
     96.8416	   23.00	   11.81	 -538.08	    5.86
     96.8750	   21.00	   11.91	 -540.18	    5.84
     96.9084	   16.00	   12.02	 -545.30	    5.81
     96.9418	   18.00	   12.14	 -543.42	    5.79
     96.9753	   11.00	   12.28	 -550.55	    5.76
     97.0087	   18.00	   12.42	 -543.70	    5.74
     97.0421	   23.00	   12.58	 -538.85	    5.71
     97.0755	   14.00	   12.75	 -548.02	    5.69
     97.1089	    8.00	   12.93	 -554.21	    5.66
     97.1424	   22.00	   13.13	 -540.41	    5.63
     97.1758	   21.00	   13.35	 -541.63	    5.61
     97.2092	   23.00	   13.59	 -539.86	    5.58
     97.2426	   19.00	   13.85	 -544.12	    5.56
     97.2761	   15.00	   14.13	 -548.40	    5.53
     97.3095	   17.00	   14.43	 -546.71	    5.51
     97.3429	   19.00	   14.62	 -544.90	    5.48
     97.3763	   21.00	   14.99	 -543.27	    5.45
     97.4097	   22.00	   15.39	 -542.67	    5.43
     97.4432	   24.00	   15.83	 -541.10	    5.40
     97.4766	   22.00	   16.27	 -543.54	    5.37
     97.5100	   28.00	   16.80	 -538.07	    5.35
     97.5434	   20.00	   17.38	 -546.65	    5.32
     97.5769	    9.00	   18.02	 -558.29	    5.29
     97.6103	   23.00	   18.73	 -545.00	    5.27
     97.6437	   20.00	   19.44	 -548.72	    5.24
     97.6771	   35.00	   20.32	 -534.59	    5.21
     97.7105	   32.00	   21.29	 -538.56	    5.19
     97.7440	   32.00	   22.37	 -539.64	    5.16
     97.7774	   24.00	   23.58	 -548.85	    5.13
     97.8108	   37.00	   24.90	 -537.18	    5.10
     97.8442	   24.00	   26.41	 -551.68	    5.08
     97.8777	   31.00	   28.09	 -546.37	    5.05
     97.9111	   45.00	   29.98	 -534.25	    5.02
     97.9445	   48.00	   32.08	 -533.36	    4.99
     97.9779	   45.00	   34.33	 -538.61	    4.97
     98.0114	   61.00	   36.93	 -525.21	    4.94
     98.0448	   48.00	   39.80	 -541.07	    4.91
     98.0782	   60.00	   42.92	 -532.20	    4.88
     98.1116	   49.00	   46.29	 -546.57	    4.86
     98.1450	   70.00	   49.86	 -529.14	    4.83
     98.1785	   78.00	   53.55	 -524.82	    4.80
     98.2119	   49.00	   57.24	 -557.51	    4.77
     98.2453	   69.00	   60.78	 -541.05	    4.74
     98.2787	   68.00	   63.95	 -545.22	    4.71
     98.3122	   82.00	   66.67	 -533.94	    4.69
     98.3456	   63.00	   68.76	 -555.03	    4.66
     98.3790	   71.00	   70.16	 -548.43	    4.63
     98.4124	   76.00	   70.88	 -544.15	    4.60
     98.4458	   84.00	   71.02	 -536.30	    4.57
     98.4793	   64.00	   70.72	 -556.00	    4.54
     98.5127	   87.00	   70.13	 -532.41	    4.51
     98.5461	   92.00	   69.37	 -526.64	    4.48
     98.5795	   74.00	   68.50	 -543.78	    4.45
     98.6130	   71.00	   67.57	 -545.84	    4.42
     98.6464	   74.00	   66.56	 -541.84	    4.39
     98.6798	   74.00	   65.48	 -540.75	    4.37
     98.7132	   70.00	   64.32	 -543.59	    4.34
     98.7467	   91.00	   63.12	 -521.40	    4.31
     98.7801	   61.00	   61.95	 -550.23	    4.28
     98.8135	   85.00	   60.89	 -525.17	    4.25
     98.8469	   76.00	   60.02	 -533.29	    4.22
     98.8803	   72.00	   59.39	 -536.67	    4.19
     98.9138	   82.00	   59.04	 -526.32	    4.16
     98.9472	   74.00	   58.97	 -534.24	    4.13
     98.9806	   64.00	   59.12	 -544.39	    4.10
     99.0140	   76.00	   59.41	 -532.69	    4.07
     99.0474	   85.00	   59.74	 -524.01	    4.03
     99.0809	   71.00	   59.96	 -538.23	    4.00
     99.1143	   81.00	   60.04	 -528.32	    3.97
     99.1477	   70.00	   59.72	 -538.99	    3.94
     99.1811	   59.00	   59.03	 -549.31	    3.91
     99.2146	   56.00	   58.00	 -551.27	    3.88
     99.2480	   55.00	   56.67	 -550.94	    3.85
     99.2814	   63.00	   55.12	 -541.40	    3.82
     99.3148	   65.00	   53.44	 -537.72	    3.79
     99.3483	   60.00	   51.69	 -540.96	    3.76
     99.3817	   60.00	   49.88	 -539.15	    3.73
     99.4151	   38.00	   48.02	 -559.30	    3.69
     99.4485	   64.00	   46.13	 -531.41	    3.66
     99.4819	   62.00	   44.06	 -531.34	    3.63
     99.5154	   61.00	   41.94	 -530.22	    3.60
     99.5488	   70.00	   39.74	 -519.02	    3.57
     99.5822	   54.00	   37.50	 -532.77	    3.54
     99.6156	   65.00	   35.25	 -519.52	    3.50
     99.6491	   50.00	   33.04	 -532.31	    3.47
     99.6825	   42.00	   30.92	 -538.19	    3.44
     99.7159	   34.00	   29.03	 -544.30	    3.41
     99.7493	   36.00	   27.16	 -540.43	    3.37
     99.7827	   49.00	   25.40	 -525.68	    3.34
     99.8162	   37.00	   23.83	 -536.10	    3.31
     99.8496	   31.00	   22.40	 -540.68	    3.28
     99.8830	   34.00	   21.11	 -536.38	    3.24
     99.9164	   41.00	   19.94	 -528.22	    3.21
     99.9499	   37.00	   18.89	 -531.16	    3.18
     99.9833	   28.00	   18.18	 -539.46	    3.15
     15.9820	        	        	        	        	       0	(  0  1  0)	  0  1 :  1
     16.0214	        	        	        	        	       0	(  0  1  0)	  0  2 :  1
     27.8135	        	        	        	        	       0	(  1  1  0)	  0  1 :  1
     27.8831	        	        	        	        	       0	(  1  1  0)	  0  2 :  1
     28.8089	        	        	        	        	       0	(  0  1  1)	  0  1 :  1
     28.8811	        	        	        	        	       0	(  0  1  1)	  0  2 :  1
     32.2134	        	        	        	        	       0	(  0  2  0)	  0  1 :  1
     32.2946	        	        	        	        	       0	(  0  2  0)	  0  2 :  1
     36.9229	        	        	        	        	       0	(  1  1  1)	  0  1 :  1
     37.0168	        	        	        	        	       0	(  1  1  1)	  0  2 :  1
     40.4417	        	        	        	        	       0	(  0  2  1)	  0  1 :  1
     40.5453	        	        	        	        	       0	(  0  2  1)	  0  2 :  1
     43.0359	        	        	        	        	       0	(  1  2  0)	  0  1 :  1
     43.0359	        	        	        	        	       0	(  2  1  0)	  0  1 :  1
     43.1469	        	        	        	        	       0	(  1  2  0)	  0  2 :  1
     43.1469	        	        	        	        	       0	(  2  1  0)	  0  2 :  1
     48.7274	        	        	        	        	       0	(  0  0  2)	  0  1 :  1
     48.8549	        	        	        	        	       0	(  0  0  2)	  0  2 :  1
     49.1411	        	        	        	        	       0	(  0  3  0)	  0  1 :  1
     49.2699	        	        	        	        	       0	(  0  3  0)	  0  2 :  1
     49.7616	        	        	        	        	       0	(  1  2  1)	  0  1 :  1
     49.7616	        	        	        	        	       0	(  2  1  1)	  0  1 :  1
     49.8922	        	        	        	        	       0	(  1  2  1)	  0  2 :  1
     49.8922	        	        	        	        	       0	(  2  1  1)	  0  2 :  1
     51.5900	        	        	        	        	       0	(  0  1  2)	  0  1 :  1
     51.7260	        	        	        	        	       0	(  0  1  2)	  0  2 :  1
     55.3012	        	        	        	        	       0	(  0  3  1)	  0  1 :  1
     55.4488	        	        	        	        	       0	(  0  3  1)	  0  2 :  1
     57.0039	        	        	        	        	       0	(  1  1  2)	  0  1 :  1
     57.1568	        	        	        	        	       0	(  1  1  2)	  0  2 :  1
     57.3749	        	        	        	        	       0	(  2  2  0)	  0  1 :  1
     57.5290	        	        	        	        	       0	(  2  2  0)	  0  2 :  1
     59.5866	        	        	        	        	       0	(  0  2  2)	  0  1 :  1
     59.7478	        	        	        	        	       0	(  0  2  2)	  0  2 :  1
     59.9475	        	        	        	        	       0	(  1  3  0)	  0  1 :  1
     59.9475	        	        	        	        	       0	(  3  1  0)	  0  1 :  1
     60.1099	        	        	        	        	       0	(  1  3  0)	  0  2 :  1
     60.1099	        	        	        	        	       0	(  3  1  0)	  0  2 :  1
     62.9848	        	        	        	        	       0	(  2  2  1)	  0  1 :  1
     63.1574	        	        	        	        	       0	(  2  2  1)	  0  2 :  1
     65.4248	        	        	        	        	       0	(  1  3  1)	  0  1 :  1
     65.4248	        	        	        	        	       0	(  3  1  1)	  0  1 :  1
     65.6057	        	        	        	        	       0	(  1  3  1)	  0  2 :  1
     65.6057	        	        	        	        	       0	(  3  1  1)	  0  2 :  1
     66.9699	        	        	        	        	       0	(  1  2  2)	  0  1 :  1
     66.9699	        	        	        	        	       0	(  2  1  2)	  0  1 :  1
     67.1562	        	        	        	        	       0	(  1  2  2)	  0  2 :  1
     67.1562	        	        	        	        	       0	(  2  1  2)	  0  2 :  1
     67.3082	        	        	        	        	       0	(  0  4  0)	  0  1 :  1
     67.4957	        	        	        	        	       0	(  0  4  0)	  0  2 :  1
     71.6665	        	        	        	        	       0	(  0  3  2)	  0  1 :  1
     71.8700	        	        	        	        	       0	(  0  3  2)	  0  2 :  1
     72.4893	        	        	        	        	       0	(  0  4  1)	  0  1 :  1
     72.6959	        	        	        	        	       0	(  0  4  1)	  0  2 :  1
     74.2896	        	        	        	        	       0	(  2  3  0)	  0  1 :  1
     74.2896	        	        	        	        	       0	(  3  2  0)	  0  1 :  1
     74.5030	        	        	        	        	       0	(  2  3  0)	  0  2 :  1
     74.5030	        	        	        	        	       0	(  3  2  0)	  0  2 :  1
     78.4887	        	        	        	        	       0	(  2  2  2)	  0  1 :  1
     78.6513	        	        	        	        	       0	(  0  1  3)	  0  1 :  1
     78.7189	        	        	        	        	       0	(  2  2  2)	  0  2 :  1
     78.8066	        	        	        	        	       0	(  1  4  0)	  0  1 :  1
     78.8066	        	        	        	        	       0	(  4  1  0)	  0  1 :  1
     78.8822	        	        	        	        	       0	(  0  1  3)	  0  2 :  1
     79.0381	        	        	        	        	       0	(  1  4  0)	  0  2 :  1
     79.0381	        	        	        	        	       0	(  4  1  0)	  0  2 :  1
     79.2864	        	        	        	        	       0	(  2  3  1)	  0  1 :  1
     79.2864	        	        	        	        	       0	(  3  2  1)	  0  1 :  1
     79.5199	        	        	        	        	       0	(  2  3  1)	  0  2 :  1
     79.5199	        	        	        	        	       0	(  3  2  1)	  0  2 :  1
     80.7214	        	        	        	        	       0	(  1  3  2)	  0  1 :  1
     80.7214	        	        	        	        	       0	(  3  1  2)	  0  1 :  1
     80.9609	        	        	        	        	       0	(  1  3  2)	  0  2 :  1
     80.9609	        	        	        	        	       0	(  3  1  2)	  0  2 :  1
     83.1003	        	        	        	        	       0	(  1  1  3)	  0  1 :  1
     83.3501	        	        	        	        	       0	(  1  1  3)	  0  2 :  1
     83.7277	        	        	        	        	       0	(  1  4  1)	  0  1 :  1
     83.7277	        	        	        	        	       0	(  4  1  1)	  0  1 :  1
     83.9803	        	        	        	        	       0	(  1  4  1)	  0  2 :  1
     83.9803	        	        	        	        	       0	(  4  1  1)	  0  2 :  1
     85.3074	        	        	        	        	       0	(  0  2  3)	  0  1 :  1
     85.5670	        	        	        	        	       0	(  0  2  3)	  0  2 :  1
     87.3479	        	        	        	        	       0	(  0  4  2)	  0  1 :  1
     87.6170	        	        	        	        	       0	(  0  4  2)	  0  2 :  1
     87.6598	        	        	        	        	       0	(  0  5  0)	  0  1 :  1
     87.9304	        	        	        	        	       0	(  0  5  0)	  0  2 :  1
     91.8994	        	        	        	        	       0	(  1  2  3)	  0  1 :  1
     91.8994	        	        	        	        	       0	(  2  1  3)	  0  1 :  1
     92.0517	        	        	        	        	       0	(  3  3  0)	  0  1 :  1
     92.1908	        	        	        	        	       0	(  1  2  3)	  0  2 :  1
     92.1908	        	        	        	        	       0	(  2  1  3)	  0  2 :  1
     92.3439	        	        	        	        	       0	(  3  3  0)	  0  2 :  1
     92.5230	        	        	        	        	       0	(  0  5  1)	  0  1 :  1
     92.8176	        	        	        	        	       0	(  0  5  1)	  0  2 :  1
     93.9381	        	        	        	        	       0	(  2  3  2)	  0  1 :  1
     93.9381	        	        	        	        	       0	(  3  2  2)	  0  1 :  1
     94.2401	        	        	        	        	       0	(  2  3  2)	  0  2 :  1
     94.2401	        	        	        	        	       0	(  3  2  2)	  0  2 :  1
     94.2505	        	        	        	        	       0	(  2  4  0)	  0  1 :  1
     94.2505	        	        	        	        	       0	(  4  2  0)	  0  1 :  1
     94.5542	        	        	        	        	       0	(  2  4  0)	  0  2 :  1
     94.5542	        	        	        	        	       0	(  4  2  0)	  0  2 :  1
     96.3022	        	        	        	        	       0	(  0  3  3)	  0  1 :  1
     96.6171	        	        	        	        	       0	(  0  3  3)	  0  2 :  1
     96.9295	        	        	        	        	       0	(  3  3  1)	  0  1 :  1
     97.2479	        	        	        	        	       0	(  3  3  1)	  0  2 :  1
     98.3549	        	        	        	        	       0	(  1  4  2)	  0  1 :  1
     98.3549	        	        	        	        	       0	(  4  1  2)	  0  1 :  1
     98.6814	        	        	        	        	       0	(  1  4  2)	  0  2 :  1
     98.6814	        	        	        	        	       0	(  4  1  2)	  0  2 :  1
     99.1466	        	        	        	        	       0	(  2  4  1)	  0  1 :  1
     99.1466	        	        	        	        	       0	(  4  2  1)	  0  1 :  1
     99.4776	        	        	        	        	       0	(  2  4  1)	  0  2 :  1
     99.4776	        	        	        	        	       0	(  4  2  1)	  0  2 :  1
    100.8975	        	        	        	        	       0	(  1  5  0)	  0  1 :  1
    100.8975	        	        	        	        	       0	(  5  1  0)	  0  1 :  1
    101.2391	        	        	        	        	       0	(  1  5  0)	  0  2 :  1
    101.2391	        	        	        	        	       0	(  5  1  0)	  0  2 :  1
    102.9855	        	        	        	        	       0	(  2  2  3)	  0  1 :  1
    103.3401	        	        	        	        	       0	(  2  2  3)	  0  2 :  1
    105.2489	        	        	        	        	       0	(  1  3  3)	  0  1 :  1
    105.2489	        	        	        	        	       0	(  3  1  3)	  0  1 :  1
    105.6183	        	        	        	        	       0	(  1  3  3)	  0  2 :  1
    105.6183	        	        	        	        	       0	(  3  1  3)	  0  2 :  1
    105.8957	        	        	        	        	       0	(  1  5  1)	  0  1 :  1
    105.8957	        	        	        	        	       0	(  5  1  1)	  0  1 :  1
    106.2695	        	        	        	        	       0	(  1  5  1)	  0  2 :  1
    106.2695	        	        	        	        	       0	(  5  1  1)	  0  2 :  1
    107.3699	        	        	        	        	       0	(  0  5  2)	  0  1 :  1
    107.7539	        	        	        	        	       0	(  0  5  2)	  0  2 :  1
    111.0290	        	        	        	        	       0	(  0  0  4)	  0  1 :  1
    111.4400	        	        	        	        	       0	(  0  0  4)	  0  2 :  1
    112.0336	        	        	        	        	       0	(  3  3  2)	  0  1 :  1
    112.2056	        	        	        	        	       0	(  0  4  3)	  0  1 :  1
    112.3701	        	        	        	        	       0	(  0  6  0)	  0  1 :  1
    112.4525	        	        	        	        	       0	(  3  3  2)	  0  2 :  1
    112.6258	        	        	        	        	       0	(  0  4  3)	  0  2 :  1
    112.7916	        	        	        	        	       0	(  0  6  0)	  0  2 :  1
    113.3998	        	        	        	        	       0	(  0  1  4)	  0  1 :  1
    113.8297	        	        	        	        	       0	(  0  1  4)	  0  2 :  1
    114.4220	        	        	        	        	       0	(  2  4  2)	  0  1 :  1
    114.4220	        	        	        	        	       0	(  4  2  2)	  0  1 :  1
    114.7646	        	        	        	        	       0	(  3  4  0)	  0  1 :  1
    114.7646	        	        	        	        	       0	(  4  3  0)	  0  1 :  1
    114.8604	        	        	        	        	       0	(  2  4  2)	  0  2 :  1
    114.8604	        	        	        	        	       0	(  4  2  2)	  0  2 :  1
    115.2059	        	        	        	        	       0	(  3  4  0)	  0  2 :  1
    115.2059	        	        	        	        	       0	(  4  3  0)	  0  2 :  1
    117.7367	        	        	        	        	       0	(  0  6  1)	  0  1 :  1
    118.2045	        	        	        	        	       0	(  0  6  1)	  0  2 :  1
    118.2779	        	        	        	        	       0	(  1  1  4)	  0  1 :  1
    118.7508	        	        	        	        	       0	(  1  1  4)	  0  2 :  1
    119.5273	        	        	        	        	       0	(  2  3  3)	  0  1 :  1
    119.5273	        	        	        	        	       0	(  3  2  3)	  0  1 :  1
    119.7023	        	        	        	        	       0	(  2  5  0)	  0  1 :  1
    119.7023	        	        	        	        	       0	(  5  2  0)	  0  1 :  1
    120.0121	        	        	        	        	       0	(  2  3  3)	  0  2 :  1
    120.0121	        	        	        	        	       0	(  3  2  3)	  0  2 :  1
    120.1889	        	        	        	        	       0	(  2  5  0)	  0  2 :  1
    120.1889	        	        	        	        	       0	(  5  2  0)	  0  2 :  1
    120.2458	        	        	        	        	       0	(  3  4  1)	  0  1 :  1
    120.2458	        	        	        	        	       0	(  4  3  1)	  0  1 :  1
    120.7377	        	        	        	        	       0	(  3  4  1)	  0  2 :  1
    120.7377	        	        	        	        	       0	(  4  3  1)	  0  2 :  1
    120.8004	        	        	        	        	       0	(  0  2  4)	  0  1 :  1
    121.2980	        	        	        	        	       0	(  0  2  4)	  0  2 :  1
    121.8946	        	        	        	        	       0	(  1  5  2)	  0  1 :  1
    121.8946	        	        	        	        	       0	(  5  1  2)	  0  1 :  1
    122.4035	        	        	        	        	       0	(  1  5  2)	  0  2 :  1
    122.4035	        	        	        	        	       0	(  5  1  2)	  0  2 :  1
