 ZnO   Chi2: 11.2163  CELL:    3.25013   3.25013   5.20717   90.0000   90.0000  120.0000   SPGR: P 63 m c               TEMP:      0.00
  1   3890     1.54060     1.54439     0.00000    -0.08078     0.00000    0
    63     0     1
       0.00000      15.00000
 2Theta	Yobs	Ycal	Yobs-Ycal	Backg	Posr	(hkl)	K
     20.0030	   390.0	   436.6	 -2948.3	   379.9
     20.0364	   440.0	   436.5	 -2898.3	   379.9
     20.0699	   404.0	   436.4	 -2934.2	   379.8
     20.1033	   398.0	   436.4	 -2940.1	   379.7
     20.1367	   402.0	   436.3	 -2936.1	   379.7
     20.1701	   420.0	   436.3	 -2918.0	   379.6
     20.2035	   408.0	   436.2	 -2930.0	   379.6
     20.2370	   417.0	   436.2	 -2920.9	   379.5
     20.2704	   418.0	   436.1	 -2919.9	   379.5
     20.3038	   381.0	   436.1	 -2956.8	   379.4
     20.3372	   435.0	   436.0	 -2902.8	   379.4
     20.3707	   390.0	   436.0	 -2947.7	   379.3
     20.4041	   398.0	   435.9	 -2939.7	   379.3
     20.4375	   403.0	   435.9	 -2934.6	   379.2
     20.4709	   416.0	   435.8	 -2921.6	   379.1
     20.5044	   394.0	   435.7	 -2943.5	   379.1
     20.5378	   399.0	   435.7	 -2938.4	   379.0
     20.5712	   388.0	   435.6	 -2949.4	   379.0
     20.6046	   385.0	   435.6	 -2952.3	   378.9
     20.6380	   400.0	   435.5	 -2937.3	   378.9
     20.6715	   408.0	   435.5	 -2929.2	   378.8
     20.7049	   407.0	   435.4	 -2930.2	   378.8
     20.7383	   406.0	   435.4	 -2931.1	   378.7
     20.7717	   383.0	   435.3	 -2954.1	   378.7
     20.8052	   410.0	   435.3	 -2927.0	   378.6
     20.8386	   419.0	   435.2	 -2918.0	   378.6
     20.8720	   394.0	   435.2	 -2942.9	   378.5
     20.9054	   411.0	   435.1	 -2925.8	   378.4
     20.9388	   406.0	   435.0	 -2930.8	   378.4
     20.9723	   391.0	   435.0	 -2945.7	   378.3
     21.0057	   387.0	   434.9	 -2949.7	   378.3
     21.0391	   403.0	   434.9	 -2933.6	   378.2
     21.0725	   367.0	   434.8	 -2969.6	   378.2
     21.1060	   409.0	   434.8	 -2927.5	   378.1
     21.1394	   409.0	   434.7	 -2927.5	   378.1
     21.1728	   405.0	   434.7	 -2931.4	   378.0
     21.2062	   419.0	   434.6	 -2917.4	   378.0
     21.2396	   440.0	   434.6	 -2896.3	   377.9
     21.2731	   384.0	   434.5	 -2952.3	   377.9
     21.3065	   399.0	   434.5	 -2937.2	   377.8
     21.3399	   380.0	   434.4	 -2956.1	   377.7
     21.3733	   381.0	   434.3	 -2955.1	   377.7
     21.4068	   370.0	   434.3	 -2966.0	   377.6
     21.4402	   442.0	   434.2	 -2894.0	   377.6
     21.4736	   450.0	   434.2	 -2885.9	   377.5
     21.5070	   410.0	   434.1	 -2925.9	   377.5
     21.5404	   382.0	   434.1	 -2953.8	   377.4
     21.5739	   379.0	   434.0	 -2956.8	   377.4
     21.6073	   400.0	   434.0	 -2935.7	   377.3
     21.6407	   429.0	   433.9	 -2906.7	   377.3
     21.6741	   381.0	   433.9	 -2954.6	   377.2
     21.7076	   440.0	   433.8	 -2895.6	   377.2
     21.7410	   344.0	   433.7	 -2991.5	   377.1
     21.7744	   362.0	   433.7	 -2973.4	   377.0
     21.8078	   421.0	   433.6	 -2914.4	   377.0
     21.8413	   404.0	   433.6	 -2931.3	   376.9
     21.8747	   399.0	   433.5	 -2936.3	   376.9
     21.9081	   378.0	   433.5	 -2957.2	   376.8
     21.9415	   404.0	   433.4	 -2931.2	   376.8
     21.9749	   387.0	   433.4	 -2948.1	   376.7
     22.0084	   382.0	   433.3	 -2953.1	   376.7
     22.0418	   423.0	   433.3	 -2912.0	   376.6
     22.0752	   367.0	   433.2	 -2968.0	   376.6
     22.1086	   444.0	   433.2	 -2890.9	   376.5
     22.1421	   433.0	   433.1	 -2901.9	   376.4
     22.1755	   373.0	   433.0	 -2961.8	   376.4
     22.2089	   407.0	   433.0	 -2927.7	   376.3
     22.2423	   420.0	   432.9	 -2914.7	   376.3
     22.2757	   403.0	   432.9	 -2931.6	   376.2
     22.3092	   394.0	   432.8	 -2940.6	   376.2
     22.3426	   382.0	   432.8	 -2952.5	   376.1
     22.3760	   395.0	   432.7	 -2939.5	   376.1
     22.4094	   446.0	   432.7	 -2888.4	   376.0
     22.4429	   414.0	   432.6	 -2920.4	   376.0
     22.4763	   382.0	   432.6	 -2952.3	   375.9
     22.5097	   419.0	   432.5	 -2915.3	   375.9
     22.5431	   422.0	   432.5	 -2912.2	   375.8
     22.5765	   390.0	   432.4	 -2944.1	   375.7
     22.6100	   397.0	   432.3	 -2937.1	   375.7
     22.6434	   406.0	   432.3	 -2928.0	   375.6
     22.6768	   400.0	   432.2	 -2934.0	   375.6
     22.7102	   417.0	   432.2	 -2916.9	   375.5
     22.7437	   439.0	   432.1	 -2894.9	   375.5
     22.7771	   394.0	   432.1	 -2939.8	   375.4
     22.8105	   439.0	   432.0	 -2894.8	   375.4
     22.8439	   409.0	   432.0	 -2924.7	   375.3
     22.8773	   413.0	   431.9	 -2920.7	   375.3
     22.9108	   421.0	   431.9	 -2912.6	   375.2
     22.9442	   396.0	   431.8	 -2937.6	   375.2
     22.9776	   405.0	   431.8	 -2928.5	   375.1
     23.0110	   404.0	   431.7	 -2929.4	   375.0
     23.0445	   403.0	   431.6	 -2930.4	   375.0
     23.0779	   375.0	   431.6	 -2958.3	   374.9
     23.1113	   420.0	   431.5	 -2913.3	   374.9
     23.1447	   414.0	   431.5	 -2919.2	   374.8
     23.1782	   398.0	   431.4	 -2935.2	   374.8
     23.2116	   381.0	   431.4	 -2952.1	   374.7
     23.2450	   432.0	   431.3	 -2901.1	   374.7
     23.2784	   407.0	   431.3	 -2926.0	   374.6
     23.3118	   397.0	   431.2	 -2936.0	   374.6
     23.3453	   414.0	   431.2	 -2918.9	   374.5
     23.3787	   409.0	   431.1	 -2923.9	   374.5
     23.4121	   393.0	   431.0	 -2939.8	   374.4
     23.4455	   389.0	   431.0	 -2943.7	   374.3
     23.4790	   418.0	   430.9	 -2914.7	   374.3
     23.5124	   394.0	   430.9	 -2938.6	   374.2
     23.5458	   455.0	   430.8	 -2877.6	   374.2
     23.5792	   408.0	   430.8	 -2924.5	   374.1
     23.6126	   413.0	   430.7	 -2919.5	   374.1
     23.6461	   390.0	   430.7	 -2942.4	   374.0
     23.6795	   422.0	   430.6	 -2910.4	   374.0
     23.7129	   429.0	   430.6	 -2903.3	   373.9
     23.7463	   390.0	   430.5	 -2942.3	   373.9
     23.7798	   374.0	   430.5	 -2958.2	   373.8
     23.8132	   409.0	   430.4	 -2923.2	   373.7
     23.8466	   392.0	   430.3	 -2940.1	   373.7
     23.8800	   405.0	   430.3	 -2927.0	   373.6
     23.9134	   433.0	   430.2	 -2899.0	   373.6
     23.9469	   420.0	   430.2	 -2911.9	   373.5
     23.9803	   427.0	   430.1	 -2904.9	   373.5
     24.0137	   368.0	   430.1	 -2963.8	   373.4
     24.0471	   391.0	   430.0	 -2940.8	   373.4
     24.0806	   420.0	   430.0	 -2911.7	   373.3
     24.1140	   394.0	   429.9	 -2937.7	   373.3
     24.1474	   364.0	   429.9	 -2967.6	   373.2
     24.1808	   439.0	   429.8	 -2892.6	   373.2
     24.2143	   378.0	   429.8	 -2953.5	   373.1
     24.2477	   413.0	   429.7	 -2918.4	   373.0
     24.2811	   417.0	   429.6	 -2914.4	   373.0
     24.3145	   408.0	   429.6	 -2923.3	   372.9
     24.3479	   412.0	   429.5	 -2919.3	   372.9
     24.3814	   392.0	   429.5	 -2939.2	   372.8
     24.4148	   378.0	   429.4	 -2953.2	   372.8
     24.4482	   397.0	   429.4	 -2934.1	   372.7
     24.4816	   425.0	   429.3	 -2906.1	   372.7
     24.5151	   409.0	   429.3	 -2922.0	   372.6
     24.5485	   394.0	   429.2	 -2937.0	   372.6
     24.5819	   439.0	   429.2	 -2891.9	   372.5
     24.6153	   390.0	   429.1	 -2940.9	   372.5
     24.6487	   432.0	   429.1	 -2898.8	   372.4
     24.6822	   432.0	   429.0	 -2898.7	   372.3
     24.7156	   414.0	   428.9	 -2916.7	   372.3
     24.7490	   407.0	   428.9	 -2923.6	   372.2
     24.7824	   400.0	   428.8	 -2930.6	   372.2
     24.8159	   411.0	   428.8	 -2919.5	   372.1
     24.8493	   422.0	   428.7	 -2908.5	   372.1
     24.8827	   435.0	   428.7	 -2895.4	   372.0
     24.9161	   438.0	   428.6	 -2892.4	   372.0
     24.9495	   406.0	   428.6	 -2924.3	   371.9
     24.9830	   403.0	   428.5	 -2927.3	   371.9
     25.0164	   391.0	   428.5	 -2939.2	   371.8
     25.0498	   392.0	   428.4	 -2938.2	   371.8
     25.0832	   404.0	   428.4	 -2926.1	   371.7
     25.1167	   425.0	   428.3	 -2905.0	   371.6
     25.1501	   410.0	   428.2	 -2920.0	   371.6
     25.1835	   448.0	   428.2	 -2881.9	   371.5
     25.2169	   428.0	   428.1	 -2901.9	   371.5
     25.2504	   384.0	   428.1	 -2945.8	   371.4
     25.2838	   404.0	   428.0	 -2925.8	   371.4
     25.3172	   396.0	   428.0	 -2933.7	   371.3
     25.3506	   414.0	   427.9	 -2915.7	   371.3
     25.3840	   422.0	   427.9	 -2907.6	   371.2
     25.4175	   422.0	   427.8	 -2907.6	   371.2
     25.4509	   420.0	   427.8	 -2909.5	   371.1
     25.4843	   398.0	   427.7	 -2931.5	   371.1
     25.5177	   393.0	   427.6	 -2936.4	   371.0
     25.5512	   402.0	   427.6	 -2927.3	   370.9
     25.5846	   437.0	   427.5	 -2892.3	   370.9
     25.6180	   403.0	   427.5	 -2926.2	   370.8
     25.6514	   442.0	   427.4	 -2887.2	   370.8
     25.6848	   419.0	   427.4	 -2910.1	   370.7
     25.7183	   397.0	   427.3	 -2932.1	   370.7
     25.7517	   452.0	   427.3	 -2877.0	   370.6
     25.7851	   488.0	   427.2	 -2841.0	   370.6
     25.8185	   456.0	   427.2	 -2872.9	   370.5
     25.8520	   377.0	   427.1	 -2951.9	   370.5
     25.8854	   424.0	   427.1	 -2904.8	   370.4
     25.9188	   454.0	   427.0	 -2874.8	   370.3
     25.9522	   403.0	   426.9	 -2925.7	   370.3
     25.9856	   416.0	   426.9	 -2912.6	   370.2
     26.0191	   465.0	   426.8	 -2863.6	   370.2
     26.0525	   391.0	   426.8	 -2937.5	   370.1
     26.0859	   404.0	   426.7	 -2924.5	   370.1
     26.1193	   427.0	   426.7	 -2901.4	   370.0
     26.1528	   438.0	   426.6	 -2890.4	   370.0
     26.1862	   411.0	   426.6	 -2917.3	   369.9
     26.2196	   450.0	   426.5	 -2878.3	   369.9
     26.2530	   452.0	   426.5	 -2876.2	   369.8
     26.2864	   428.0	   426.4	 -2900.2	   369.8
     26.3199	   416.0	   426.4	 -2912.1	   369.7
     26.3533	   406.0	   426.3	 -2922.0	   369.6
     26.3867	   427.0	   426.2	 -2901.0	   369.6
     26.4201	   374.0	   426.2	 -2953.9	   369.5
     26.4536	   447.0	   426.1	 -2880.9	   369.5
     26.4870	   412.0	   426.1	 -2915.8	   369.4
     26.5204	   420.0	   426.0	 -2907.8	   369.4
     26.5538	   442.0	   426.0	 -2885.7	   369.3
     26.5873	   406.0	   425.9	 -2921.7	   369.3
     26.6207	   437.0	   425.9	 -2890.6	   369.2
     26.6541	   389.0	   425.8	 -2938.6	   369.2
     26.6875	   428.0	   433.2	 -2907.0	   369.1
     26.7209	   442.0	   433.3	 -2893.0	   369.1
     26.7544	   450.0	   433.3	 -2885.1	   369.0
     26.7878	   442.0	   437.1	 -2896.9	   368.9
     26.8212	   440.0	   437.2	 -2899.0	   368.9
     26.8546	   470.0	   437.3	 -2869.1	   368.8
     26.8881	   420.0	   437.5	 -2919.2	   368.8
     26.9215	   434.0	   437.6	 -2905.3	   368.7
     26.9549	   434.0	   437.7	 -2905.4	   368.7
     26.9883	   450.0	   437.8	 -2889.6	   368.6
     27.0217	   409.0	   437.9	 -2930.7	   368.6
     27.0552	   429.0	   438.1	 -2910.8	   368.5
     27.0886	   404.0	   438.2	 -2935.9	   368.5
     27.1220	   370.0	   438.3	 -2970.1	   368.4
     27.1554	   424.0	   438.5	 -2916.2	   368.4
     27.1889	   417.0	   438.6	 -2923.4	   368.3
     27.2223	   429.0	   438.8	 -2911.5	   368.2
     27.2557	   439.0	   438.9	 -2901.7	   368.2
     27.2891	   406.0	   439.1	 -2934.8	   368.1
     27.3225	   422.0	   439.2	 -2919.0	   368.1
     27.3560	   444.0	   439.4	 -2897.2	   368.0
     27.3894	   422.0	   439.6	 -2919.3	   368.0
     27.4228	   440.0	   439.8	 -2901.5	   367.9
     27.4562	   432.0	   439.9	 -2909.7	   367.9
     27.4897	   427.0	   440.1	 -2914.9	   367.8
     27.5231	   442.0	   440.3	 -2900.1	   367.8
     27.5565	   408.0	   440.5	 -2934.3	   367.7
     27.5899	   444.0	   440.7	 -2898.5	   367.6
     27.6234	   406.0	   441.0	 -2936.7	   367.6
     27.6568	   443.0	   441.2	 -2899.9	   367.5
     27.6902	   417.0	   441.4	 -2926.2	   367.5
     27.7236	   417.0	   441.6	 -2926.4	   367.4
     27.7570	   442.0	   441.9	 -2901.6	   367.4
     27.7905	   433.0	   442.1	 -2910.9	   367.3
     27.8239	   448.0	   442.4	 -2896.2	   367.3
     27.8573	   429.0	   442.7	 -2915.4	   367.2
     27.8907	   438.0	   442.9	 -2906.7	   367.2
     27.9242	   424.0	   443.2	 -2921.0	   367.1
     27.9576	   425.0	   443.5	 -2920.3	   367.1
     27.9910	   452.0	   443.8	 -2893.6	   367.0
     28.0244	   423.0	   444.1	 -2922.9	   366.9
     28.0578	   458.0	   444.5	 -2888.2	   366.9
     28.0913	   441.0	   444.8	 -2905.5	   366.8
     28.1247	   446.0	   445.1	 -2900.9	   366.8
     28.1581	   448.0	   445.5	 -2899.2	   366.7
     28.1915	   474.0	   445.9	 -2873.6	   366.7
     28.2250	   453.0	   446.2	 -2895.0	   366.6
     28.2584	   461.0	   446.6	 -2887.4	   366.6
     28.2918	   477.0	   447.0	 -2871.8	   366.5
     28.3252	   426.0	   447.4	 -2923.2	   366.5
     28.3586	   428.0	   447.9	 -2921.6	   366.4
     28.3921	   465.0	   448.3	 -2885.1	   366.4
     28.4255	   494.0	   448.8	 -2856.5	   366.3
     28.4589	   462.0	   449.3	 -2889.0	   366.2
     28.4923	   437.0	   449.8	 -2914.5	   366.2
     28.5258	   449.0	   450.3	 -2903.0	   366.1
     28.5592	   452.0	   450.8	 -2900.5	   366.1
     28.5926	   450.0	   451.3	 -2903.1	   366.0
     28.6260	   453.0	   451.9	 -2900.7	   366.0
     28.6595	   435.0	   452.5	 -2919.2	   365.9
     28.6929	   423.0	   453.1	 -2931.9	   365.9
     28.7263	   443.0	   453.7	 -2912.5	   365.8
     28.7597	   457.0	   454.4	 -2899.1	   365.8
     28.7931	   416.0	   455.1	 -2940.8	   365.7
     28.8266	   483.0	   455.8	 -2874.5	   365.7
     28.8600	   488.0	   456.5	 -2870.2	   365.6
     28.8934	   447.0	   457.3	 -2912.0	   365.5
     28.9268	   461.0	   458.0	 -2898.8	   365.5
     28.9603	   446.0	   458.9	 -2914.6	   365.4
     28.9937	   451.0	   459.7	 -2910.5	   365.4
     29.0271	   481.0	   460.6	 -2881.3	   365.3
     29.0605	   452.0	   461.5	 -2911.3	   365.3
     29.0939	   469.0	   462.5	 -2895.2	   365.2
     29.1274	   463.0	   463.5	 -2902.2	   365.2
     29.1608	   447.0	   464.5	 -2919.3	   365.1
     29.1942	   438.0	   465.6	 -2929.3	   365.1
     29.2276	   476.0	   466.7	 -2892.5	   365.0
     29.2611	   496.0	   467.9	 -2873.6	   365.0
     29.2945	   512.0	   469.1	 -2858.9	   364.9
     29.3279	   471.0	   476.8	 -2907.5	   364.8
     29.3613	   463.0	   478.2	 -2916.9	   364.8
     29.3947	   444.0	   482.8	 -2940.6	   364.7
     29.4282	   459.0	   484.4	 -2927.2	   364.7
     29.4616	   474.0	   486.1	 -2913.8	   364.6
     29.4950	   495.0	   487.8	 -2894.6	   364.6
     29.5284	   471.0	   489.6	 -2920.4	   364.5
     29.5619	   498.0	   491.5	 -2895.3	   364.5
     29.5953	   428.0	   493.5	 -2967.3	   364.4
     29.6287	   481.0	   495.6	 -2916.3	   364.4
     29.6621	   499.0	   497.8	 -2900.5	   364.3
     29.6955	   497.0	   500.0	 -2904.8	   364.2
     29.7290	   482.0	   502.4	 -2922.2	   364.2
     29.7624	   495.0	   505.0	 -2911.7	   364.1
     29.7958	   511.0	   507.6	 -2898.3	   364.1
     29.8292	   453.0	   510.4	 -2959.1	   364.0
     29.8627	   455.0	   513.3	 -2960.1	   364.0
     29.8961	   467.0	   516.4	 -2951.1	   363.9
     29.9295	   484.0	   519.7	 -2937.4	   363.9
     29.9629	   511.0	   523.1	 -2913.8	   363.8
     29.9964	   487.0	   526.7	 -2941.5	   363.8
     30.0298	   536.0	   530.6	 -2896.3	   363.7
     30.0632	   547.0	   534.6	 -2889.4	   363.7
     30.0966	   494.0	   539.0	 -2946.7	   363.6
     30.1300	   556.0	   543.5	 -2889.3	   363.5
     30.1635	   486.0	   548.4	 -2964.2	   363.5
     30.1969	   491.0	   553.6	 -2964.4	   363.4
     30.2303	   532.0	   559.1	 -2928.9	   363.4
     30.2637	   524.0	   565.0	 -2942.8	   363.3
     30.2972	   566.0	   571.3	 -2907.1	   363.3
     30.3306	   523.0	   578.1	 -2956.8	   363.2
     30.3640	   542.0	   585.3	 -2945.1	   363.2
     30.3974	   571.0	   593.1	 -2923.8	   363.1
     30.4308	   584.0	   601.4	 -2919.2	   363.1
     30.4643	   561.0	   610.4	 -2951.2	   363.0
     30.4977	   588.0	   620.1	 -2933.9	   363.0
     30.5311	   552.0	   630.6	 -2980.4	   362.9
     30.5645	   591.0	   642.0	 -2952.8	   362.8
     30.5980	   591.0	   654.4	 -2965.2	   362.8
     30.6314	   644.0	   667.9	 -2925.6	   362.7
     30.6648	   662.0	   682.6	 -2922.3	   362.7
     30.6982	   694.0	   698.7	 -2906.4	   362.6
     30.7316	   655.0	   716.3	 -2963.1	   362.6
     30.7651	   717.0	   735.8	 -2920.5	   362.5
     30.7985	   751.0	   757.2	 -2908.0	   362.5
     30.8319	   744.0	   781.0	 -2938.7	   362.4
     30.8653	   715.0	   807.4	 -2994.1	   362.4
     30.8988	   758.0	   836.8	 -2980.5	   362.3
     30.9322	   814.0	   869.8	 -2957.5	   362.3
     30.9656	   820.0	   906.8	 -2988.6	   362.2
     30.9990	   824.0	   948.8	 -3026.5	   362.1
     31.0324	   952.0	   996.4	 -2946.1	   362.1
     31.0659	   966.0	  1050.8	 -2986.6	   362.0
     31.0993	   999.0	  1113.5	 -3016.3	   362.0
     31.1327	  1023.0	  1200.4	 -3079.1	   361.9
     31.1661	  1181.0	  1285.6	 -3006.3	   361.9
     31.1996	  1186.0	  1386.0	 -3101.8	   361.8
     31.2330	  1330.0	  1512.6	 -3084.3	   361.8
     31.2664	  1325.0	  1655.9	 -3232.7	   361.7
     31.2998	  1548.0	  1829.0	 -3182.7	   361.7
     31.3333	  1676.0	  2038.8	 -3264.6	   361.6
     31.3667	  1895.0	  2294.0	 -3300.8	   361.5
     31.4001	  2173.0	  2604.3	 -3333.1	   361.5
     31.4335	  2398.0	  2980.0	 -3483.7	   361.4
     31.4669	  2808.0	  3430.9	 -3524.6	   361.4
     31.5004	  3153.0	  3964.1	 -3712.9	   361.3
     31.5338	  3588.0	  4578.8	 -3892.5	   361.3
     31.5672	  4078.0	  5258.1	 -4081.9	   361.2
     31.6006	  4868.0	  5959.4	 -3993.2	   361.2
     31.6341	  5891.0	  6607.4	 -3618.1	   361.1
     31.6675	  6850.0	  7102.6	 -3154.4	   361.1
     31.7009	  7312.0	  7352.5	 -2942.2	   361.0
     31.7343	  7274.0	  7309.7	 -2937.5	   361.0
     31.7677	  6508.0	  6990.0	 -3383.8	   360.9
     31.8012	  5824.0	  6459.8	 -3537.6	   360.8
     31.8346	  4982.0	  5808.9	 -3728.6	   360.8
     31.8680	  4147.0	  5123.2	 -3877.9	   360.7
     31.9014	  3595.0	  4466.3	 -3773.1	   360.7
     31.9349	  3141.0	  3874.6	 -3635.4	   360.6
     31.9683	  2847.0	  3362.4	 -3417.1	   360.6
     32.0017	  2438.0	  2929.7	 -3393.4	   360.5
     32.0351	  2191.0	  2569.7	 -3280.5	   360.5
     32.0686	  1989.0	  2272.8	 -3185.6	   360.4
     32.1020	  1721.0	  2028.9	 -3209.6	   360.4
     32.1354	  1608.0	  1828.6	 -3122.4	   360.3
     32.1688	  1506.0	  1663.8	 -3059.6	   360.3
     32.2022	  1378.0	  1527.6	 -3051.4	   360.2
     32.2357	  1259.0	  1414.4	 -3057.1	   360.1
     32.2691	  1181.0	  1319.5	 -3040.2	   360.1
     32.3025	  1157.0	  1239.4	 -2984.2	   360.0
     32.3359	  1001.0	  1171.4	 -3072.1	   360.0
     32.3694	  1035.0	  1113.1	 -2979.8	   359.9
     32.4028	   949.0	  1062.8	 -3015.6	   359.9
     32.4362	   958.0	  1019.3	 -2963.1	   359.8
     32.4696	   863.0	   981.5	 -3020.3	   359.8
     32.5030	   859.0	   948.5	 -2991.3	   359.7
     32.5365	   895.0	   919.7	 -2926.4	   359.7
     32.5699	   835.0	   894.4	 -2961.2	   359.6
     32.6033	   840.0	   872.3	 -2934.1	   359.6
     32.6367	   813.0	   852.9	 -2941.7	   359.5
     32.6702	   763.0	   836.0	 -2974.7	   359.4
     32.7036	   769.0	   821.2	 -2954.0	   359.4
     32.7370	   748.0	   808.4	 -2962.1	   359.3
     32.7704	   775.0	   797.3	 -2924.1	   359.3
     32.8038	   754.0	   787.9	 -2935.6	   359.2
     32.8373	   799.0	   779.9	 -2882.6	   359.2
     32.8707	   771.0	   773.3	 -2904.0	   359.1
     32.9041	   766.0	   768.0	 -2903.7	   359.1
     32.9375	   738.0	   763.9	 -2927.6	   359.0
     32.9710	   803.0	   761.0	 -2859.7	   359.0
     33.0044	   789.0	   759.1	 -2871.9	   358.9
     33.0378	   790.0	   758.4	 -2870.2	   358.8
     33.0712	   830.0	   758.8	 -2830.5	   358.8
     33.1046	   798.0	   760.2	 -2864.0	   358.7
     33.1381	   751.0	   762.7	 -2913.5	   358.7
     33.1715	   771.0	   766.4	 -2897.1	   358.6
     33.2049	   786.0	   771.1	 -2886.9	   358.6
     33.2383	   824.0	   777.1	 -2854.9	   358.5
     33.2718	   823.0	   784.3	 -2863.1	   358.5
     33.3052	   852.0	   792.9	 -2842.7	   358.4
     33.3386	   914.0	   802.9	 -2790.7	   358.4
     33.3720	   877.0	   814.5	 -2839.2	   358.3
     33.4054	   903.0	   827.7	 -2826.5	   358.3
     33.4389	   884.0	   842.9	 -2860.6	   358.2
     33.4723	   918.0	   860.1	 -2843.9	   358.1
     33.5057	   929.0	   879.7	 -2852.5	   358.1
     33.5391	  1012.0	   901.9	 -2791.7	   358.0
     33.5726	  1036.0	   927.2	 -2792.9	   358.0
     33.6060	  1012.0	   955.9	 -2845.6	   357.9
     33.6394	  1115.0	   988.6	 -2775.3	   357.9
     33.6728	  1210.0	  1025.9	 -2717.7	   357.8
     33.7063	  1260.0	  1068.8	 -2710.6	   357.8
     33.7397	  1259.0	  1118.3	 -2761.0	   357.7
     33.7731	  1271.0	  1175.6	 -2806.3	   357.7
     33.8065	  1395.0	  1242.5	 -2749.2	   357.6
     33.8399	  1473.0	  1321.1	 -2749.9	   357.6
     33.8734	  1599.0	  1414.1	 -2716.8	   357.5
     33.9068	  1815.0	  1524.8	 -2611.5	   357.4
     33.9402	  1779.0	  1657.3	 -2780.0	   357.4
     33.9736	  2056.0	  1816.4	 -2662.1	   357.3
     34.0071	  2248.0	  2007.9	 -2661.7	   357.3
     34.0405	  2478.0	  2238.3	 -2662.0	   357.2
     34.0739	  2679.0	  2514.4	 -2737.1	   357.2
     34.1073	  3057.0	  2842.8	 -2687.6	   357.1
     34.1407	  3385.0	  3228.4	 -2745.2	   357.1
     34.1742	  3934.0	  3671.4	 -2639.1	   357.0
     34.2076	  4388.0	  4162.6	 -2676.4	   357.0
     34.2410	  5178.0	  4677.4	 -2401.2	   356.9
     34.2744	  6073.0	  5170.9	 -1999.7	   356.9
     34.3079	  6960.0	  5580.2	 -1522.0	   356.8
     34.3413	  7722.0	  5840.0	 -1019.7	   356.7
     34.3747	  7700.0	  5905.7	 -1107.4	   356.7
     34.4081	  7305.0	  5770.6	 -1367.4	   356.6
     34.4416	  6586.0	  5464.2	 -1779.9	   356.6
     34.4750	  5889.0	  5039.2	 -2051.9	   356.5
     34.5084	  4940.0	  4554.9	 -2516.7	   356.5
     34.5418	  4224.0	  4063.3	 -2741.1	   356.4
     34.5752	  3712.0	  3601.0	 -2790.7	   356.4
     34.6087	  3370.0	  3187.7	 -2719.5	   356.3
     34.6421	  2984.0	  2830.5	 -2748.2	   356.3
     34.6755	  2945.0	  2528.6	 -2485.3	   356.2
     34.7089	  2652.0	  2277.0	 -2526.8	   356.2
     34.7424	  2353.0	  2069.5	 -2618.3	   356.1
     34.7758	  2150.0	  1899.4	 -2651.2	   356.0
     34.8092	  2076.0	  1760.6	 -2586.4	   356.0
     34.8426	  1864.0	  1647.8	 -2685.5	   355.9
     34.8760	  1849.0	  1556.4	 -2609.1	   355.9
     34.9095	  1726.0	  1482.6	 -2658.4	   355.8
     34.9429	  1672.0	  1423.5	 -2653.3	   355.8
     34.9763	  1584.0	  1376.7	 -2694.4	   355.7
     35.0097	  1522.0	  1340.2	 -2719.9	   355.7
     35.0432	  1511.0	  1312.7	 -2703.4	   355.6
     35.0766	  1540.0	  1293.0	 -2654.8	   355.6
     35.1100	  1444.0	  1280.5	 -2738.2	   355.5
     35.1434	  1419.0	  1274.4	 -2757.2	   355.4
     35.1768	  1435.0	  1274.6	 -2741.3	   355.4
     35.2103	  1364.0	  1280.6	 -2818.4	   355.3
     35.2437	  1450.0	  1292.6	 -2744.4	   355.3
     35.2771	  1467.0	  1310.5	 -2745.3	   355.2
     35.3105	  1502.0	  1334.6	 -2734.4	   355.2
     35.3440	  1465.0	  1365.2	 -2802.0	   355.1
     35.3774	  1486.0	  1402.8	 -2818.6	   355.1
     35.4108	  1561.0	  1448.1	 -2788.9	   355.0
     35.4442	  1628.0	  1501.9	 -2775.7	   355.0
     35.4776	  1710.0	  1565.4	 -2757.2	   354.9
     35.5111	  1733.0	  1640.0	 -2808.8	   354.9
     35.5445	  1769.0	  1727.5	 -2860.2	   354.8
     35.5779	  1980.0	  1830.2	 -2752.0	   354.7
     35.6113	  2019.0	  1951.1	 -2833.8	   354.7
     35.6448	  2273.0	  2093.7	 -2722.5	   354.6
     35.6782	  2322.0	  2262.9	 -2842.7	   354.6
     35.7116	  2532.0	  2464.3	 -2834.0	   354.5
     35.7450	  2951.0	  2705.0	 -2655.7	   354.5
     35.7785	  3090.0	  2993.4	 -2805.2	   354.4
     35.8119	  3369.0	  3339.6	 -2872.3	   354.4
     35.8453	  3638.0	  3755.2	 -3018.9	   354.3
     35.8787	  3917.0	  4252.7	 -3237.5	   354.3
     35.9121	  4510.0	  4845.2	 -3237.0	   354.2
     35.9456	  4988.0	  5544.5	 -3458.2	   354.2
     35.9790	  5559.0	  6356.4	 -3699.2	   354.1
     36.0124	  6288.0	  7276.5	 -3890.2	   354.0
     36.0458	  6980.0	  8278.6	 -4200.4	   354.0
     36.0793	  7926.0	  9304.7	 -4280.5	   353.9
     36.1127	  9415.0	 10259.7	 -3746.4	   353.9
     36.1461	 10848.0	 11019.3	 -3073.1	   353.8
     36.1795	 11595.0	 11465.8	 -2772.6	   353.8
     36.2129	 11607.0	 11527.5	 -2822.3	   353.7
     36.2464	 10847.0	 11202.8	 -3257.6	   353.7
     36.2798	 10024.0	 10553.2	 -3431.0	   353.6
     36.3132	  8728.0	  9678.7	 -3852.4	   353.6
     36.3466	  7387.0	  8690.1	 -4204.8	   353.5
     36.3801	  6346.0	  7684.1	 -4239.9	   353.5
     36.4135	  5729.0	  6731.4	 -3904.1	   353.4
     36.4469	  5143.0	  5870.8	 -3629.5	   353.3
     36.4803	  4458.0	  5117.3	 -3561.1	   353.3
     36.5137	  4069.0	  4471.6	 -3304.4	   353.2
     36.5472	  3620.0	  3924.7	 -3206.5	   353.2
     36.5806	  3169.0	  3465.0	 -3197.7	   353.1
     36.6140	  2933.0	  3079.8	 -3048.6	   353.1
     36.6474	  2600.0	  2757.2	 -3058.9	   353.0
     36.6809	  2335.0	  2486.6	 -3053.3	   353.0
     36.7143	  2172.0	  2258.6	 -2988.4	   352.9
     36.7477	  2025.0	  2058.4	 -2935.2	   352.9
     36.7811	  1862.0	  1890.6	 -2930.4	   352.8
     36.8146	  1765.0	  1749.9	 -2886.6	   352.7
     36.8480	  1568.0	  1628.5	 -2962.2	   352.7
     36.8814	  1507.0	  1523.0	 -2917.7	   352.6
     36.9148	  1425.0	  1430.7	 -2907.4	   352.6
     36.9482	  1414.0	  1349.4	 -2837.2	   352.5
     36.9817	  1264.0	  1277.5	 -2915.3	   352.5
     37.0151	  1179.0	  1213.6	 -2936.4	   352.4
     37.0485	  1117.0	  1156.5	 -2941.2	   352.4
     37.0819	  1088.0	  1105.2	 -2919.0	   352.3
     37.1154	   989.0	  1059.1	 -2971.8	   352.3
     37.1488	  1003.0	  1017.4	 -2916.1	   352.2
     37.1822	   954.0	   979.6	 -2927.3	   352.2
     37.2156	   889.0	   945.2	 -2957.9	   352.1
     37.2490	   886.0	   913.8	 -2929.6	   352.0
     37.2825	   930.0	   885.2	 -2856.9	   352.0
     37.3159	   827.0	   858.9	 -2933.6	   351.9
     37.3493	   781.0	   834.7	 -2955.4	   351.9
     37.3827	   771.0	   812.4	 -2943.2	   351.8
     37.4162	   780.0	   791.9	 -2913.7	   351.8
     37.4496	   763.0	   772.9	 -2911.6	   351.7
     37.4830	   760.0	   755.3	 -2897.0	   351.7
     37.5164	   690.0	   738.9	 -2950.7	   351.6
     37.5498	   739.0	   723.7	 -2886.4	   351.6
     37.5833	   740.0	   709.5	 -2871.3	   351.5
     37.6167	   642.0	   696.3	 -2956.0	   351.5
     37.6501	   640.0	   683.9	 -2945.6	   351.4
     37.6835	   645.0	   672.3	 -2929.0	   351.3
     37.7170	   630.0	   661.4	 -2933.2	   351.3
     37.7504	   640.0	   651.2	 -2912.9	   351.2
     37.7838	   619.0	   641.6	 -2924.3	   351.2
     37.8172	   608.0	   632.5	 -2926.3	   351.1
     37.8506	   659.0	   624.0	 -2866.8	   351.1
     37.8841	   624.0	   616.0	 -2893.7	   351.0
     37.9175	   572.0	   608.4	 -2938.1	   351.0
     37.9509	   569.0	   601.2	 -2933.9	   350.9
     37.9843	   591.0	   594.4	 -2905.1	   350.9
     38.0178	   583.0	   587.9	 -2906.7	   350.8
     38.0512	   566.0	   581.8	 -2917.5	   350.8
     38.0846	   567.0	   576.0	 -2910.7	   350.7
     38.1180	   576.0	   570.4	 -2896.2	   350.6
     38.1515	   530.0	   565.2	 -2936.9	   350.6
     38.1849	   537.0	   560.2	 -2924.9	   350.5
     38.2183	   573.0	   555.4	 -2884.1	   350.5
     38.2517	   584.0	   550.8	 -2868.6	   350.4
     38.2851	   558.0	   546.5	 -2890.2	   350.4
     38.3186	   495.0	   542.3	 -2949.0	   350.3
     38.3520	   537.0	   538.3	 -2903.1	   350.3
     38.3854	   479.0	   534.5	 -2957.3	   350.2
     38.4188	   538.0	   530.9	 -2894.6	   350.2
     38.4523	   517.0	   527.4	 -2912.1	   350.1
     38.4857	   487.0	   524.0	 -2938.8	   350.1
     38.5191	   495.0	   520.8	 -2927.6	   350.0
     38.5525	   510.0	   517.7	 -2909.5	   349.9
     38.5859	   524.0	   514.8	 -2892.5	   349.9
     38.6194	   484.0	   511.9	 -2929.7	   349.8
     38.6528	   520.0	   509.2	 -2890.9	   349.8
     38.6862	   526.0	   506.5	 -2882.3	   349.7
     38.7196	   456.0	   504.0	 -2949.8	   349.7
     38.7531	   447.0	   501.6	 -2956.3	   349.6
     38.7865	   483.0	   499.2	 -2918.0	   349.6
     38.8199	   527.0	   496.9	 -2871.7	   349.5
     38.8533	   470.0	   494.7	 -2926.5	   349.5
     38.8867	   483.0	   492.6	 -2911.4	   349.4
     38.9202	   494.0	   490.6	 -2898.3	   349.3
     38.9536	   503.0	   488.6	 -2887.3	   349.3
     38.9870	   503.0	   486.7	 -2885.4	   349.2
     39.0204	   468.0	   484.8	 -2918.6	   349.2
     39.0539	   503.0	   483.1	 -2881.8	   349.1
     39.0873	   448.0	   481.3	 -2935.1	   349.1
     39.1207	   478.0	   479.7	 -2903.4	   349.0
     39.1541	   457.0	   478.0	 -2922.8	   349.0
     39.1875	   466.0	   476.5	 -2912.2	   348.9
     39.2210	   444.0	   474.9	 -2932.7	   348.9
     39.2544	   433.0	   473.5	 -2942.2	   348.8
     39.2878	   487.0	   472.0	 -2886.8	   348.8
     39.3212	   528.0	   470.6	 -2844.4	   348.7
     39.3547	   459.0	   469.3	 -2912.0	   348.6
     39.3881	   489.0	   461.7	 -2874.4	   348.6
     39.4215	   452.0	   460.5	 -2910.2	   348.5
     39.4549	   455.0	   459.3	 -2906.1	   348.5
     39.4884	   469.0	   455.1	 -2887.8	   348.4
     39.5218	   423.0	   454.0	 -2932.8	   348.4
     39.5552	   473.0	   453.0	 -2881.8	   348.3
     39.5886	   482.0	   452.0	 -2871.8	   348.3
     39.6220	   444.0	   451.0	 -2908.8	   348.2
     39.6555	   476.0	   450.1	 -2875.9	   348.2
     39.6889	   450.0	   449.2	 -2900.9	   348.1
     39.7223	   491.0	   448.3	 -2859.0	   348.1
     39.7557	   421.0	   447.4	 -2928.2	   348.0
     39.7892	   467.0	   446.6	 -2881.3	   347.9
     39.8226	   461.0	   445.8	 -2886.5	   347.9
     39.8560	   428.0	   445.0	 -2918.7	   347.8
     39.8894	   428.0	   444.2	 -2917.9	   347.8
     39.9228	   434.0	   443.4	 -2911.2	   347.7
     39.9563	   451.0	   442.7	 -2893.4	   347.7
     39.9897	   462.0	   441.9	 -2881.7	   347.6
     40.0231	   473.0	   441.2	 -2870.0	   347.6
     40.0565	   458.0	   440.5	 -2884.3	   347.5
     40.0900	   424.0	   439.9	 -2917.6	   347.5
     40.1234	   427.0	   439.2	 -2914.0	   347.4
     40.1568	   419.0	   438.6	 -2921.3	   347.4
     40.1902	   461.0	   437.9	 -2878.7	   347.3
     40.2236	   466.0	   437.3	 -2873.1	   347.2
     40.2571	   439.0	   436.7	 -2899.5	   347.2
     40.2905	   481.0	   436.1	 -2856.9	   347.1
     40.3239	   452.0	   435.6	 -2885.3	   347.1
     40.3573	   425.0	   435.0	 -2911.7	   347.0
     40.3908	   440.0	   434.4	 -2896.2	   347.0
     40.4242	   433.0	   433.9	 -2902.7	   346.9
     40.4576	   455.0	   433.4	 -2880.1	   346.9
     40.4910	   435.0	   432.9	 -2899.6	   346.8
     40.5245	   469.0	   432.4	 -2865.1	   346.8
     40.5579	   433.0	   431.9	 -2900.6	   346.7
     40.5913	   463.0	   431.4	 -2870.1	   346.6
     40.6247	   470.0	   430.9	 -2862.6	   346.6
     40.6581	   464.0	   430.4	 -2868.2	   346.5
     40.6916	   489.0	   430.0	 -2842.7	   346.5
     40.7250	   417.0	   429.5	 -2914.3	   346.4
     40.7584	   421.0	   429.1	 -2909.8	   346.4
     40.7918	   407.0	   428.7	 -2923.4	   346.3
     40.8253	   424.0	   428.2	 -2906.0	   346.3
     40.8587	   431.0	   427.8	 -2898.6	   346.2
     40.8921	   404.0	   427.4	 -2925.2	   346.2
     40.9255	   432.0	   427.0	 -2896.8	   346.1
     40.9589	   431.0	   426.6	 -2897.4	   346.1
     40.9924	   447.0	   426.2	 -2881.0	   346.0
     41.0258	   456.0	   425.8	 -2871.6	   345.9
     41.0592	   458.0	   425.5	 -2869.2	   345.9
     41.0926	   436.0	   425.1	 -2890.9	   345.8
     41.1261	   442.0	   424.8	 -2884.5	   345.8
     41.1595	   420.0	   424.4	 -2906.1	   345.7
     41.1929	   441.0	   424.0	 -2884.8	   345.7
     41.2263	   425.0	   423.7	 -2900.5	   345.6
     41.2598	   454.0	   409.4	 -2857.2	   345.6
     41.2932	   417.0	   409.3	 -2894.0	   345.5
     41.3266	   393.0	   402.1	 -2910.9	   345.5
     41.3600	   466.0	   402.1	 -2837.8	   345.4
     41.3934	   450.0	   402.0	 -2853.8	   345.4
     41.4269	   416.0	   402.0	 -2887.7	   345.3
     41.4603	   424.0	   401.9	 -2879.6	   345.2
     41.4937	   472.0	   401.8	 -2831.6	   345.2
     41.5271	   442.0	   401.8	 -2861.5	   345.1
     41.5606	   470.0	   401.7	 -2833.5	   345.1
     41.5940	   441.0	   401.7	 -2862.4	   345.0
     41.6274	   418.0	   401.6	 -2885.4	   345.0
     41.6608	   398.0	   401.6	 -2905.3	   344.9
     41.6942	   440.0	   401.5	 -2863.3	   344.9
     41.7277	   442.0	   401.5	 -2861.2	   344.8
     41.7611	   441.0	   401.4	 -2862.2	   344.8
     41.7945	   454.0	   401.4	 -2849.1	   344.7
     41.8279	   431.0	   401.3	 -2872.1	   344.7
     41.8614	   418.0	   401.2	 -2885.0	   344.6
     41.8948	   450.0	   401.2	 -2852.9	   344.5
     41.9282	   420.0	   401.1	 -2882.9	   344.5
     41.9616	   393.0	   401.1	 -2909.8	   344.4
     41.9950	   453.0	   401.0	 -2849.8	   344.4
     42.0285	   428.0	   401.0	 -2874.7	   344.3
     42.0619	   485.0	   400.9	 -2817.7	   344.3
     42.0953	   393.0	   400.9	 -2909.6	   344.2
     42.1287	   446.0	   400.8	 -2856.6	   344.2
     42.1622	   448.0	   400.8	 -2854.5	   344.1
     42.1956	   417.0	   400.7	 -2885.5	   344.1
     42.2290	   441.0	   400.7	 -2861.4	   344.0
     42.2624	   413.0	   404.9	 -2893.7	   343.9
     42.2958	   423.0	   404.9	 -2883.7	   343.9
     42.3293	   436.0	   404.9	 -2870.7	   343.8
     42.3627	   424.0	   404.9	 -2882.7	   343.8
     42.3961	   399.0	   407.1	 -2909.8	   343.7
     42.4295	   420.0	   407.1	 -2888.9	   343.7
     42.4630	   390.0	   407.2	 -2918.9	   343.6
     42.4964	   423.0	   407.2	 -2886.0	   343.6
     42.5298	   442.0	   407.2	 -2867.0	   343.5
     42.5632	   398.0	   407.3	 -2911.0	   343.5
     42.5966	   454.0	   407.3	 -2855.1	   343.4
     42.6301	   419.0	   407.4	 -2890.1	   343.4
     42.6635	   433.0	   407.4	 -2876.2	   343.3
     42.6969	   405.0	   407.5	 -2904.2	   343.2
     42.7303	   444.0	   407.5	 -2865.3	   343.2
     42.7638	   416.0	   407.6	 -2893.3	   343.1
     42.7972	   404.0	   407.6	 -2905.4	   343.1
     42.8306	   452.0	   407.7	 -2857.4	   343.0
     42.8640	   417.0	   407.8	 -2892.5	   343.0
     42.8975	   434.0	   407.8	 -2875.6	   342.9
     42.9309	   477.0	   407.9	 -2832.6	   342.9
     42.9643	   374.0	   408.0	 -2935.7	   342.8
     42.9977	   456.0	   408.0	 -2853.8	   342.8
     43.0311	   413.0	   408.1	 -2896.9	   342.7
     43.0646	   417.0	   408.2	 -2892.9	   342.7
     43.0980	   466.0	   408.3	 -2844.0	   342.6
     43.1314	   398.0	   408.3	 -2912.1	   342.5
     43.1648	   400.0	   408.4	 -2910.2	   342.5
     43.1983	   448.0	   408.5	 -2862.3	   342.4
     43.2317	   424.0	   408.6	 -2886.4	   342.4
     43.2651	   425.0	   408.7	 -2885.5	   342.3
     43.2985	   394.0	   408.8	 -2916.6	   342.3
     43.3319	   450.0	   408.9	 -2860.7	   342.2
     43.3654	   406.0	   409.0	 -2904.8	   342.2
     43.3988	   364.0	   409.1	 -2946.9	   342.1
     43.4322	   382.0	   409.3	 -2929.0	   342.1
     43.4656	   405.0	   409.4	 -2906.1	   342.0
     43.4991	   420.0	   409.5	 -2891.3	   342.0
     43.5325	   432.0	   409.6	 -2879.4	   341.9
     43.5659	   442.0	   409.8	 -2869.5	   341.8
     43.5993	   434.0	   409.9	 -2877.7	   341.8
     43.6327	   425.0	   410.0	 -2886.8	   341.7
     43.6662	   395.0	   410.2	 -2916.9	   341.7
     43.6996	   450.0	   410.4	 -2862.1	   341.6
     43.7330	   436.0	   410.5	 -2876.3	   341.6
     43.7664	   428.0	   410.7	 -2884.4	   341.5
     43.7999	   364.0	   410.8	 -2948.6	   341.5
     43.8333	   426.0	   411.0	 -2886.8	   341.4
     43.8667	   424.0	   411.2	 -2889.0	   341.4
     43.9001	   461.0	   411.4	 -2852.2	   341.3
     43.9336	   439.0	   411.6	 -2874.3	   341.3
     43.9670	   434.0	   411.8	 -2879.6	   341.2
     44.0004	   425.0	   412.0	 -2888.8	   341.1
     44.0338	   456.0	   412.2	 -2858.0	   341.1
     44.0672	   425.0	   412.5	 -2889.2	   341.0
     44.1007	   440.0	   412.7	 -2874.4	   341.0
     44.1341	   453.0	   412.9	 -2861.7	   340.9
     44.1675	   416.0	   413.2	 -2898.9	   340.9
     44.2009	   429.0	   413.5	 -2886.2	   340.8
     44.2344	   444.0	   413.7	 -2871.5	   340.8
     44.2678	   396.0	   414.0	 -2919.8	   340.7
     44.3012	   436.0	   414.3	 -2880.1	   340.7
     44.3346	   422.0	   414.6	 -2894.4	   340.6
     44.3680	   436.0	   414.9	 -2880.7	   340.5
     44.4015	   429.0	   415.3	 -2888.0	   340.5
     44.4349	   437.0	   415.6	 -2880.3	   340.4
     44.4683	   422.0	   416.0	 -2895.7	   340.4
     44.5017	   447.0	   416.3	 -2871.1	   340.3
     44.5352	   424.0	   416.7	 -2894.4	   340.3
     44.5686	   441.0	   417.1	 -2877.8	   340.2
     44.6020	   389.0	   417.5	 -2930.3	   340.2
     44.6354	   425.0	   417.9	 -2894.7	   340.1
     44.6688	   424.0	   418.4	 -2896.1	   340.1
     44.7023	   452.0	   418.8	 -2868.6	   340.0
     44.7357	   425.0	   419.3	 -2896.1	   340.0
     44.7691	   376.0	   419.8	 -2945.6	   339.9
     44.8025	   463.0	   420.3	 -2859.1	   339.8
     44.8360	   433.0	   420.9	 -2889.6	   339.8
     44.8694	   438.0	   421.4	 -2885.2	   339.7
     44.9028	   470.0	   422.0	 -2853.8	   339.7
     44.9362	   425.0	   422.6	 -2899.4	   339.6
     44.9697	   400.0	   423.3	 -2925.0	   339.6
     45.0031	   457.0	   424.0	 -2868.7	   339.5
     45.0365	   439.0	   424.6	 -2887.4	   339.5
     45.0699	   407.0	   425.4	 -2920.1	   339.4
     45.1033	   427.0	   426.1	 -2900.9	   339.4
     45.1368	   434.0	   426.9	 -2894.7	   339.3
     45.1702	   442.0	   427.8	 -2887.5	   339.3
     45.2036	   455.0	   428.6	 -2875.4	   339.2
     45.2370	   449.0	   429.5	 -2882.3	   339.1
     45.2705	   448.0	   430.5	 -2884.2	   339.1
     45.3039	   421.0	   431.5	 -2912.2	   339.0
     45.3373	   438.0	   432.5	 -2896.3	   339.0
     45.3707	   436.0	   433.6	 -2899.4	   338.9
     45.4041	   437.0	   434.8	 -2899.5	   338.9
     45.4376	   397.0	   436.0	 -2940.7	   338.8
     45.4710	   452.0	   437.2	 -2887.0	   338.8
     45.5044	   465.0	   438.6	 -2875.3	   338.7
     45.5378	   485.0	   440.0	 -2856.7	   338.7
     45.5713	   439.0	   441.5	 -2904.2	   338.6
     45.6047	   458.0	   443.0	 -2886.8	   338.6
     45.6381	   432.0	   444.7	 -2914.4	   338.5
     45.6715	   457.0	   446.4	 -2891.1	   338.4
     45.7049	   473.0	   448.2	 -2877.0	   338.4
     45.7384	   458.0	   450.2	 -2893.9	   338.3
     45.7718	   491.0	   452.2	 -2863.0	   338.3
     45.8052	   499.0	   454.4	 -2857.1	   338.2
     45.8386	   477.0	   456.7	 -2881.4	   338.2
     45.8721	   459.0	   459.1	 -2901.9	   338.1
     45.9055	   464.0	   461.7	 -2899.5	   338.1
     45.9389	   499.0	   464.5	 -2867.3	   338.0
     45.9723	   486.0	   467.5	 -2883.2	   338.0
     46.0057	   491.0	   470.6	 -2881.3	   337.9
     46.0392	   476.0	   473.9	 -2899.7	   337.8
     46.0726	   437.0	   477.5	 -2942.3	   337.8
     46.1060	   489.0	   481.4	 -2894.1	   337.7
     46.1394	   510.0	   485.5	 -2877.2	   337.7
     46.1729	   498.0	   489.9	 -2893.7	   337.6
     46.2063	   529.0	   494.7	 -2867.4	   337.6
     46.2397	   522.0	   499.8	 -2879.5	   337.5
     46.2731	   527.0	   505.3	 -2880.0	   337.5
     46.3065	   515.0	   511.3	 -2898.0	   337.4
     46.3400	   617.0	   517.7	 -2802.5	   337.4
     46.3734	   537.0	   524.7	 -2889.5	   337.3
     46.4068	   515.0	   532.3	 -2919.1	   337.3
     46.4402	   544.0	   540.6	 -2898.4	   337.2
     46.4737	   625.0	   549.7	 -2826.4	   337.1
     46.5071	   607.0	   559.6	 -2854.4	   337.1
     46.5405	   567.0	   570.5	 -2905.2	   337.0
     46.5739	   599.0	   582.5	 -2885.2	   337.0
     46.6074	   624.0	   595.7	 -2873.4	   336.9
     46.6408	   635.0	   610.3	 -2877.1	   336.9
     46.6742	   634.0	   626.6	 -2894.4	   336.8
     46.7076	   654.0	   644.8	 -2892.5	   336.8
     46.7410	   728.0	   665.1	 -2838.9	   336.7
     46.7745	   694.0	   688.0	 -2895.8	   336.7
     46.8079	   777.0	   713.9	 -2838.6	   336.6
     46.8413	   753.0	   743.2	 -2891.9	   336.6
     46.8747	   737.0	   776.6	 -2941.3	   336.5
     46.9082	   790.0	   814.8	 -2926.5	   336.4
     46.9416	   842.0	   858.6	 -2918.4	   336.4
     46.9750	   951.0	   909.1	 -2859.9	   336.3
     47.0084	   929.0	   967.4	 -2940.1	   336.3
     47.0418	  1009.0	  1034.7	 -2927.4	   336.2
     47.0753	  1122.0	  1112.5	 -2892.3	   336.2
     47.1087	  1140.0	  1202.3	 -2964.1	   336.1
     47.1421	  1227.0	  1305.7	 -2980.5	   336.1
     47.1755	  1317.0	  1424.1	 -3008.9	   336.0
     47.2090	  1416.0	  1558.3	 -3044.1	   336.0
     47.2424	  1518.0	  1708.5	 -3092.3	   335.9
     47.2758	  1590.0	  1873.1	 -3184.8	   335.9
     47.3092	  1690.0	  2047.9	 -3259.7	   335.8
     47.3427	  1771.0	  2225.7	 -3356.5	   335.7
     47.3761	  2145.0	  2395.2	 -3152.0	   335.7
     47.4095	  2204.0	  2542.6	 -3240.4	   335.6
     47.4429	  2454.0	  2653.3	 -3101.1	   335.6
     47.4763	  2639.0	  2715.7	 -2978.5	   335.5
     47.5098	  2534.0	  2723.8	 -3091.5	   335.5
     47.5432	  2474.0	  2678.3	 -3106.1	   335.4
     47.5766	  2289.0	  2585.5	 -3198.3	   335.4
     47.6100	  2269.0	  2455.3	 -3088.1	   335.3
     47.6435	  2058.0	  2299.6	 -3143.3	   335.3
     47.6769	  1806.0	  2130.3	 -3226.0	   335.2
     47.7103	  1686.0	  1958.1	 -3173.9	   335.2
     47.7437	  1520.0	  1791.5	 -3173.3	   335.1
     47.7771	  1374.0	  1636.1	 -3163.8	   335.0
     47.8106	  1358.0	  1494.8	 -3038.5	   335.0
     47.8440	  1311.0	  1368.7	 -2959.5	   334.9
     47.8774	  1192.0	  1257.7	 -2967.4	   334.9
     47.9108	  1070.0	  1160.7	 -2992.4	   334.8
     47.9443	  1049.0	  1076.3	 -2929.1	   334.8
     47.9777	  1006.0	  1003.2	 -2899.0	   334.7
     48.0111	   979.0	   939.9	 -2862.7	   334.7
     48.0445	   978.0	   885.0	 -2808.8	   334.6
     48.0779	   901.0	   837.4	 -2838.2	   334.6
     48.1114	   805.0	   795.9	 -2892.7	   334.5
     48.1448	   804.0	   759.7	 -2857.5	   334.4
     48.1782	   725.0	   728.0	 -2904.8	   334.4
     48.2116	   804.0	   700.1	 -2797.9	   334.3
     48.2451	   730.0	   675.5	 -2847.2	   334.3
     48.2785	   696.0	   653.6	 -2859.3	   334.2
     48.3119	   673.0	   634.1	 -2862.8	   334.2
     48.3453	   631.0	   616.6	 -2887.4	   334.1
     48.3787	   601.0	   601.0	 -2901.7	   334.1
     48.4122	   586.0	   586.8	 -2902.6	   334.0
     48.4456	   622.0	   574.1	 -2853.8	   334.0
     48.4790	   575.0	   562.5	 -2889.2	   333.9
     48.5124	   561.0	   551.9	 -2892.6	   333.9
     48.5459	   515.0	   542.2	 -2929.0	   333.8
     48.5793	   522.0	   533.4	 -2913.2	   333.7
     48.6127	   543.0	   525.3	 -2884.1	   333.7
     48.6461	   518.0	   517.9	 -2901.6	   333.6
     48.6796	   556.0	   511.0	 -2856.7	   333.6
     48.7130	   565.0	   504.7	 -2841.4	   333.5
     48.7464	   520.0	   498.8	 -2880.5	   333.5
     48.7798	   518.0	   493.3	 -2877.1	   333.4
     48.8132	   521.0	   488.3	 -2869.0	   333.4
     48.8467	   522.0	   483.6	 -2863.3	   333.3
     48.8801	   476.0	   479.2	 -2904.9	   333.3
     48.9135	   496.0	   475.1	 -2880.8	   333.2
     48.9469	   521.0	   471.2	 -2852.0	   333.2
     48.9804	   493.0	   467.7	 -2876.4	   333.1
     49.0138	   443.0	   464.3	 -2923.0	   333.0
     49.0472	   485.0	   461.1	 -2877.9	   333.0
     49.0806	   476.0	   458.2	 -2883.9	   332.9
     49.1140	   492.0	   455.4	 -2865.1	   332.9
     49.1475	   497.0	   452.7	 -2857.5	   332.8
     49.1809	   459.0	   450.2	 -2893.0	   332.8
     49.2143	   428.0	   447.9	 -2921.6	   332.7
     49.2477	   473.0	   445.7	 -2874.4	   332.7
     49.2812	   451.0	   443.5	 -2894.3	   332.6
     49.3146	   439.0	   441.5	 -2904.3	   332.6
     49.3480	   468.0	   439.6	 -2873.4	   332.5
     49.3814	   463.0	   437.8	 -2876.6	   332.5
     49.4148	   423.0	   436.1	 -2914.9	   332.4
     49.4483	   462.0	   434.5	 -2874.3	   332.3
     49.4817	   434.0	   433.0	 -2900.7	   332.3
     49.5151	   458.0	   431.5	 -2875.2	   332.2
     49.5485	   438.0	   430.1	 -2893.8	   332.2
     49.5820	   483.0	   428.7	 -2847.5	   332.1
     49.6154	   451.0	   427.4	 -2878.2	   332.1
     49.6488	   440.0	   426.2	 -2887.9	   332.0
     49.6822	   449.0	   425.0	 -2877.8	   332.0
     49.7157	   433.0	   423.9	 -2892.6	   331.9
     49.7491	   446.0	   422.8	 -2878.5	   331.9
     49.7825	   444.0	   421.8	 -2879.5	   331.8
     49.8159	   448.0	   420.8	 -2874.5	   331.7
     49.8493	   438.0	   419.8	 -2883.6	   331.7
     49.8828	   417.0	   418.9	 -2903.6	   331.6
     49.9162	   402.0	   418.0	 -2917.7	   331.6
     49.9496	   405.0	   417.1	 -2913.9	   331.5
     49.9830	   405.0	   416.3	 -2913.1	   331.5
     50.0165	   411.0	   415.5	 -2906.3	   331.4
     50.0499	   425.0	   414.8	 -2891.5	   331.4
     50.0833	   396.0	   414.0	 -2919.8	   331.3
     50.1167	   426.0	   413.3	 -2889.1	   331.3
     50.1501	   400.0	   412.6	 -2914.4	   331.2
     50.1836	   434.0	   412.0	 -2879.7	   331.2
     50.2170	   393.0	   411.3	 -2920.1	   331.1
     50.2504	   457.0	   410.7	 -2855.5	   331.0
     50.2838	   422.0	   410.1	 -2889.9	   331.0
     50.3173	   438.0	   409.5	 -2873.3	   330.9
     50.3507	   429.0	   409.0	 -2881.7	   330.9
     50.3841	   379.0	   408.4	 -2931.2	   330.8
     50.4175	   405.0	   407.9	 -2904.7	   330.8
     50.4509	   410.0	   407.4	 -2899.1	   330.7
     50.4844	   444.0	   406.9	 -2864.6	   330.7
     50.5178	   422.0	   406.4	 -2886.2	   330.6
     50.5512	   429.0	   405.9	 -2878.7	   330.6
     50.5846	   444.0	   405.5	 -2863.2	   330.5
     50.6181	   404.0	   405.0	 -2902.8	   330.5
     50.6515	   416.0	   404.6	 -2890.4	   330.4
     50.6849	   405.0	   404.2	 -2900.9	   330.3
     50.7183	   416.0	   403.8	 -2889.5	   330.3
     50.7517	   457.0	   403.4	 -2848.1	   330.2
     50.7852	   412.0	   403.0	 -2892.8	   330.2
     50.8186	   428.0	   402.6	 -2876.4	   330.1
     50.8520	   412.0	   402.3	 -2892.0	   330.1
     50.8854	   427.0	   401.9	 -2876.7	   330.0
     50.9189	   425.0	   401.6	 -2878.3	   330.0
     50.9523	   399.0	   401.2	 -2904.0	   329.9
     50.9857	   418.0	   400.9	 -2884.6	   329.9
     51.0191	   399.0	   400.6	 -2903.3	   329.8
     51.0526	   374.0	   400.2	 -2928.0	   329.8
     51.0860	   428.0	   399.9	 -2873.7	   329.7
     51.1194	   385.0	   399.6	 -2916.4	   329.6
     51.1528	   418.0	   406.1	 -2889.8	   329.6
     51.1862	   403.0	   405.9	 -2904.6	   329.5
     51.2197	   410.0	   405.7	 -2897.4	   329.5
     51.2531	   368.0	   405.5	 -2939.2	   329.4
     51.2865	   413.0	   408.6	 -2897.4	   329.4
     51.3199	   387.0	   408.5	 -2923.3	   329.3
     51.3534	   417.0	   408.4	 -2893.1	   329.3
     51.3868	   457.0	   408.3	 -2853.0	   329.2
     51.4202	   414.0	   408.2	 -2895.9	   329.2
     51.4536	   429.0	   408.1	 -2880.8	   329.1
     51.4870	   441.0	   408.0	 -2868.7	   329.1
     51.5205	   437.0	   407.9	 -2872.6	   329.0
     51.5539	   414.0	   407.8	 -2895.5	   328.9
     51.5873	   411.0	   407.7	 -2898.5	   328.9
     51.6207	   394.0	   407.7	 -2915.4	   328.8
     51.6542	   411.0	   407.6	 -2898.4	   328.8
     51.6876	   380.0	   407.6	 -2929.3	   328.7
     51.7210	   419.0	   407.5	 -2890.3	   328.7
     51.7544	   391.0	   407.5	 -2918.2	   328.6
     51.7878	   436.0	   407.4	 -2873.2	   328.6
     51.8213	   412.0	   407.4	 -2897.2	   328.5
     51.8547	   412.0	   407.4	 -2897.2	   328.5
     51.8881	   404.0	   407.4	 -2905.2	   328.4
     51.9215	   423.0	   407.4	 -2886.2	   328.3
     51.9550	   404.0	   407.4	 -2905.2	   328.3
     51.9884	   377.0	   407.4	 -2932.2	   328.2
     52.0218	   406.0	   407.4	 -2903.2	   328.2
     52.0552	   418.0	   407.5	 -2891.2	   328.1
     52.0887	   392.0	   407.5	 -2917.3	   328.1
     52.1221	   446.0	   407.6	 -2863.3	   328.0
     52.1555	   382.0	   407.6	 -2927.4	   328.0
     52.1889	   407.0	   407.7	 -2902.4	   327.9
     52.2223	   372.0	   407.7	 -2937.5	   327.9
     52.2558	   454.0	   407.8	 -2855.6	   327.8
     52.2892	   397.0	   407.9	 -2912.6	   327.8
     52.3226	   462.0	   408.0	 -2847.7	   327.7
     52.3560	   391.0	   408.1	 -2918.8	   327.6
     52.3895	   389.0	   408.2	 -2920.9	   327.6
     52.4229	   414.0	   408.3	 -2896.1	   327.5
     52.4563	   395.0	   408.4	 -2915.2	   327.5
     52.4897	   394.0	   408.6	 -2916.3	   327.4
     52.5231	   417.0	   408.7	 -2893.4	   327.4
     52.5566	   407.0	   408.8	 -2903.6	   327.3
     52.5900	   428.0	   409.0	 -2882.8	   327.3
     52.6234	   376.0	   409.2	 -2934.9	   327.2
     52.6568	   397.0	   409.4	 -2914.1	   327.2
     52.6903	   385.0	   405.3	 -2922.0	   327.1
     52.7237	   437.0	   405.5	 -2870.3	   327.1
     52.7571	   396.0	   405.8	 -2911.5	   327.0
     52.7905	   428.0	   406.1	 -2879.8	   326.9
     52.8239	   361.0	   404.2	 -2945.0	   326.9
     52.8574	   387.0	   404.5	 -2919.3	   326.8
     52.8908	   422.0	   404.9	 -2884.6	   326.8
     52.9242	   410.0	   405.2	 -2897.0	   326.7
     52.9576	   441.0	   405.6	 -2866.3	   326.7
     52.9911	   418.0	   405.9	 -2889.7	   326.6
     53.0245	   410.0	   406.3	 -2898.0	   326.6
     53.0579	   431.0	   406.7	 -2877.4	   326.5
     53.0913	   432.0	   407.1	 -2876.8	   326.5
     53.1247	   393.0	   407.5	 -2916.2	   326.4
     53.1582	   381.0	   407.9	 -2928.6	   326.4
     53.1916	   419.0	   408.3	 -2891.1	   326.3
     53.2250	   417.0	   408.8	 -2893.5	   326.2
     53.2584	   429.0	   409.3	 -2882.0	   326.2
     53.2919	   391.0	   409.7	 -2920.5	   326.1
     53.3253	   428.0	   410.2	 -2884.0	   326.1
     53.3587	   410.0	   410.8	 -2902.5	   326.0
     53.3921	   384.0	   411.3	 -2929.0	   326.0
     53.4256	   406.0	   411.8	 -2907.6	   325.9
     53.4590	   418.0	   412.4	 -2896.2	   325.9
     53.4924	   375.0	   413.0	 -2939.8	   325.8
     53.5258	   402.0	   413.6	 -2913.4	   325.8
     53.5592	   442.0	   414.3	 -2874.0	   325.7
     53.5927	   436.0	   414.9	 -2880.7	   325.6
     53.6261	   398.0	   415.6	 -2919.3	   325.6
     53.6595	   416.0	   416.3	 -2902.1	   325.5
     53.6929	   373.0	   417.0	 -2945.8	   325.5
     53.7264	   417.0	   417.8	 -2902.6	   325.4
     53.7598	   447.0	   418.6	 -2873.3	   325.4
     53.7932	   432.0	   419.4	 -2889.2	   325.3
     53.8266	   414.0	   420.3	 -2908.0	   325.3
     53.8600	   394.0	   421.2	 -2928.9	   325.2
     53.8935	   428.0	   422.1	 -2895.8	   325.2
     53.9269	   385.0	   423.0	 -2939.8	   325.1
     53.9603	   466.0	   424.0	 -2859.8	   325.1
     53.9937	   412.0	   425.1	 -2914.8	   325.0
     54.0272	   389.0	   426.2	 -2938.9	   324.9
     54.0606	   419.0	   427.3	 -2910.0	   324.9
     54.0940	   410.0	   428.4	 -2920.2	   324.8
     54.1274	   428.0	   429.7	 -2903.4	   324.8
     54.1609	   411.0	   430.9	 -2921.7	   324.7
     54.1943	   412.0	   432.3	 -2922.0	   324.7
     54.2277	   418.0	   433.7	 -2917.4	   324.6
     54.2611	   433.0	   435.1	 -2903.9	   324.6
     54.2945	   453.0	   436.6	 -2885.4	   324.5
     54.3280	   462.0	   438.2	 -2878.0	   324.5
     54.3614	   436.0	   439.9	 -2905.6	   324.4
     54.3948	   416.0	   441.6	 -2927.4	   324.4
     54.4282	   435.0	   443.4	 -2910.2	   324.3
     54.4617	   416.0	   445.3	 -2931.1	   324.2
     54.4951	   458.0	   447.3	 -2891.1	   324.2
     54.5285	   459.0	   449.4	 -2892.2	   324.1
     54.5619	   441.0	   451.6	 -2912.4	   324.1
     54.5953	   461.0	   453.9	 -2894.7	   324.0
     54.6288	   434.0	   456.4	 -2924.1	   324.0
     54.6622	   436.0	   458.9	 -2924.7	   323.9
     54.6956	   434.0	   461.6	 -2929.4	   323.9
     54.7290	   469.0	   464.5	 -2897.2	   323.8
     54.7625	   483.0	   467.5	 -2886.2	   323.8
     54.7959	   501.0	   470.6	 -2871.4	   323.7
     54.8293	   506.0	   474.0	 -2869.7	   323.7
     54.8627	   469.0	   477.5	 -2910.3	   323.6
     54.8961	   442.0	   481.3	 -2941.0	   323.5
     54.9296	   486.0	   485.2	 -2901.0	   323.5
     54.9630	   466.0	   489.5	 -2925.2	   323.4
     54.9964	   502.0	   493.9	 -2893.7	   323.4
     55.0298	   466.0	   498.7	 -2934.4	   323.3
     55.0633	   499.0	   503.8	 -2906.5	   323.3
     55.0967	   498.0	   509.2	 -2912.9	   323.2
     55.1301	   489.0	   514.9	 -2927.7	   323.2
     55.1635	   517.0	   521.1	 -2905.9	   323.1
     55.1969	   518.0	   527.7	 -2911.5	   323.1
     55.2304	   502.0	   534.8	 -2934.5	   323.0
     55.2638	   547.0	   542.4	 -2897.1	   322.9
     55.2972	   558.0	   550.5	 -2894.3	   322.9
     55.3306	   546.0	   559.3	 -2915.1	   322.8
     55.3641	   535.0	   568.8	 -2935.5	   322.8
     55.3975	   568.0	   579.0	 -2912.8	   322.7
     55.4309	   545.0	   590.1	 -2946.8	   322.7
     55.4643	   595.0	   602.1	 -2908.8	   322.6
     55.4977	   587.0	   615.1	 -2929.9	   322.6
     55.5312	   635.0	   629.4	 -2896.1	   322.5
     55.5646	   658.0	   644.9	 -2888.6	   322.5
     55.5980	   641.0	   661.9	 -2922.6	   322.4
     55.6314	   610.0	   680.5	 -2972.2	   322.4
     55.6649	   684.0	   701.0	 -2918.8	   322.3
     55.6983	   711.0	   723.7	 -2914.4	   322.2
     55.7317	   720.0	   748.7	 -2930.5	   322.2
     55.7651	   687.0	   776.5	 -2991.3	   322.1
     55.7986	   707.0	   807.5	 -3002.3	   322.1
     55.8320	   759.0	   842.2	 -2984.9	   322.0
     55.8654	   780.0	   881.0	 -3002.7	   322.0
     55.8988	   834.0	   924.5	 -2992.3	   321.9
     55.9322	   883.0	   973.6	 -2992.4	   321.9
     55.9657	   902.0	  1029.0	 -3028.8	   321.8
     55.9991	   946.0	  1091.6	 -3047.4	   321.8
     56.0325	  1011.0	  1162.5	 -3053.3	   321.7
     56.0659	  1047.0	  1242.8	 -3097.5	   321.7
     56.0994	  1093.0	  1333.5	 -3142.3	   321.6
     56.1328	  1147.0	  1436.1	 -3190.9	   321.5
     56.1662	  1230.0	  1551.6	 -3223.3	   321.5
     56.1996	  1243.0	  1681.0	 -3339.8	   321.4
     56.2330	  1369.0	  1824.9	 -3357.7	   321.4
     56.2665	  1427.0	  1983.2	 -3458.0	   321.3
     56.2999	  1566.0	  2154.5	 -3490.2	   321.3
     56.3333	  1656.0	  2335.8	 -3581.5	   321.2
     56.3667	  1761.0	  2521.9	 -3662.6	   321.2
     56.4002	  1953.0	  2705.0	 -3653.8	   321.1
     56.4336	  2283.0	  2875.2	 -3494.0	   321.1
     56.4670	  2612.0	  3021.2	 -3310.9	   321.0
     56.5004	  2948.0	  3131.9	 -3085.7	   321.0
     56.5339	  3039.0	  3199.0	 -3061.7	   320.9
     56.5673	  3007.0	  3217.8	 -3112.5	   320.8
     56.6007	  2836.0	  3188.3	 -3254.1	   320.8
     56.6341	  2677.0	  3114.4	 -3339.1	   320.7
     56.6675	  2597.0	  3002.3	 -3307.0	   320.7
     56.7010	  2409.0	  2860.2	 -3352.9	   320.6
     56.7344	  2238.0	  2696.9	 -3360.7	   320.6
     56.7678	  1877.0	  2521.6	 -3546.3	   320.5
     56.8012	  1822.0	  2342.3	 -3422.0	   320.5
     56.8346	  1587.0	  2166.0	 -3480.7	   320.4
     56.8681	  1434.0	  1997.7	 -3465.5	   320.4
     56.9015	  1421.0	  1840.8	 -3321.6	   320.3
     56.9349	  1280.0	  1697.0	 -3318.8	   320.3
     56.9683	  1219.0	  1566.9	 -3249.7	   320.2
     57.0018	  1184.0	  1450.3	 -3168.1	   320.1
     57.0352	  1105.0	  1346.4	 -3143.2	   320.1
     57.0686	  1023.0	  1254.2	 -3132.9	   320.0
     57.1020	  1001.0	  1172.5	 -3073.3	   320.0
     57.1355	   959.0	  1100.3	 -3043.0	   319.9
     57.1689	   897.0	  1036.4	 -3041.2	   319.9
     57.2023	   864.0	   979.9	 -3017.6	   319.8
     57.2357	   809.0	   929.7	 -3022.5	   319.8
     57.2691	   827.0	   891.3	 -2966.0	   319.7
     57.3026	   808.0	   851.7	 -2945.5	   319.7
     57.3360	   730.0	   816.4	 -2988.1	   319.6
     57.3694	   738.0	   784.8	 -2948.6	   319.5
     57.4028	   635.0	   756.5	 -3023.2	   319.5
     57.4363	   649.0	   733.9	 -2986.7	   319.4
     57.4697	   629.0	   710.9	 -2983.7	   319.4
     57.5031	   648.0	   690.1	 -2943.9	   319.3
     57.5365	   607.0	   671.2	 -2965.9	   319.3
     57.5699	   654.0	   654.0	 -2901.7	   319.2
     57.6034	   625.0	   638.2	 -2915.0	   319.2
     57.6368	   576.0	   623.9	 -2949.6	   319.1
     57.6702	   592.0	   610.7	 -2920.4	   319.1
     57.7036	   586.0	   598.5	 -2914.3	   319.0
     57.7371	   511.0	   587.3	 -2978.1	   319.0
     57.7705	   526.0	   577.0	 -2952.8	   318.9
     57.8039	   521.0	   567.5	 -2948.2	   318.8
     57.8373	   527.0	   558.6	 -2933.4	   318.8
     57.8708	   561.0	   550.4	 -2891.2	   318.7
     57.9042	   522.0	   542.8	 -2922.6	   318.7
     57.9376	   524.0	   535.7	 -2913.5	   318.6
     57.9710	   470.0	   529.1	 -2960.9	   318.6
     58.0044	   491.0	   522.9	 -2933.7	   318.5
     58.0379	   462.0	   517.2	 -2956.9	   318.5
     58.0713	   455.0	   511.8	 -2958.5	   318.4
     58.1047	   536.0	   506.7	 -2872.5	   318.4
     58.1381	   522.0	   502.0	 -2881.7	   318.3
     58.1716	   486.0	   497.5	 -2913.3	   318.3
     58.2050	   480.0	   493.3	 -2915.1	   318.2
     58.2384	   469.0	   489.4	 -2922.2	   318.1
     58.2718	   438.0	   485.7	 -2949.5	   318.1
     58.3052	   504.0	   482.2	 -2880.0	   318.0
     58.3387	   438.0	   479.0	 -2942.7	   318.0
     58.3721	   462.0	   475.9	 -2915.6	   317.9
     58.4055	   444.0	   472.9	 -2930.7	   317.9
     58.4389	   502.0	   470.2	 -2869.9	   317.8
     58.4724	   459.0	   467.6	 -2910.3	   317.8
     58.5058	   438.0	   465.1	 -2928.9	   317.7
     58.5392	   470.0	   462.8	 -2894.5	   317.7
     58.5726	   429.0	   460.6	 -2933.3	   317.6
     58.6060	   491.0	   458.5	 -2869.2	   317.6
     58.6395	   449.0	   456.5	 -2909.3	   317.5
     58.6729	   459.0	   454.6	 -2897.4	   317.4
     58.7063	   443.0	   452.9	 -2911.6	   317.4
     58.7397	   453.0	   451.2	 -2900.0	   317.3
     58.7732	   442.0	   449.6	 -2909.4	   317.3
     58.8066	   436.0	   448.1	 -2913.9	   317.2
     58.8400	   453.0	   446.7	 -2895.5	   317.2
     58.8734	   448.0	   445.4	 -2899.1	   317.1
     58.9069	   411.0	   444.1	 -2934.8	   317.1
     58.9403	   424.0	   442.9	 -2920.6	   317.0
     58.9737	   451.0	   441.8	 -2892.5	   317.0
     59.0071	   402.0	   440.7	 -2940.4	   316.9
     59.0405	   444.0	   439.7	 -2897.4	   316.8
     59.0740	   463.0	   438.7	 -2877.5	   316.8
     59.1074	   434.0	   437.8	 -2905.6	   316.7
     59.1408	   448.0	   437.0	 -2890.8	   316.7
     59.1742	   467.0	   436.2	 -2871.0	   316.6
     59.2076	   440.0	   435.5	 -2897.2	   316.6
     59.2411	   464.0	   434.8	 -2872.6	   316.5
     59.2745	   440.0	   434.2	 -2895.9	   316.5
     59.3079	   443.0	   433.6	 -2892.3	   316.4
     59.3413	   440.0	   433.0	 -2894.8	   316.4
     59.3748	   465.0	   432.5	 -2869.3	   316.3
     59.4082	   451.0	   432.1	 -2882.8	   316.3
     59.4416	   454.0	   431.6	 -2879.4	   316.2
     59.4750	   439.0	   431.3	 -2894.0	   316.1
     59.5085	   443.0	   430.9	 -2889.7	   316.1
     59.5419	   402.0	   430.6	 -2930.4	   316.0
     59.5753	   431.0	   430.4	 -2901.1	   316.0
     59.6087	   452.0	   430.2	 -2879.9	   315.9
     59.6421	   456.0	   430.0	 -2875.7	   315.9
     59.6756	   461.0	   429.9	 -2870.6	   315.8
     59.7090	   468.0	   429.8	 -2863.5	   315.8
     59.7424	   448.0	   429.7	 -2883.4	   315.7
     59.7758	   474.0	   429.7	 -2857.4	   315.7
     59.8093	   454.0	   429.7	 -2877.4	   315.6
     59.8427	   441.0	   429.7	 -2890.5	   315.6
     59.8761	   469.0	   429.8	 -2862.6	   315.5
     59.9095	   440.0	   429.9	 -2891.7	   315.4
     59.9429	   453.0	   430.1	 -2878.9	   315.4
     59.9764	   457.0	   430.3	 -2875.1	   315.3
     60.0098	   455.0	   430.6	 -2877.3	   315.3
     60.0432	   439.0	   430.9	 -2893.6	   315.2
     60.0766	   453.0	   431.2	 -2880.0	   315.2
     60.1101	   444.0	   431.6	 -2889.3	   315.1
     60.1435	   458.0	   432.0	 -2875.7	   315.1
     60.1769	   451.0	   432.5	 -2883.2	   315.0
     60.2103	   474.0	   433.0	 -2860.7	   315.0
     60.2438	   464.0	   433.5	 -2871.3	   314.9
     60.2772	   458.0	   434.1	 -2877.9	   314.9
     60.3106	   474.0	   434.8	 -2862.6	   314.8
     60.3440	   438.0	   435.5	 -2899.3	   314.7
     60.3774	   461.0	   436.3	 -2877.0	   314.7
     60.4109	   470.0	   437.1	 -2868.9	   314.6
     60.4443	   470.0	   438.0	 -2869.7	   314.6
     60.4777	   499.0	   438.9	 -2841.7	   314.5
     60.5111	   513.0	   440.0	 -2828.7	   314.5
     60.5446	   479.0	   441.0	 -2863.8	   314.4
     60.5780	   493.0	   442.2	 -2850.9	   314.4
     60.6114	   471.0	   443.4	 -2874.1	   314.3
     60.6448	   450.0	   444.7	 -2896.4	   314.3
     60.6782	   533.0	   447.1	 -2815.9	   314.2
     60.7117	   474.0	   448.6	 -2876.3	   314.2
     60.7451	   481.0	   450.2	 -2870.9	   314.1
     60.7785	   484.0	   451.8	 -2869.6	   314.0
     60.8119	   514.0	   453.6	 -2841.3	   314.0
     60.8454	   503.0	   455.5	 -2854.2	   313.9
     60.8788	   511.0	   458.0	 -2848.7	   313.9
     60.9122	   498.0	   460.1	 -2863.8	   313.8
     60.9456	   533.0	   462.3	 -2831.1	   313.8
     60.9790	   527.0	   464.7	 -2839.4	   313.7
     61.0125	   561.0	   467.2	 -2808.0	   313.7
     61.0459	   503.0	   469.9	 -2868.6	   313.6
     61.0793	   541.0	   472.7	 -2833.5	   313.6
     61.1127	   508.0	   475.8	 -2869.5	   313.5
     61.1462	   503.0	   479.0	 -2877.7	   313.4
     61.1796	   545.0	   482.4	 -2839.1	   313.4
     61.2130	   557.0	   486.0	 -2830.8	   313.3
     61.2464	   571.0	   489.9	 -2820.7	   313.3
     61.2798	   539.0	   494.0	 -2856.8	   313.2
     61.3133	   541.0	   498.4	 -2859.2	   313.2
     61.3467	   555.0	   503.2	 -2849.9	   313.1
     61.3801	   580.0	   508.2	 -2829.9	   313.1
     61.4135	   590.0	   513.6	 -2825.3	   313.0
     61.4470	   582.0	   519.3	 -2839.1	   313.0
     61.4804	   627.0	   525.5	 -2800.3	   312.9
     61.5138	   602.0	   532.1	 -2831.9	   312.9
     61.5472	   605.0	   539.3	 -2836.0	   312.8
     61.5807	   613.0	   546.9	 -2835.7	   312.7
     61.6141	   663.0	   555.2	 -2794.0	   312.7
     61.6475	   627.0	   564.2	 -2838.9	   312.6
     61.6809	   676.0	   573.8	 -2799.6	   312.6
     61.7143	   645.0	   584.3	 -2841.0	   312.5
     61.7478	   729.0	   595.6	 -2768.4	   312.5
     61.7812	   664.0	   608.0	 -2845.8	   312.4
     61.8146	   693.0	   621.5	 -2830.2	   312.4
     61.8480	   718.0	   636.2	 -2819.9	   312.3
     61.8815	   791.0	   652.3	 -2763.0	   312.3
     61.9149	   755.0	   663.3	 -2810.0	   312.2
     61.9483	   740.0	   682.8	 -2844.5	   312.2
     61.9817	   808.0	   704.3	 -2798.0	   312.1
     62.0151	   836.0	   728.0	 -2793.8	   312.0
     62.0486	   894.0	   754.3	 -2762.1	   312.0
     62.0820	   898.0	   780.2	 -2783.9	   311.9
     62.1154	   893.0	   812.7	 -2821.4	   311.9
     62.1488	   930.0	   848.8	 -2820.6	   311.8
     62.1823	   978.0	   889.2	 -2813.0	   311.8
     62.2157	  1101.0	   940.5	 -2741.2	   311.7
     62.2491	  1122.0	   991.0	 -2770.7	   311.7
     62.2825	  1125.0	  1047.5	 -2824.2	   311.6
     62.3159	  1108.0	  1110.6	 -2904.3	   311.6
     62.3494	  1208.0	  1181.1	 -2874.9	   311.5
     62.3828	  1329.0	  1262.7	 -2835.5	   311.5
     62.4162	  1329.0	  1350.0	 -2922.7	   311.4
     62.4496	  1502.0	  1446.3	 -2846.0	   311.3
     62.4831	  1480.0	  1551.9	 -2973.6	   311.3
     62.5165	  1577.0	  1666.3	 -2991.0	   311.2
     62.5499	  1686.0	  1788.4	 -3004.2	   311.2
     62.5833	  1711.0	  1916.3	 -3107.0	   311.1
     62.6168	  1897.0	  2046.6	 -3051.3	   311.1
     62.6502	  2014.0	  2174.7	 -3062.4	   311.0
     62.6836	  2130.0	  2294.8	 -3066.5	   311.0
     62.7170	  2308.0	  2400.4	 -2994.2	   310.9
     62.7504	  2623.0	  2485.3	 -2764.0	   310.9
     62.7839	  2826.0	  2544.0	 -2619.8	   310.8
     62.8173	  2842.0	  2573.2	 -2633.0	   310.7
     62.8507	  2635.0	  2571.8	 -2838.6	   310.7
     62.8841	  2473.0	  2540.8	 -2969.5	   310.6
     62.9176	  2463.0	  2482.9	 -2921.7	   310.6
     62.9510	  2396.0	  2402.2	 -2907.9	   310.5
     62.9844	  2326.0	  2303.1	 -2878.9	   310.5
     63.0178	  2197.0	  2190.7	 -2895.4	   310.4
     63.0512	  1927.0	  2069.9	 -3044.6	   310.4
     63.0847	  1821.0	  1945.6	 -3026.3	   310.3
     63.1181	  1737.0	  1821.8	 -2986.5	   310.3
     63.1515	  1581.0	  1701.9	 -3022.6	   310.2
     63.1849	  1556.0	  1588.1	 -2933.9	   310.2
     63.2184	  1437.0	  1482.1	 -2946.9	   310.1
     63.2518	  1378.0	  1384.5	 -2908.3	   310.0
     63.2852	  1258.0	  1295.6	 -2939.3	   310.0
     63.3186	  1324.0	  1217.9	 -2795.7	   309.9
     63.3521	  1189.0	  1145.5	 -2858.2	   309.9
     63.3855	  1144.0	  1080.5	 -2838.2	   309.8
     63.4189	  1082.0	  1022.3	 -2842.0	   309.8
     63.4523	  1032.0	   970.2	 -2839.9	   309.7
     63.4857	   994.0	   923.6	 -2831.4	   309.7
     63.5192	   975.0	   883.4	 -2810.1	   309.6
     63.5526	   948.0	   846.1	 -2799.9	   309.6
     63.5860	   925.0	   812.7	 -2789.5	   309.5
     63.6194	   827.0	   782.7	 -2857.5	   309.5
     63.6528	   815.0	   755.8	 -2842.5	   309.4
     63.6863	   836.0	   731.5	 -2797.3	   309.3
     63.7197	   763.0	   709.6	 -2848.3	   309.3
     63.7531	   741.0	   689.7	 -2850.5	   309.2
     63.7865	   737.0	   671.8	 -2836.5	   309.2
     63.8200	   695.0	   655.4	 -2862.2	   309.1
     63.8534	   708.0	   640.6	 -2834.3	   309.1
     63.8868	   699.0	   627.0	 -2829.8	   309.0
     63.9202	   717.0	   614.6	 -2799.4	   309.0
     63.9537	   665.0	   603.3	 -2840.1	   308.9
     63.9871	   655.0	   592.9	 -2839.7	   308.9
     64.0205	   626.0	   583.4	 -2859.1	   308.8
     64.0539	   614.0	   574.6	 -2862.4	   308.8
     64.0873	   588.0	   566.6	 -2880.3	   308.7
     64.1208	   531.0	   559.1	 -2929.9	   308.6
     64.1542	   570.0	   552.3	 -2884.0	   308.6
     64.1876	   617.0	   546.0	 -2830.7	   308.5
     64.2210	   573.0	   540.2	 -2868.9	   308.5
     64.2545	   591.0	   534.8	 -2845.6	   308.4
     64.2879	   595.0	   529.9	 -2836.6	   308.4
     64.3213	   507.0	   525.3	 -2920.0	   308.3
     64.3547	   570.0	   521.1	 -2852.8	   308.3
     64.3881	   559.0	   517.2	 -2860.0	   308.2
     64.4216	   532.0	   513.7	 -2883.4	   308.2
     64.4550	   559.0	   510.4	 -2853.2	   308.1
     64.4884	   511.0	   507.4	 -2898.2	   308.0
     64.5218	   504.0	   504.7	 -2902.5	   308.0
     64.5553	   513.0	   502.2	 -2891.0	   307.9
     64.5887	   476.0	   500.0	 -2925.7	   307.9
     64.6221	   530.0	   498.0	 -2869.7	   307.8
     64.6555	   501.0	   496.2	 -2896.9	   307.8
     64.6889	   518.0	   494.6	 -2878.3	   307.7
     64.7224	   484.0	   493.2	 -2910.9	   307.7
     64.7558	   516.0	   492.0	 -2877.7	   307.6
     64.7892	   482.0	   491.0	 -2910.7	   307.6
     64.8226	   472.0	   490.1	 -2919.9	   307.5
     64.8561	   474.0	   489.5	 -2917.2	   307.5
     64.8895	   476.0	   489.0	 -2914.8	   307.4
     64.9229	   495.0	   488.7	 -2895.5	   307.3
     64.9563	   515.0	   488.6	 -2875.4	   307.3
     64.9898	   466.0	   488.7	 -2924.5	   307.2
     65.0232	   488.0	   489.0	 -2902.7	   307.2
     65.0566	   489.0	   489.4	 -2902.2	   307.1
     65.0900	   483.0	   490.1	 -2908.8	   307.1
     65.1234	   503.0	   490.9	 -2889.6	   307.0
     65.1569	   489.0	   491.9	 -2904.7	   307.0
     65.1903	   495.0	   493.2	 -2899.9	   306.9
     65.2237	   439.0	   494.7	 -2957.4	   306.9
     65.2571	   459.0	   496.4	 -2939.2	   306.8
     65.2906	   498.0	   498.4	 -2902.1	   306.8
     65.3240	   498.0	   500.6	 -2904.4	   306.7
     65.3574	   485.0	   503.2	 -2919.9	   306.6
     65.3908	   465.0	   506.0	 -2942.8	   306.6
     65.4242	   545.0	   509.3	 -2866.0	   306.5
     65.4577	   470.0	   512.8	 -2944.6	   306.5
     65.4911	   525.0	   516.8	 -2893.6	   306.4
     65.5245	   535.0	   521.3	 -2888.0	   306.4
     65.5579	   513.0	   526.2	 -2915.0	   306.3
     65.5914	   487.0	   531.7	 -2946.4	   306.3
     65.6248	   551.0	   537.8	 -2888.5	   306.2
     65.6582	   530.0	   544.6	 -2916.3	   306.2
     65.6916	   509.0	   552.1	 -2944.8	   306.1
     65.7250	   547.0	   560.4	 -2915.2	   306.1
     65.7585	   566.0	   569.7	 -2905.4	   306.0
     65.7919	   529.0	   579.9	 -2952.7	   305.9
     65.8253	   557.0	   591.3	 -2936.1	   305.9
     65.8587	   512.0	   603.9	 -2993.6	   305.8
     65.8922	   557.0	   617.8	 -2962.5	   305.8
     65.9256	   532.0	   633.0	 -3002.8	   305.7
     65.9590	   542.0	   649.7	 -3009.5	   305.7
     65.9924	   614.0	   667.9	 -2955.6	   305.6
     66.0258	   636.0	   687.4	 -2953.1	   305.6
     66.0593	   633.0	   708.1	 -2976.9	   305.5
     66.0927	   621.0	   729.9	 -3010.6	   305.5
     66.1261	   661.0	   752.1	 -2992.8	   305.4
     66.1595	   632.0	   774.2	 -3044.0	   305.4
     66.1930	   664.0	   795.5	 -3033.3	   305.3
     66.2264	   740.0	   815.1	 -2976.9	   305.2
     66.2598	   785.0	   832.2	 -2948.9	   305.2
     66.2932	   820.0	   845.9	 -2927.7	   305.1
     66.3267	   824.0	   855.9	 -2933.7	   305.1
     66.3601	   836.0	   861.9	 -2927.6	   305.0
     66.3935	   813.0	   863.9	 -2952.6	   305.0
     66.4269	   715.0	   862.2	 -3049.0	   304.9
     66.4603	   736.0	   857.4	 -3023.1	   304.9
     66.4938	   738.0	   849.9	 -3013.7	   304.8
     66.5272	   749.0	   840.6	 -2993.3	   304.8
     66.5606	   721.0	   830.0	 -3010.7	   304.7
     66.5940	   728.0	   818.9	 -2992.6	   304.6
     66.6275	   649.0	   807.8	 -3060.6	   304.6
     66.6609	   665.0	   797.5	 -3034.3	   304.5
     66.6943	   664.0	   788.9	 -3026.7	   304.5
     66.7277	   664.0	   781.4	 -3019.1	   304.4
     66.7611	   635.0	   775.7	 -3042.4	   304.4
     66.7946	   633.0	   771.9	 -3040.7	   304.3
     66.8280	   687.0	   770.3	 -2985.1	   304.3
     66.8614	   706.0	   770.9	 -2966.7	   304.2
     66.8948	   689.0	   774.1	 -2986.8	   304.2
     66.9283	   697.0	   779.2	 -2984.0	   304.1
     66.9617	   687.0	   786.8	 -3001.5	   304.1
     66.9951	   704.0	   796.8	 -2994.5	   304.0
     67.0285	   724.0	   809.3	 -2987.0	   303.9
     67.0620	   700.0	   824.4	 -3026.2	   303.9
     67.0954	   732.0	   842.4	 -3012.1	   303.8
     67.1288	   749.0	   863.3	 -3016.1	   303.8
     67.1622	   746.0	   887.5	 -3043.3	   303.7
     67.1956	   820.0	   915.2	 -2996.9	   303.7
     67.2291	   810.0	   946.6	 -3038.4	   303.6
     67.2625	   824.0	   982.2	 -3059.9	   303.6
     67.2959	   917.0	  1022.3	 -3007.0	   303.5
     67.3293	   873.0	  1067.4	 -3096.1	   303.5
     67.3628	   878.0	  1117.9	 -3141.6	   303.4
     67.3962	   945.0	  1174.3	 -3131.1	   303.4
     67.4296	   991.0	  1237.1	 -3147.9	   303.3
     67.4630	  1029.0	  1306.8	 -3179.5	   303.2
     67.4964	  1041.0	  1383.7	 -3244.4	   303.2
     67.5299	  1115.0	  1467.9	 -3254.7	   303.1
     67.5633	  1165.0	  1559.6	 -3296.4	   303.1
     67.5967	  1127.0	  1658.2	 -3432.9	   303.0
     67.6301	  1236.0	  1762.7	 -3428.4	   303.0
     67.6636	  1264.0	  1871.4	 -3509.2	   302.9
     67.6970	  1365.0	  1982.1	 -3518.8	   302.9
     67.7304	  1469.0	  2091.1	 -3523.9	   302.8
     67.7638	  1588.0	  2194.5	 -3508.2	   302.8
     67.7972	  1745.0	  2287.5	 -3444.2	   302.7
     67.8307	  2010.0	  2365.6	 -3257.3	   302.7
     67.8641	  2103.0	  2424.8	 -3223.6	   302.6
     67.8975	  2114.0	  2462.3	 -3250.1	   302.5
     67.9309	  2047.0	  2476.7	 -3331.5	   302.5
     67.9644	  1803.0	  2468.2	 -3567.0	   302.4
     67.9978	  1860.0	  2438.2	 -3479.9	   302.4
     68.0312	  1872.0	  2389.0	 -3418.8	   302.3
     68.0646	  1821.0	  2323.7	 -3404.4	   302.3
     68.0980	  1769.0	  2245.5	 -3378.3	   302.2
     68.1315	  1580.0	  2158.2	 -3479.9	   302.2
     68.1649	  1445.0	  2065.2	 -3522.0	   302.1
     68.1983	  1420.0	  1970.1	 -3451.8	   302.1
     68.2317	  1297.0	  1875.9	 -3480.6	   302.0
     68.2652	  1287.0	  1785.1	 -3399.9	   301.9
     68.2986	  1196.0	  1699.9	 -3405.7	   301.9
     68.3320	  1167.0	  1615.6	 -3350.3	   301.8
     68.3654	  1176.0	  1545.1	 -3270.9	   301.8
     68.3988	  1095.0	  1482.9	 -3289.7	   301.7
     68.4323	  1153.0	  1429.2	 -3177.9	   301.7
     68.4657	  1057.0	  1383.9	 -3228.7	   301.6
     68.4991	  1059.0	  1344.0	 -3186.8	   301.6
     68.5325	  1030.0	  1315.2	 -3187.0	   301.5
     68.5660	   978.0	  1294.3	 -3218.0	   301.5
     68.5994	  1056.0	  1280.9	 -3126.7	   301.4
     68.6328	   993.0	  1274.9	 -3183.6	   301.4
     68.6662	   989.0	  1275.7	 -3188.5	   301.3
     68.6997	  1083.0	  1283.1	 -3101.8	   301.2
     68.7331	  1037.0	  1296.3	 -3161.1	   301.2
     68.7665	   959.0	  1314.7	 -3257.5	   301.1
     68.7999	  1060.0	  1337.3	 -3179.0	   301.1
     68.8333	  1053.0	  1362.7	 -3211.4	   301.0
     68.8668	  1032.0	  1389.2	 -3259.0	   301.0
     68.9002	  1108.0	  1414.9	 -3208.7	   300.9
     68.9336	  1165.0	  1437.7	 -3174.5	   300.9
     68.9670	  1221.0	  1455.5	 -3136.2	   300.8
     69.0005	  1313.0	  1466.3	 -3055.0	   300.8
     69.0339	  1391.0	  1468.9	 -2979.6	   300.7
     69.0673	  1279.0	  1462.4	 -3085.2	   300.7
     69.1007	  1155.0	  1446.8	 -3193.6	   300.6
     69.1341	  1148.0	  1422.6	 -3176.3	   300.5
     69.1676	  1139.0	  1390.5	 -3153.2	   300.5
     69.2010	  1135.0	  1351.7	 -3118.5	   300.4
     69.2344	  1056.0	  1307.5	 -3153.3	   300.4
     69.2678	   961.0	  1259.3	 -3200.1	   300.3
     69.3013	   880.0	  1208.6	 -3230.3	   300.3
     69.3347	   895.0	  1156.7	 -3163.5	   300.2
     69.3681	   810.0	  1104.9	 -3196.6	   300.2
     69.4015	   834.0	  1054.3	 -3122.0	   300.1
     69.4350	   807.0	  1005.6	 -3100.4	   300.1
     69.4684	   758.0	   959.6	 -3103.3	   300.0
     69.5018	   729.0	   916.4	 -3089.2	   300.0
     69.5352	   697.0	   876.4	 -3081.1	   299.9
     69.5686	   674.0	   839.4	 -3067.2	   299.8
     69.6021	   615.0	   805.6	 -3092.3	   299.8
     69.6355	   632.0	   774.6	 -3044.3	   299.7
     69.6689	   670.0	   746.3	 -2978.1	   299.7
     69.7023	   614.0	   720.6	 -3008.3	   299.6
     69.7358	   595.0	   697.1	 -3003.9	   299.6
     69.7692	   590.0	   675.8	 -2987.5	   299.5
     69.8026	   572.0	   656.3	 -2986.1	   299.5
     69.8360	   517.0	   638.6	 -3023.3	   299.4
     69.8694	   527.0	   622.4	 -2997.1	   299.4
     69.9029	   576.0	   607.6	 -2933.3	   299.3
     69.9363	   510.0	   594.0	 -2985.8	   299.3
     69.9697	   530.0	   581.6	 -2953.3	   299.2
     70.0031	   470.0	   570.1	 -3001.9	   299.1
     70.0366	   536.0	   559.6	 -2925.4	   299.1
     70.0700	   518.0	   549.9	 -2933.6	   299.0
     70.1034	   463.0	   540.9	 -2979.7	   299.0
     70.1368	   486.0	   532.6	 -2948.4	   298.9
     70.1702	   479.0	   524.9	 -2947.7	   298.9
     70.2037	   474.0	   517.7	 -2945.5	   298.8
     70.2371	   464.0	   511.1	 -2948.8	   298.8
     70.2705	   474.0	   504.9	 -2932.6	   298.7
     70.3039	   483.0	   499.1	 -2917.8	   298.7
     70.3374	   443.0	   493.6	 -2952.4	   298.6
     70.3708	   489.0	   488.6	 -2901.3	   298.5
     70.4042	   478.0	   483.8	 -2907.6	   298.5
     70.4376	   462.0	   479.3	 -2919.1	   298.4
     70.4710	   489.0	   475.1	 -2887.9	   298.4
     70.5045	   463.0	   471.2	 -2910.0	   298.3
     70.5379	   450.0	   467.5	 -2919.2	   298.3
     70.5713	   391.0	   464.0	 -2974.8	   298.2
     70.6047	   416.0	   460.7	 -2946.5	   298.2
     70.6382	   402.0	   457.6	 -2957.4	   298.1
     70.6716	   398.0	   454.7	 -2958.5	   298.1
     70.7050	   477.0	   451.9	 -2876.7	   298.0
     70.7384	   384.0	   449.4	 -2967.1	   298.0
     70.7719	   448.0	   446.9	 -2900.7	   297.9
     70.8053	   369.0	   444.6	 -2977.4	   297.8
     70.8387	   447.0	   442.4	 -2897.2	   297.8
     70.8721	   413.0	   440.4	 -2929.1	   297.7
     70.9055	   376.0	   438.5	 -2964.2	   297.7
     70.9390	   427.0	   437.7	 -2912.5	   297.6
     70.9724	   398.0	   436.0	 -2939.8	   297.6
     71.0058	   417.0	   434.5	 -2919.2	   297.5
     71.0392	   409.0	   433.0	 -2925.8	   297.5
     71.0727	   432.0	   431.7	 -2901.4	   297.4
     71.1061	   413.0	   430.4	 -2919.2	   297.4
     71.1395	   443.0	   429.8	 -2888.5	   297.3
     71.1729	   446.0	   428.7	 -2884.5	   297.3
     71.2063	   424.0	   427.8	 -2905.5	   297.2
     71.2398	   376.0	   426.9	 -2952.7	   297.1
     71.2732	   405.0	   426.2	 -2922.9	   297.1
     71.3066	   379.0	   425.5	 -2948.3	   297.0
     71.3400	   383.0	   425.0	 -2943.7	   297.0
     71.3735	   438.0	   424.5	 -2888.3	   296.9
     71.4069	   390.0	   424.2	 -2936.0	   296.9
     71.4403	   373.0	   424.0	 -2952.7	   296.8
     71.4737	   405.0	   423.9	 -2920.6	   296.8
     71.5071	   409.0	   423.9	 -2916.7	   296.7
     71.5406	   412.0	   424.1	 -2913.8	   296.7
     71.5740	   383.0	   424.4	 -2943.2	   296.6
     71.6074	   392.0	   424.9	 -2934.6	   296.6
     71.6408	   409.0	   425.5	 -2918.3	   296.5
     71.6743	   427.0	   426.3	 -2901.1	   296.4
     71.7077	   408.0	   427.3	 -2921.1	   296.4
     71.7411	   387.0	   428.5	 -2943.3	   296.3
     71.7745	   357.0	   430.0	 -2974.7	   296.3
     71.8080	   403.0	   431.7	 -2930.4	   296.2
     71.8414	   411.0	   433.7	 -2924.4	   296.2
     71.8748	   409.0	   436.0	 -2928.7	   296.1
     71.9082	   402.0	   438.6	 -2938.3	   296.1
     71.9416	   417.0	   440.5	 -2925.3	   296.0
     71.9751	   385.0	   443.9	 -2960.7	   296.0
     72.0085	   412.0	   447.7	 -2937.5	   295.9
     72.0419	   462.0	   452.0	 -2891.7	   295.8
     72.0753	   416.0	   456.7	 -2942.5	   295.8
     72.1087	   418.0	   462.0	 -2945.7	   295.7
     72.1422	   426.0	   467.2	 -2942.9	   295.7
     72.1756	   448.0	   473.4	 -2927.1	   295.6
     72.2090	   483.0	   480.0	 -2898.8	   295.6
     72.2424	   426.0	   487.1	 -2962.8	   295.5
     72.2759	   483.0	   494.3	 -2913.1	   295.5
     72.3093	   504.0	   501.6	 -2899.4	   295.4
     72.3427	   463.0	   508.8	 -2947.6	   295.4
     72.3761	   489.0	   515.6	 -2928.3	   295.3
     72.4096	   479.0	   521.6	 -2944.4	   295.3
     72.4430	   504.0	   526.7	 -2924.4	   295.2
     72.4764	   581.0	   530.5	 -2851.2	   295.1
     72.5098	   543.0	   532.9	 -2891.6	   295.1
     72.5432	   512.0	   533.7	 -2923.4	   295.0
     72.5767	   480.0	   533.0	 -2954.7	   295.0
     72.6101	   512.0	   530.7	 -2920.5	   294.9
     72.6435	   511.0	   527.1	 -2917.9	   294.9
     72.6769	   523.0	   522.3	 -2901.0	   294.8
     72.7104	   506.0	   516.4	 -2912.2	   294.8
     72.7438	   472.0	   509.8	 -2939.5	   294.7
     72.7772	   489.0	   502.5	 -2915.3	   294.7
     72.8106	   451.0	   494.9	 -2945.6	   294.6
     72.8440	   472.0	   487.1	 -2916.8	   294.6
     72.8775	   429.0	   479.3	 -2952.0	   294.5
     72.9109	   461.0	   471.6	 -2912.4	   294.4
     72.9443	   450.0	   464.3	 -2916.0	   294.4
     72.9777	   442.0	   457.3	 -2917.0	   294.3
     73.0112	   428.0	   450.7	 -2924.4	   294.3
     73.0446	   400.0	   444.6	 -2946.3	   294.2
     73.0780	   408.0	   438.9	 -2932.6	   294.2
     73.1114	   400.0	   433.7	 -2935.4	   294.1
     73.1449	   414.0	   428.9	 -2916.6	   294.1
     73.1783	   384.0	   424.5	 -2942.2	   294.0
     73.2117	   390.0	   420.5	 -2932.2	   294.0
     73.2451	   380.0	   416.8	 -2938.5	   293.9
     73.2785	   423.0	   413.4	 -2892.2	   293.9
     73.3120	   391.0	   410.4	 -2921.1	   293.8
     73.3454	   417.0	   407.6	 -2892.3	   293.7
     73.3788	   346.0	   405.0	 -2960.8	   293.7
     73.4122	   367.0	   402.7	 -2937.4	   293.6
     73.4457	   410.0	   400.5	 -2892.3	   293.6
     73.4791	   374.0	   398.5	 -2926.3	   293.5
     73.5125	   384.0	   396.7	 -2914.5	   293.5
     73.5459	   380.0	   395.0	 -2916.8	   293.4
     73.5793	   375.0	   387.4	 -2914.2	   293.4
     73.6128	   349.0	   386.1	 -2938.8	   293.3
     73.6462	   348.0	   384.8	 -2938.6	   293.3
     73.6796	   324.0	   383.7	 -2961.4	   293.2
     73.7130	   392.0	   382.6	 -2892.4	   293.1
     73.7465	   375.0	   381.6	 -2908.4	   293.1
     73.7799	   335.0	   377.7	 -2944.4	   293.0
     73.8133	   365.0	   376.9	 -2913.6	   293.0
     73.8467	   362.0	   376.1	 -2915.9	   292.9
     73.8801	   368.0	   375.4	 -2909.2	   292.9
     73.9136	   321.0	   374.8	 -2955.5	   292.8
     73.9470	   399.0	   374.2	 -2876.9	   292.8
     73.9804	   352.0	   373.6	 -2923.3	   292.7
     74.0138	   357.0	   373.1	 -2917.8	   292.7
     74.0473	   325.0	   372.6	 -2949.4	   292.6
     74.0807	   330.0	   372.2	 -2943.9	   292.6
     74.1141	   380.0	   371.8	 -2893.5	   292.5
     74.1475	   367.0	   371.4	 -2906.1	   292.4
     74.1810	   363.0	   371.0	 -2909.8	   292.4
     74.2144	   340.0	   370.7	 -2932.5	   292.3
     74.2478	   318.0	   370.4	 -2954.2	   292.3
     74.2812	   359.0	   370.2	 -2912.9	   292.2
     74.3146	   351.0	   369.9	 -2920.7	   292.2
     74.3481	   338.0	   369.7	 -2933.5	   292.1
     74.3815	   372.0	   369.5	 -2899.3	   292.1
     74.4149	   374.0	   369.4	 -2897.1	   292.0
     74.4483	   395.0	   369.2	 -2876.0	   292.0
     74.4818	   393.0	   369.1	 -2877.9	   291.9
     74.5152	   376.0	   369.0	 -2894.8	   291.9
     74.5486	   344.0	   368.9	 -2926.7	   291.8
     74.5820	   340.0	   368.9	 -2930.6	   291.7
     74.6154	   364.0	   368.8	 -2906.6	   291.7
     74.6489	   348.0	   368.8	 -2922.6	   291.6
     74.6823	   374.0	   368.8	 -2896.6	   291.6
     74.7157	   350.0	   368.9	 -2920.6	   291.5
     74.7491	   343.0	   366.2	 -2924.9	   291.5
     74.7826	   363.0	   366.3	 -2905.0	   291.4
     74.8160	   365.0	   366.4	 -2903.1	   291.4
     74.8494	   383.0	   366.5	 -2885.3	   291.3
     74.8828	   324.0	   366.7	 -2944.5	   291.3
     74.9162	   320.0	   366.9	 -2948.7	   291.2
     74.9497	   366.0	   365.8	 -2901.5	   291.2
     74.9831	   366.0	   366.0	 -2901.8	   291.1
     75.0165	   389.0	   366.3	 -2879.1	   291.0
     75.0499	   351.0	   366.6	 -2917.4	   291.0
     75.0834	   365.0	   367.0	 -2903.7	   290.9
     75.1168	   366.0	   367.3	 -2903.1	   290.9
     75.1502	   379.0	   367.7	 -2890.5	   290.8
     75.1836	   352.0	   368.8	 -2918.5	   290.8
     75.2170	   373.0	   369.2	 -2898.0	   290.7
     75.2505	   349.0	   369.8	 -2922.5	   290.7
     75.2839	   348.0	   370.3	 -2924.1	   290.6
     75.3173	   347.0	   370.9	 -2925.7	   290.6
     75.3507	   336.0	   371.6	 -2937.3	   290.5
     75.3842	   350.0	   372.3	 -2924.0	   290.5
     75.4176	   378.0	   373.3	 -2897.0	   290.4
     75.4510	   364.0	   374.1	 -2911.8	   290.3
     75.4844	   368.0	   375.0	 -2908.7	   290.3
     75.5179	   380.0	   375.9	 -2897.6	   290.2
     75.5513	   363.0	   376.9	 -2915.6	   290.2
     75.5847	   383.0	   378.0	 -2896.7	   290.1
     75.6181	   365.0	   379.1	 -2915.9	   290.1
     75.6515	   360.0	   380.4	 -2922.1	   290.0
     75.6850	   382.0	   381.7	 -2901.5	   290.0
     75.7184	   406.0	   383.2	 -2878.9	   289.9
     75.7518	   372.0	   384.7	 -2914.5	   289.9
     75.7852	   376.0	   386.4	 -2912.2	   289.8
     75.8187	   352.0	   388.3	 -2938.0	   289.7
     75.8521	   375.0	   390.2	 -2917.0	   289.7
     75.8855	   406.0	   392.4	 -2888.1	   289.6
     75.9189	   367.0	   394.7	 -2929.5	   289.6
     75.9523	   383.0	   397.3	 -2916.0	   289.5
     75.9858	   372.0	   400.0	 -2929.8	   289.5
     76.0192	   379.0	   403.1	 -2925.8	   289.4
     76.0526	   395.0	   406.3	 -2913.1	   289.4
     76.0860	   366.0	   409.9	 -2945.7	   289.3
     76.1195	   381.0	   413.9	 -2934.6	   289.3
     76.1529	   388.0	   418.1	 -2931.9	   289.2
     76.1863	   377.0	   422.8	 -2947.6	   289.2
     76.2197	   396.0	   428.0	 -2933.7	   289.1
     76.2532	   385.0	   433.6	 -2950.4	   289.0
     76.2866	   409.0	   439.8	 -2932.6	   289.0
     76.3200	   388.0	   446.6	 -2960.3	   288.9
     76.3534	   395.0	   454.0	 -2960.7	   288.9
     76.3868	   424.0	   462.0	 -2939.8	   288.8
     76.4203	   414.0	   470.8	 -2958.6	   288.8
     76.4537	   422.0	   480.4	 -2960.1	   288.7
     76.4871	   422.0	   490.7	 -2970.4	   288.7
     76.5205	   413.0	   501.8	 -2990.5	   288.6
     76.5539	   458.0	   513.6	 -2957.4	   288.6
     76.5874	   408.0	   526.1	 -3019.9	   288.5
     76.6208	   441.0	   539.2	 -3000.0	   288.5
     76.6542	   456.0	   552.6	 -2998.4	   288.4
     76.6876	   467.0	   566.2	 -3000.9	   288.3
     76.7211	   433.0	   579.5	 -3048.2	   288.3
     76.7545	   433.0	   592.2	 -3060.9	   288.2
     76.7879	   485.0	   603.9	 -3020.6	   288.2
     76.8213	   538.0	   614.0	 -2977.8	   288.1
     76.8548	   560.0	   622.3	 -2964.1	   288.1
     76.8882	   583.0	   628.4	 -2947.1	   288.0
     76.9216	   606.0	   632.0	 -2927.7	   288.0
     76.9550	   542.0	   633.0	 -2992.8	   287.9
     76.9884	   555.0	   631.6	 -2978.3	   287.9
     77.0219	   486.0	   627.7	 -3043.5	   287.8
     77.0553	   512.0	   621.7	 -3011.5	   287.8
     77.0887	   478.0	   613.8	 -3037.6	   287.7
     77.1221	   529.0	   604.2	 -2977.0	   287.6
     77.1556	   497.0	   593.4	 -2998.1	   287.6
     77.1890	   432.0	   581.5	 -3051.2	   287.5
     77.2224	   446.0	   568.9	 -3024.7	   287.5
     77.2558	   444.0	   556.0	 -3013.8	   287.4
     77.2892	   468.0	   543.0	 -2976.8	   287.4
     77.3227	   458.0	   530.2	 -2974.0	   287.3
     77.3561	   395.0	   517.8	 -3024.5	   287.3
     77.3895	   407.0	   505.8	 -3000.6	   287.2
     77.4229	   399.0	   494.5	 -2997.3	   287.2
     77.4564	   373.0	   483.9	 -3012.7	   287.1
     77.4898	   393.0	   474.0	 -2982.8	   287.0
     77.5232	   396.0	   464.9	 -2970.6	   287.0
     77.5566	   396.0	   456.4	 -2962.1	   286.9
     77.5900	   369.0	   448.6	 -2981.3	   286.9
     77.6235	   403.0	   441.4	 -2940.2	   286.8
     77.6569	   383.0	   434.9	 -2953.6	   286.8
     77.6903	   413.0	   428.9	 -2917.6	   286.7
     77.7237	   361.0	   423.4	 -2964.1	   286.7
     77.7572	   423.0	   418.3	 -2897.1	   286.6
     77.7906	   373.0	   413.7	 -2942.5	   286.6
     77.8240	   387.0	   409.5	 -2924.3	   286.5
     77.8574	   395.0	   405.6	 -2912.4	   286.5
     77.8909	   350.0	   402.1	 -2953.8	   286.4
     77.9243	   355.0	   398.8	 -2945.6	   286.3
     77.9577	   362.0	   395.8	 -2935.6	   286.3
     77.9911	   367.0	   393.1	 -2927.8	   286.2
     78.0245	   361.0	   390.5	 -2931.3	   286.2
     78.0580	   353.0	   388.2	 -2936.9	   286.1
     78.0914	   354.0	   386.0	 -2933.7	   286.1
     78.1248	   357.0	   384.0	 -2928.7	   286.0
     78.1582	   374.0	   382.1	 -2909.8	   286.0
     78.1917	   375.0	   380.4	 -2907.1	   285.9
     78.2251	   380.0	   378.8	 -2900.5	   285.9
     78.2585	   347.0	   377.3	 -2932.0	   285.8
     78.2919	   347.0	   375.9	 -2930.6	   285.8
     78.3253	   376.0	   374.0	 -2899.8	   285.7
     78.3588	   365.0	   372.8	 -2909.6	   285.6
     78.3922	   325.0	   371.7	 -2948.4	   285.6
     78.4256	   340.0	   370.6	 -2932.4	   285.5
     78.4590	   368.0	   369.6	 -2903.4	   285.5
     78.4925	   347.0	   368.7	 -2923.5	   285.4
     78.5259	   367.0	   367.8	 -2902.6	   285.4
     78.5593	   295.0	   366.8	 -2973.5	   285.3
     78.5927	   337.0	   366.0	 -2930.8	   285.3
     78.6262	   350.0	   365.3	 -2917.1	   285.2
     78.6596	   332.0	   364.6	 -2934.4	   285.2
     78.6930	   342.0	   364.0	 -2923.8	   285.1
     78.7264	   361.0	   363.4	 -2904.2	   285.1
     78.7598	   366.0	   362.9	 -2898.6	   285.0
     78.7933	   370.0	   362.4	 -2894.1	   284.9
     78.8267	   348.0	   361.9	 -2915.6	   284.9
     78.8601	   363.0	   361.4	 -2900.2	   284.8
     78.8935	   310.0	   361.0	 -2952.7	   284.8
     78.9269	   347.0	   360.6	 -2915.4	   284.7
     78.9604	   363.0	   360.2	 -2899.0	   284.7
     78.9938	   377.0	   359.9	 -2884.7	   284.6
     79.0272	   350.0	   359.6	 -2911.3	   284.6
     79.0606	   331.0	   359.3	 -2930.1	   284.5
     79.0941	   379.0	   359.0	 -2881.8	   284.5
     79.1275	   316.0	   358.8	 -2944.5	   284.4
     79.1609	   320.0	   358.6	 -2940.3	   284.4
     79.1943	   331.0	   358.4	 -2929.1	   284.3
     79.2278	   352.0	   358.2	 -2908.0	   284.2
     79.2612	   342.0	   358.1	 -2917.8	   284.2
     79.2946	   347.0	   357.9	 -2912.7	   284.1
     79.3280	   359.0	   357.8	 -2900.6	   284.1
     79.3614	   343.0	   357.7	 -2916.5	   284.0
     79.3949	   358.0	   357.7	 -2901.4	   284.0
     79.4283	   307.0	   357.6	 -2952.4	   283.9
     79.4617	   320.0	   357.6	 -2939.3	   283.9
     79.4951	   295.0	   357.6	 -2964.3	   283.8
     79.5286	   332.0	   357.6	 -2927.4	   283.8
     79.5620	   328.0	   357.6	 -2931.4	   283.7
     79.5954	   328.0	   357.7	 -2931.5	   283.6
     79.6288	   344.0	   357.8	 -2915.6	   283.6
     79.6622	   358.0	   357.9	 -2901.7	   283.5
     79.6957	   381.0	   358.1	 -2878.8	   283.5
     79.7291	   355.0	   358.2	 -2905.0	   283.4
     79.7625	   342.0	   358.4	 -2918.2	   283.4
     79.7959	   345.0	   358.7	 -2915.4	   283.3
     79.8294	   301.0	   358.9	 -2959.7	   283.3
     79.8628	   333.0	   359.2	 -2928.0	   283.2
     79.8962	   338.0	   359.5	 -2923.3	   283.2
     79.9296	   342.0	   359.9	 -2919.7	   283.1
     79.9631	   354.0	   360.3	 -2908.1	   283.1
     79.9965	   339.0	   360.8	 -2923.5	   283.0
     80.0299	   340.0	   361.3	 -2923.0	   282.9
     80.0633	   344.0	   361.8	 -2919.6	   282.9
     80.0967	   389.0	   362.4	 -2875.2	   282.8
     80.1302	   333.0	   363.1	 -2931.8	   282.8
     80.1636	   348.0	   363.8	 -2917.5	   282.7
     80.1970	   383.0	   364.6	 -2883.3	   282.7
     80.2304	   329.0	   365.4	 -2938.2	   282.6
     80.2639	   335.0	   366.4	 -2933.1	   282.6
     80.2973	   308.0	   367.4	 -2961.2	   282.5
     80.3307	   352.0	   368.5	 -2918.3	   282.5
     80.3641	   348.0	   369.8	 -2923.5	   282.4
     80.3975	   354.0	   371.1	 -2918.9	   282.4
     80.4310	   367.0	   372.6	 -2907.3	   282.3
     80.4644	   348.0	   374.2	 -2927.9	   282.2
     80.4978	   363.0	   375.9	 -2914.7	   282.2
     80.5312	   350.0	   377.9	 -2929.6	   282.1
     80.5647	   349.0	   380.0	 -2932.7	   282.1
     80.5981	   343.0	   382.3	 -2941.0	   282.0
     80.6315	   347.0	   384.8	 -2939.5	   282.0
     80.6649	   369.0	   387.5	 -2920.3	   281.9
     80.6983	   385.0	   390.5	 -2907.3	   281.9
     80.7318	   370.0	   393.8	 -2925.5	   281.8
     80.7652	   344.0	   397.3	 -2955.1	   281.8
     80.7986	   349.0	   401.2	 -2953.9	   281.7
     80.8320	   394.0	   405.4	 -2913.1	   281.7
     80.8655	   368.0	   409.9	 -2943.7	   281.6
     80.8989	   366.0	   414.8	 -2950.5	   281.5
     80.9323	   364.0	   420.0	 -2957.7	   281.5
     80.9657	   407.0	   425.5	 -2920.2	   281.4
     80.9991	   393.0	   431.3	 -2940.0	   281.4
     81.0326	   398.0	   437.3	 -2941.1	   281.3
     81.0660	   393.0	   443.5	 -2952.3	   281.3
     81.0994	   388.0	   449.7	 -2963.5	   281.2
     81.1328	   434.0	   455.9	 -2923.6	   281.2
     81.1663	   409.0	   461.8	 -2954.5	   281.1
     81.1997	   385.0	   467.2	 -2984.0	   281.1
     81.2331	   431.0	   472.1	 -2942.8	   281.0
     81.2665	   419.0	   476.2	 -2958.9	   280.9
     81.2999	   483.0	   479.3	 -2898.1	   280.9
     81.3334	   420.0	   481.4	 -2963.2	   280.8
     81.3668	   438.0	   482.5	 -2946.2	   280.8
     81.4002	   480.0	   482.4	 -2904.2	   280.7
     81.4336	   414.0	   481.3	 -2969.0	   280.7
     81.4671	   443.0	   479.2	 -2937.9	   280.6
     81.5005	   437.0	   476.1	 -2940.9	   280.6
     81.5339	   452.0	   472.2	 -2922.0	   280.5
     81.5673	   426.0	   467.7	 -2943.4	   280.5
     81.6008	   429.0	   462.6	 -2935.3	   280.4
     81.6342	   439.0	   457.0	 -2919.8	   280.4
     81.6676	   425.0	   451.1	 -2927.9	   280.3
     81.7010	   403.0	   445.1	 -2943.8	   280.2
     81.7344	   404.0	   439.0	 -2936.7	   280.2
     81.7679	   427.0	   432.9	 -2907.7	   280.1
     81.8013	   389.0	   427.0	 -2939.7	   280.1
     81.8347	   380.0	   421.2	 -2943.0	   280.0
     81.8681	   367.0	   415.8	 -2950.5	   280.0
     81.9016	   393.0	   410.6	 -2919.3	   279.9
     81.9350	   383.0	   405.7	 -2924.4	   279.9
     81.9684	   362.0	   401.1	 -2940.8	   279.8
     82.0018	   353.0	   396.8	 -2945.5	   279.8
     82.0352	   408.0	   392.8	 -2886.6	   279.7
     82.0687	   384.0	   389.1	 -2906.9	   279.7
     82.1021	   325.0	   385.7	 -2962.5	   279.6
     82.1355	   304.0	   382.6	 -2980.4	   279.5
     82.1689	   320.0	   379.7	 -2961.5	   279.5
     82.2024	   338.0	   377.0	 -2940.8	   279.4
     82.2358	   380.0	   374.6	 -2896.3	   279.4
     82.2692	   366.0	   372.3	 -2908.0	   279.3
     82.3026	   362.0	   370.2	 -2909.9	   279.3
     82.3361	   369.0	   368.2	 -2901.0	   279.2
     82.3695	   333.0	   366.4	 -2935.2	   279.2
     82.4029	   331.0	   364.8	 -2935.5	   279.1
     82.4363	   354.0	   363.2	 -2911.0	   279.1
     82.4697	   360.0	   361.8	 -2903.5	   279.0
     82.5032	   330.0	   360.4	 -2932.2	   279.0
     82.5366	   313.0	   359.2	 -2948.0	   278.9
     82.5700	   370.0	   358.0	 -2889.8	   278.8
     82.6034	   365.0	   357.0	 -2893.7	   278.8
     82.6369	   374.0	   355.9	 -2883.7	   278.7
     82.6703	   327.0	   355.0	 -2929.7	   278.7
     82.7037	   306.0	   354.1	 -2949.8	   278.6
     82.7371	   328.0	   353.3	 -2927.0	   278.6
     82.7705	   360.0	   352.5	 -2894.2	   278.5
     82.8040	   317.0	   351.7	 -2936.5	   278.5
     82.8374	   338.0	   351.0	 -2914.8	   278.4
     82.8708	   347.0	   349.3	 -2904.1	   278.4
     82.9042	   338.0	   348.7	 -2912.4	   278.3
     82.9377	   324.0	   348.1	 -2925.9	   278.3
     82.9711	   362.0	   347.5	 -2887.3	   278.2
     83.0045	   346.0	   347.0	 -2902.8	   278.1
     83.0379	   319.0	   348.7	 -2931.4	   278.1
     83.0714	   313.0	   348.2	 -2937.0	   278.0
     83.1048	   361.0	   347.3	 -2888.0	   278.0
     83.1382	   328.0	   346.9	 -2920.6	   277.9
     83.1716	   333.0	   346.5	 -2915.2	   277.9
     83.2050	   322.0	   346.1	 -2925.9	   277.8
     83.2385	   339.0	   345.8	 -2908.5	   277.8
     83.2719	   336.0	   345.4	 -2911.2	   277.7
     83.3053	   347.0	   346.2	 -2900.9	   277.7
     83.3387	   336.0	   345.9	 -2911.6	   277.6
     83.3721	   320.0	   345.6	 -2927.4	   277.5
     83.4056	   358.0	   345.4	 -2889.1	   277.5
     83.4390	   314.0	   345.1	 -2932.8	   277.4
     83.4724	   369.0	   344.9	 -2877.6	   277.4
     83.5058	   370.0	   344.6	 -2876.4	   277.3
     83.5393	   340.0	   344.4	 -2906.2	   277.3
     83.5727	   337.0	   344.2	 -2908.9	   277.2
     83.6061	   325.0	   344.0	 -2920.7	   277.2
     83.6395	   293.0	   343.8	 -2952.5	   277.1
     83.6730	   306.0	   343.6	 -2939.4	   277.1
     83.7064	   303.0	   343.4	 -2942.2	   277.0
     83.7398	   305.0	   343.3	 -2940.0	   277.0
     83.7732	   310.0	   343.1	 -2934.8	   276.9
     83.8066	   325.0	   342.9	 -2919.7	   276.8
     83.8401	   330.0	   342.8	 -2914.5	   276.8
     83.8735	   336.0	   342.6	 -2908.4	   276.7
     83.9069	   354.0	   342.5	 -2890.3	   276.7
     83.9403	   325.0	   342.4	 -2919.1	   276.6
     83.9738	   314.0	   342.2	 -2930.0	   276.6
     84.0072	   292.0	   342.1	 -2951.9	   276.5
     84.0406	   339.0	   342.0	 -2904.8	   276.5
     84.0740	   317.0	   341.9	 -2926.6	   276.4
     84.1074	   308.0	   341.8	 -2935.5	   276.4
     84.1409	   323.0	   341.7	 -2920.4	   276.3
     84.1743	   310.0	   341.6	 -2933.3	   276.3
     84.2077	   317.0	   341.5	 -2926.3	   276.2
     84.2411	   318.0	   341.4	 -2925.2	   276.1
     84.2746	   324.0	   341.3	 -2919.1	   276.1
     84.3080	   327.0	   341.2	 -2916.0	   276.0
     84.3414	   345.0	   341.2	 -2897.9	   276.0
     84.3748	   304.0	   341.1	 -2938.9	   275.9
     84.4082	   338.0	   341.0	 -2904.8	   275.9
     84.4417	   323.0	   341.0	 -2919.7	   275.8
     84.4751	   334.0	   340.9	 -2908.7	   275.8
     84.5085	   318.0	   340.8	 -2924.6	   275.7
     84.5419	   328.0	   340.8	 -2914.5	   275.7
     84.5754	   330.0	   340.7	 -2912.5	   275.6
     84.6088	   354.0	   340.7	 -2888.4	   275.6
     84.6422	   301.0	   340.7	 -2941.4	   275.5
     84.6756	   358.0	   340.6	 -2884.4	   275.4
     84.7091	   314.0	   340.6	 -2928.3	   275.4
     84.7425	   301.0	   340.5	 -2941.3	   275.3
     84.7759	   319.0	   340.5	 -2923.3	   275.3
     84.8093	   301.0	   340.5	 -2941.2	   275.2
     84.8427	   304.0	   340.5	 -2938.2	   275.2
     84.8762	   318.0	   340.4	 -2924.2	   275.1
     84.9096	   353.0	   340.4	 -2889.2	   275.1
     84.9430	   320.0	   340.4	 -2922.1	   275.0
     84.9764	   314.0	   340.4	 -2928.1	   275.0
     85.0099	   337.0	   340.4	 -2905.1	   274.9
     85.0433	   318.0	   340.4	 -2924.1	   274.8
     85.0767	   325.0	   340.4	 -2917.1	   274.8
     85.1101	   335.0	   340.4	 -2907.1	   274.7
     85.1435	   299.0	   340.4	 -2943.1	   274.7
     85.1770	   354.0	   340.4	 -2888.1	   274.6
     85.2104	   318.0	   340.4	 -2924.1	   274.6
     85.2438	   355.0	   340.4	 -2887.2	   274.5
     85.2772	   338.0	   340.4	 -2904.2	   274.5
     85.3107	   358.0	   340.4	 -2884.2	   274.4
     85.3441	   313.0	   340.5	 -2929.2	   274.4
     85.3775	   353.0	   340.5	 -2889.2	   274.3
     85.4109	   320.0	   340.5	 -2922.3	   274.3
     85.4444	   352.0	   340.6	 -2890.3	   274.2
     85.4778	   315.0	   340.6	 -2927.3	   274.1
     85.5112	   309.0	   340.6	 -2933.4	   274.1
     85.5446	   314.0	   340.7	 -2928.4	   274.0
     85.5780	   316.0	   340.7	 -2926.5	   274.0
     85.6115	   335.0	   340.8	 -2907.5	   273.9
     85.6449	   319.0	   340.8	 -2923.6	   273.9
     85.6783	   342.0	   340.9	 -2900.7	   273.8
     85.7117	   337.0	   341.0	 -2905.7	   273.8
     85.7451	   334.0	   341.0	 -2908.8	   273.7
     85.7786	   323.0	   341.1	 -2919.9	   273.7
     85.8120	   395.0	   341.2	 -2847.9	   273.6
     85.8454	   351.0	   341.3	 -2892.0	   273.6
     85.8788	   373.0	   341.4	 -2870.1	   273.5
     85.9123	   329.0	   341.5	 -2914.2	   273.4
     85.9457	   354.0	   341.6	 -2889.3	   273.4
     85.9791	   327.0	   341.7	 -2916.4	   273.3
     86.0125	   315.0	   341.8	 -2928.5	   273.3
     86.0460	   308.0	   342.7	 -2936.4	   273.2
     86.0794	   376.0	   342.8	 -2868.5	   273.2
     86.1128	   363.0	   342.9	 -2881.7	   273.1
     86.1462	   310.0	   343.1	 -2934.8	   273.1
     86.1796	   346.0	   343.2	 -2899.0	   273.0
     86.2131	   352.0	   343.4	 -2893.1	   273.0
     86.2465	   292.0	   343.5	 -2953.3	   272.9
     86.2799	   321.0	   343.7	 -2924.4	   272.9
     86.3133	   342.0	   344.3	 -2904.0	   272.8
     86.3468	   321.0	   344.4	 -2925.2	   272.7
     86.3802	   303.0	   344.6	 -2943.4	   272.7
     86.4136	   316.0	   344.8	 -2930.6	   272.6
     86.4470	   320.0	   345.1	 -2926.8	   272.6
     86.4804	   319.0	   345.3	 -2928.0	   272.5
     86.5139	   302.0	   345.5	 -2945.2	   272.5
     86.5473	   318.0	   345.7	 -2929.5	   272.4
     86.5807	   331.0	   346.0	 -2916.7	   272.4
     86.6141	   324.0	   346.2	 -2924.0	   272.3
     86.6476	   354.0	   346.5	 -2894.3	   272.3
     86.6810	   320.0	   346.8	 -2928.5	   272.2
     86.7144	   313.0	   347.1	 -2935.8	   272.1
     86.7478	   336.0	   347.4	 -2913.1	   272.1
     86.7812	   328.0	   347.7	 -2921.4	   272.0
     86.8147	   360.0	   348.0	 -2889.8	   272.0
     86.8481	   325.0	   348.4	 -2925.1	   271.9
     86.8815	   284.0	   348.7	 -2966.5	   271.9
     86.9149	   325.0	   349.1	 -2925.8	   271.8
     86.9484	   306.0	   349.5	 -2945.2	   271.8
     86.9818	   338.0	   349.9	 -2913.6	   271.7
     87.0152	   363.0	   350.3	 -2889.1	   271.7
     87.0486	   350.0	   350.7	 -2902.5	   271.6
     87.0821	   355.0	   351.2	 -2898.0	   271.6
     87.1155	   393.0	   351.7	 -2860.4	   271.5
     87.1489	   353.0	   352.2	 -2900.9	   271.4
     87.1823	   347.0	   352.7	 -2907.4	   271.4
     87.2157	   353.0	   353.2	 -2902.0	   271.3
     87.2492	   345.0	   353.8	 -2910.6	   271.3
     87.2826	   348.0	   354.4	 -2908.1	   271.2
     87.3160	   363.0	   355.0	 -2893.8	   271.2
     87.3494	   368.0	   355.7	 -2889.4	   271.1
     87.3829	   337.0	   356.3	 -2921.1	   271.1
     87.4163	   344.0	   357.0	 -2914.8	   271.0
     87.4497	   327.0	   357.8	 -2932.5	   271.0
     87.4831	   349.0	   358.0	 -2910.7	   270.9
     87.5165	   338.0	   358.8	 -2922.6	   270.9
     87.5500	   369.0	   359.7	 -2892.4	   270.8
     87.5834	   338.0	   360.6	 -2924.3	   270.7
     87.6168	   337.0	   361.5	 -2926.3	   270.7
     87.6502	   317.0	   362.5	 -2947.2	   270.6
     87.6837	   343.0	   363.5	 -2922.3	   270.6
     87.7171	   365.0	   364.6	 -2901.4	   270.5
     87.7505	   344.0	   365.5	 -2923.2	   270.5
     87.7839	   354.0	   366.7	 -2914.4	   270.4
     87.8174	   329.0	   368.0	 -2940.7	   270.4
     87.8508	   360.0	   369.3	 -2911.0	   270.3
     87.8842	   345.0	   370.7	 -2927.5	   270.3
     87.9176	   375.0	   372.2	 -2898.9	   270.2
     87.9510	   392.0	   373.8	 -2883.5	   270.2
     87.9845	   352.0	   375.4	 -2925.2	   270.1
     88.0179	   374.0	   377.2	 -2904.9	   270.0
     88.0513	   357.0	   379.0	 -2923.8	   270.0
     88.0847	   362.0	   381.0	 -2920.7	   269.9
     88.1181	   354.0	   383.0	 -2930.8	   269.9
     88.1516	   349.0	   385.2	 -2938.0	   269.8
     88.1850	   373.0	   387.6	 -2916.3	   269.8
     88.2184	   381.0	   390.1	 -2910.8	   269.7
     88.2518	   377.0	   392.7	 -2917.4	   269.7
     88.2853	   362.0	   395.5	 -2935.3	   269.6
     88.3187	   378.0	   398.5	 -2922.2	   269.6
     88.3521	   327.0	   401.7	 -2976.4	   269.5
     88.3855	   382.0	   407.5	 -2927.2	   269.5
     88.4190	   381.0	   411.2	 -2931.9	   269.4
     88.4524	   409.0	   415.1	 -2907.8	   269.3
     88.4858	   409.0	   419.3	 -2912.0	   269.3
     88.5192	   381.0	   423.8	 -2944.5	   269.2
     88.5526	   409.0	   428.6	 -2921.4	   269.2
     88.5861	   422.0	   433.8	 -2913.5	   269.1
     88.6195	   377.0	   439.4	 -2964.1	   269.1
     88.6529	   409.0	   445.3	 -2938.1	   269.0
     88.6863	   410.0	   453.0	 -2944.7	   269.0
     88.7198	   414.0	   459.9	 -2947.6	   268.9
     88.7532	   458.0	   467.4	 -2911.1	   268.9
     88.7866	   399.0	   475.4	 -2978.1	   268.8
     88.8200	   412.0	   484.0	 -2973.8	   268.7
     88.8534	   426.0	   493.3	 -2969.1	   268.7
     88.8869	   463.0	   503.3	 -2942.0	   268.6
     88.9203	   465.0	   514.0	 -2950.8	   268.6
     88.9537	   486.0	   525.6	 -2941.3	   268.5
     88.9871	   453.0	   537.9	 -2986.6	   268.5
     89.0206	   489.0	   551.1	 -2963.8	   268.4
     89.0540	   510.0	   565.1	 -2956.9	   268.4
     89.0874	   474.0	   580.0	 -3007.8	   268.3
     89.1208	   509.0	   595.8	 -2988.5	   268.3
     89.1543	   493.0	   612.3	 -3021.1	   268.2
     89.1877	   504.0	   629.6	 -3027.4	   268.2
     89.2211	   512.0	   647.4	 -3037.2	   268.1
     89.2545	   546.0	   665.7	 -3021.4	   268.0
     89.2879	   471.0	   684.1	 -3114.9	   268.0
     89.3214	   586.0	   702.4	 -3018.2	   267.9
     89.3548	   592.0	   720.3	 -3030.0	   267.9
     89.3882	   547.0	   737.3	 -3092.1	   267.8
     89.4216	   611.0	   753.1	 -3043.9	   267.8
     89.4551	   648.0	   767.3	 -3021.1	   267.7
     89.4885	   691.0	   779.5	 -2990.3	   267.7
     89.5219	   723.0	   789.3	 -2968.1	   267.6
     89.5553	   745.0	   796.6	 -2953.4	   267.6
     89.5887	   708.0	   801.1	 -2994.9	   267.5
     89.6222	   663.0	   802.9	 -3041.6	   267.5
     89.6556	   587.0	   801.8	 -3116.6	   267.4
     89.6890	   590.0	   798.2	 -3109.9	   267.3
     89.7224	   646.0	   792.0	 -3047.7	   267.3
     89.7559	   635.0	   783.5	 -3050.2	   267.2
     89.7893	   655.0	   772.9	 -3019.7	   267.2
     89.8227	   650.0	   760.6	 -3012.4	   267.1
     89.8561	   654.0	   746.8	 -2994.5	   267.1
     89.8895	   639.0	   731.7	 -2994.4	   267.0
     89.9230	   618.0	   715.6	 -2999.4	   267.0
     89.9564	   509.0	   698.9	 -3091.7	   266.9
     89.9898	   500.0	   681.8	 -3083.6	   266.9
     90.0232	   583.0	   664.6	 -2983.4	   266.8
     90.0567	   551.0	   647.5	 -2998.2	   266.8
     90.0901	   516.0	   630.7	 -3016.4	   266.7
     90.1235	   477.0	   614.3	 -3039.1	   266.6
     90.1569	   476.0	   598.5	 -3024.3	   266.6
     90.1903	   480.0	   583.5	 -3005.2	   266.5
     90.2238	   464.0	   569.1	 -3006.9	   266.5
     90.2572	   432.0	   555.6	 -3025.4	   266.4
     90.2906	   435.0	   542.9	 -3009.6	   266.4
     90.3240	   451.0	   531.0	 -2981.7	   266.3
     90.3575	   450.0	   519.8	 -2971.6	   266.3
     90.3909	   397.0	   509.4	 -3014.2	   266.2
     90.4243	   406.0	   499.8	 -2995.5	   266.2
     90.4577	   420.0	   490.8	 -2972.6	   266.1
     90.4911	   450.0	   482.5	 -2934.3	   266.0
     90.5246	   426.0	   474.8	 -2950.6	   266.0
     90.5580	   417.0	   467.7	 -2952.4	   265.9
     90.5914	   421.0	   461.1	 -2941.8	   265.9
     90.6248	   433.0	   455.0	 -2923.8	   265.8
     90.6583	   446.0	   449.4	 -2905.1	   265.8
     90.6917	   394.0	   444.2	 -2951.9	   265.7
     90.7251	   385.0	   439.4	 -2956.1	   265.7
     90.7585	   389.0	   434.9	 -2947.7	   265.6
     90.7920	   377.0	   430.9	 -2955.6	   265.6
     90.8254	   403.0	   427.1	 -2925.8	   265.5
     90.8588	   397.0	   423.6	 -2928.4	   265.5
     90.8922	   374.0	   420.4	 -2948.2	   265.4
     90.9256	   365.0	   417.5	 -2954.3	   265.3
     90.9591	   416.0	   414.8	 -2900.6	   265.3
     90.9925	   348.0	   412.3	 -2966.1	   265.2
     91.0259	   385.0	   410.1	 -2926.8	   265.2
     91.0593	   384.0	   408.0	 -2925.8	   265.1
     91.0928	   340.0	   406.2	 -2967.9	   265.1
     91.1262	   389.0	   404.5	 -2917.2	   265.0
     91.1596	   360.0	   403.0	 -2944.7	   265.0
     91.1930	   367.0	   401.6	 -2936.4	   264.9
     91.2264	   381.0	   400.5	 -2921.2	   264.9
     91.2599	   381.0	   399.4	 -2920.2	   264.8
     91.2933	   377.0	   398.5	 -2923.3	   264.8
     91.3267	   388.0	   397.8	 -2911.5	   264.7
     91.3601	   403.0	   397.2	 -2895.9	   264.6
     91.3936	   385.0	   396.7	 -2913.5	   264.6
     91.4270	   419.0	   396.4	 -2879.1	   264.5
     91.4604	   383.0	   396.2	 -2914.9	   264.5
     91.4938	   372.0	   397.6	 -2927.3	   264.4
     91.5273	   369.0	   397.7	 -2930.4	   264.4
     91.5607	   360.0	   397.9	 -2939.7	   264.3
     91.5941	   376.0	   398.3	 -2924.1	   264.3
     91.6275	   373.0	   398.8	 -2927.6	   264.2
     91.6609	   381.0	   399.5	 -2920.3	   264.2
     91.6944	   346.0	   400.4	 -2956.1	   264.1
     91.7278	   323.0	   401.4	 -2980.1	   264.1
     91.7612	   369.0	   402.6	 -2935.3	   264.0
     91.7946	   374.0	   404.6	 -2932.4	   263.9
     91.8281	   375.0	   406.2	 -2932.9	   263.9
     91.8615	   357.0	   407.9	 -2952.7	   263.8
     91.8949	   352.0	   409.9	 -2959.6	   263.8
     91.9283	   339.0	   412.0	 -2974.8	   263.7
     91.9617	   348.0	   414.4	 -2968.2	   263.7
     91.9952	   385.0	   417.1	 -2933.8	   263.6
     92.0286	   375.0	   420.0	 -2946.7	   263.6
     92.0620	   354.0	   423.1	 -2970.9	   263.5
     92.0954	   362.0	   426.6	 -2966.3	   263.5
     92.1289	   364.0	   430.3	 -2968.0	   263.4
     92.1623	   374.0	   434.3	 -2962.1	   263.4
     92.1957	   395.0	   438.6	 -2945.4	   263.3
     92.2291	   360.0	   443.3	 -2985.0	   263.2
     92.2626	   383.0	   448.2	 -2966.9	   263.2
     92.2960	   391.0	   453.4	 -2964.1	   263.1
     92.3294	   372.0	   458.9	 -2988.6	   263.1
     92.3628	   379.0	   464.6	 -2987.3	   263.0
     92.3962	   410.0	   470.5	 -2962.2	   263.0
     92.4297	   382.0	   476.5	 -2996.3	   262.9
     92.4631	   374.0	   482.7	 -3010.4	   262.9
     92.4965	   424.0	   488.7	 -2966.5	   262.8
     92.5299	   379.0	   494.7	 -3017.4	   262.8
     92.5633	   442.0	   500.4	 -2960.1	   262.7
     92.5968	   427.0	   505.7	 -2980.5	   262.6
     92.6302	   417.0	   510.6	 -2995.3	   262.6
     92.6636	   466.0	   514.8	 -2950.6	   262.5
     92.6970	   474.0	   518.4	 -2946.1	   262.5
     92.7305	   469.0	   521.1	 -2953.9	   262.4
     92.7639	   516.0	   523.1	 -2908.8	   262.4
     92.7973	   458.0	   524.2	 -2967.9	   262.3
     92.8307	   472.0	   524.4	 -2954.2	   262.3
     92.8642	   452.0	   523.9	 -2973.6	   262.2
     92.8976	   450.0	   522.5	 -2974.3	   262.2
     92.9310	   454.0	   520.5	 -2968.2	   262.1
     92.9644	   421.0	   517.8	 -2998.5	   262.1
     92.9978	   411.0	   514.5	 -3005.2	   262.0
     93.0313	   470.0	   510.7	 -2942.5	   261.9
     93.0647	   429.0	   506.5	 -2979.3	   261.9
     93.0981	   410.0	   502.0	 -2993.8	   261.8
     93.1315	   432.0	   497.3	 -2967.1	   261.8
     93.1650	   396.0	   492.4	 -2998.2	   261.7
     93.1984	   420.0	   487.5	 -2969.2	   261.7
     93.2318	   417.0	   482.6	 -2967.3	   261.6
     93.2652	   374.0	   477.7	 -3005.5	   261.6
     93.2986	   412.0	   473.0	 -2962.8	   261.5
     93.3321	   419.0	   468.5	 -2951.3	   261.5
     93.3655	   404.0	   464.3	 -2962.0	   261.4
     93.3989	   363.0	   460.3	 -2999.0	   261.4
     93.4323	   422.0	   456.6	 -2936.4	   261.3
     93.4658	   398.0	   453.3	 -2957.0	   261.2
     93.4992	   395.0	   450.2	 -2957.0	   261.2
     93.5326	   391.0	   447.5	 -2958.3	   261.1
     93.5660	   397.0	   445.1	 -2949.9	   261.1
     93.5994	   390.0	   443.1	 -2954.8	   261.0
     93.6329	   425.0	   441.4	 -2918.1	   261.0
     93.6663	   381.0	   440.0	 -2960.7	   260.9
     93.6997	   365.0	   438.9	 -2975.7	   260.9
     93.7331	   358.0	   438.1	 -2981.9	   260.8
     93.7666	   377.0	   437.7	 -2962.4	   260.8
     93.8000	   387.0	   437.5	 -2952.3	   260.7
     93.8334	   402.0	   437.7	 -2937.4	   260.7
     93.8668	   417.0	   438.2	 -2922.9	   260.6
     93.9003	   422.0	   438.9	 -2918.7	   260.5
     93.9337	   392.0	   440.0	 -2949.7	   260.5
     93.9671	   354.0	   441.3	 -2989.1	   260.4
     94.0005	   382.0	   443.0	 -2962.8	   260.4
     94.0339	   381.0	   445.0	 -2965.8	   260.3
     94.0674	   378.0	   447.4	 -2971.1	   260.3
     94.1008	   410.0	   450.0	 -2941.8	   260.2
     94.1342	   382.0	   453.1	 -2972.8	   260.2
     94.1676	   391.0	   456.5	 -2967.2	   260.1
     94.2011	   429.0	   460.2	 -2933.0	   260.1
     94.2345	   425.0	   464.4	 -2941.2	   260.0
     94.2679	   399.0	   469.0	 -2971.8	   259.9
     94.3013	   383.0	   474.1	 -2992.8	   259.9
     94.3347	   396.0	   479.6	 -2985.3	   259.8
     94.3682	   404.0	   485.6	 -2983.4	   259.8
     94.4016	   396.0	   492.1	 -2997.9	   259.7
     94.4350	   379.0	   499.2	 -3022.0	   259.7
     94.4684	   423.0	   506.9	 -2985.7	   259.6
     94.5019	   421.0	   515.2	 -2996.0	   259.6
     94.5353	   436.0	   524.2	 -2990.0	   259.5
     94.5687	   456.0	   533.9	 -2979.6	   259.5
     94.6021	   466.0	   544.2	 -2980.0	   259.4
     94.6355	   454.0	   555.3	 -3003.1	   259.4
     94.6690	   416.0	   567.2	 -3052.9	   259.3
     94.7024	   434.0	   579.8	 -3047.6	   259.2
     94.7358	   451.0	   593.2	 -3044.0	   259.2
     94.7692	   459.0	   607.3	 -3050.1	   259.1
     94.8027	   455.0	   622.2	 -3069.0	   259.1
     94.8361	   499.0	   637.7	 -3040.5	   259.0
     94.8695	   496.0	   653.8	 -3059.6	   259.0
     94.9029	   474.0	   670.3	 -3098.1	   258.9
     94.9363	   483.0	   687.2	 -3105.9	   258.9
     94.9698	   509.0	   704.1	 -3096.8	   258.8
     95.0032	   520.0	   720.8	 -3102.6	   258.8
     95.0366	   518.0	   737.2	 -3120.9	   258.7
     95.0700	   562.0	   752.8	 -3092.5	   258.7
     95.1035	   516.0	   767.3	 -3153.1	   258.6
     95.1369	   596.0	   780.6	 -3086.3	   258.5
     95.1703	   621.0	   792.1	 -3072.9	   258.5
     95.2037	   675.0	   801.8	 -3028.5	   258.4
     95.2372	   748.0	   809.3	 -2963.0	   258.4
     95.2706	   768.0	   814.5	 -2948.3	   258.3
     95.3040	   692.0	   817.4	 -3027.1	   258.3
     95.3374	   625.0	   817.9	 -3094.6	   258.2
     95.3708	   593.0	   816.0	 -3124.8	   258.2
     95.4043	   562.0	   811.9	 -3151.7	   258.1
     95.4377	   595.0	   805.7	 -3112.5	   258.1
     95.4711	   580.0	   797.6	 -3119.4	   258.0
     95.5045	   590.0	   788.8	 -3100.6	   258.0
     95.5380	   622.0	   777.4	 -3057.1	   257.9
     95.5714	   578.0	   764.6	 -3088.4	   257.8
     95.6048	   546.0	   750.8	 -3106.5	   257.8
     95.6382	   570.0	   736.0	 -3067.7	   257.7
     95.6716	   541.0	   720.5	 -3081.3	   257.7
     95.7051	   510.0	   704.6	 -3096.4	   257.6
     95.7385	   504.0	   688.4	 -3086.2	   257.6
     95.7719	   477.0	   672.2	 -3097.0	   257.5
     95.8053	   530.0	   656.1	 -3027.8	   257.5
     95.8388	   435.0	   640.8	 -3107.5	   257.4
     95.8722	   450.0	   625.4	 -3077.1	   257.4
     95.9056	   458.0	   610.4	 -3054.2	   257.3
     95.9390	   450.0	   596.1	 -3047.8	   257.2
     95.9725	   429.0	   582.4	 -3055.2	   257.2
     96.0059	   416.0	   569.4	 -3055.1	   257.1
     96.0393	   435.0	   557.1	 -3023.8	   257.1
     96.0727	   439.0	   545.4	 -3008.2	   257.0
     96.1061	   447.0	   532.4	 -2987.1	   257.0
     96.1396	   423.0	   522.1	 -3000.9	   256.9
     96.1730	   455.0	   512.5	 -2959.3	   256.9
     96.2064	   419.0	   503.6	 -2986.3	   256.8
     96.2398	   411.0	   495.2	 -2986.0	   256.8
     96.2733	   396.0	   487.4	 -2993.2	   256.7
     96.3067	   405.0	   480.2	 -2976.9	   256.7
     96.3401	   410.0	   473.5	 -2965.2	   256.6
     96.3735	   405.0	   467.2	 -2964.0	   256.5
     96.4069	   378.0	   460.3	 -2984.1	   256.5
     96.4404	   418.0	   455.0	 -2938.7	   256.4
     96.4738	   400.0	   450.0	 -2951.8	   256.4
     96.5072	   399.0	   445.4	 -2948.2	   256.3
     96.5406	   391.0	   441.2	 -2951.9	   256.3
     96.5741	   405.0	   437.2	 -2934.0	   256.2
     96.6075	   385.0	   435.5	 -2952.3	   256.2
     96.6409	   365.0	   432.2	 -2969.0	   256.1
     96.6743	   372.0	   429.2	 -2958.9	   256.1
     96.7077	   352.0	   426.4	 -2976.2	   256.0
     96.7412	   377.0	   423.9	 -2948.7	   256.0
     96.7746	   383.0	   421.6	 -2940.4	   255.9
     96.8080	   394.0	   419.6	 -2927.3	   255.8
     96.8414	   338.0	   417.7	 -2981.5	   255.8
     96.8749	   353.0	   416.1	 -2964.8	   255.7
     96.9083	   351.0	   414.6	 -2965.4	   255.7
     96.9417	   391.0	   414.3	 -2925.1	   255.6
     96.9751	   379.0	   413.2	 -2936.0	   255.6
     97.0085	   347.0	   412.4	 -2967.1	   255.5
     97.0420	   395.0	   411.7	 -2918.4	   255.5
     97.0754	   373.0	   411.1	 -2939.9	   255.4
     97.1088	   375.0	   410.8	 -2937.5	   255.4
     97.1422	   395.0	   410.6	 -2917.4	   255.3
     97.1757	   402.0	   410.6	 -2910.4	   255.3
     97.2091	   382.0	   410.8	 -2930.5	   255.2
     97.2425	   390.0	   411.1	 -2922.9	   255.1
     97.2759	   422.0	   411.7	 -2891.4	   255.1
     97.3093	   392.0	   412.4	 -2922.1	   255.0
     97.3428	   347.0	   413.3	 -2968.0	   255.0
     97.3762	   393.0	   414.4	 -2923.2	   254.9
     97.4096	   350.0	   415.7	 -2967.5	   254.9
     97.4430	   389.0	   417.2	 -2930.0	   254.8
     97.4765	   414.0	   418.9	 -2906.7	   254.8
     97.5099	   367.0	   420.9	 -2955.7	   254.7
     97.5433	   372.0	   423.1	 -2952.9	   254.7
     97.5767	   395.0	   425.6	 -2932.3	   254.6
     97.6102	   397.0	   428.3	 -2933.0	   254.6
     97.6436	   363.0	   431.2	 -2970.0	   254.5
     97.6770	   402.0	   434.5	 -2934.3	   254.4
     97.7104	   409.0	   438.1	 -2930.9	   254.4
     97.7438	   382.0	   442.0	 -2961.8	   254.3
     97.7773	   370.0	   446.2	 -2978.0	   254.3
     97.8107	   420.0	   450.8	 -2932.6	   254.2
     97.8441	   419.0	   455.8	 -2938.5	   254.2
     97.8775	   436.0	   461.1	 -2926.9	   254.1
     97.9110	   395.0	   466.9	 -2973.6	   254.1
     97.9444	   420.0	   473.0	 -2954.7	   254.0
     97.9778	   432.0	   479.5	 -2949.3	   254.0
     98.0112	   426.0	   486.5	 -2962.2	   253.9
     98.0446	   434.0	   493.8	 -2961.6	   253.8
     98.0781	   403.0	   501.6	 -3000.3	   253.8
     98.1115	   408.0	   509.7	 -3003.4	   253.7
     98.1449	   417.0	   518.1	 -3002.9	   253.7
     98.1783	   424.0	   526.8	 -3004.5	   253.6
     98.2118	   414.0	   535.7	 -3023.4	   253.6
     98.2452	   436.0	   544.7	 -3010.5	   253.5
     98.2786	   459.0	   553.7	 -2996.5	   253.5
     98.3120	   452.0	   562.6	 -3012.4	   253.4
     98.3455	   457.0	   571.3	 -3016.0	   253.4
     98.3789	   456.0	   579.5	 -3025.3	   253.3
     98.4123	   467.0	   587.2	 -3021.9	   253.3
     98.4457	   512.0	   594.1	 -2983.9	   253.2
     98.4791	   501.0	   600.2	 -3001.0	   253.1
     98.5126	   520.0	   605.3	 -2987.1	   253.1
     98.5460	   483.0	   609.3	 -3028.1	   253.0
     98.5794	   554.0	   612.1	 -2959.9	   253.0
     98.6128	   525.0	   613.7	 -2990.5	   252.9
     98.6463	   471.0	   614.1	 -3044.9	   252.9
     98.6797	   510.0	   613.3	 -3005.0	   252.8
     98.7131	   503.0	   611.2	 -3010.0	   252.8
     98.7465	   476.0	   608.1	 -3033.9	   252.7
     98.7799	   461.0	   603.9	 -3044.7	   252.7
     98.8134	   459.0	   598.8	 -3041.6	   252.6
     98.8468	   463.0	   592.9	 -3031.6	   252.6
     98.8802	   522.0	   586.2	 -2965.9	   252.5
     98.9136	   477.0	   578.8	 -3003.5	   252.4
     98.9471	   530.0	   570.9	 -2942.6	   252.4
     98.9805	   523.0	   562.5	 -2941.3	   252.3
     99.0139	   436.0	   553.9	 -3019.6	   252.3
     99.0473	   455.0	   545.0	 -2991.7	   252.2
     99.0807	   425.0	   536.0	 -3012.7	   252.2
     99.1142	   440.0	   526.9	 -2988.7	   252.1
     99.1476	   447.0	   518.0	 -2972.7	   252.1
     99.1810	   413.0	   509.1	 -2997.9	   252.0
     99.2144	   441.0	   500.5	 -2961.3	   252.0
     99.2479	   428.0	   492.2	 -2965.9	   251.9
     99.2813	   425.0	   484.1	 -2960.9	   251.9
     99.3147	   422.0	   476.4	 -2956.1	   251.8
     99.3481	   381.0	   469.0	 -2989.7	   251.7
     99.3815	   412.0	   461.9	 -2951.7	   251.7
     99.4150	   400.0	   455.3	 -2957.0	   251.6
     99.4484	   418.0	   448.2	 -2931.9	   251.6
     99.4818	   452.0	   442.2	 -2892.0	   251.5
     99.5152	   448.0	   436.6	 -2890.4	   251.5
     99.5487	   394.0	   431.4	 -2939.1	   251.4
     99.5821	   369.0	   426.4	 -2959.2	   251.4
     99.6155	   384.0	   421.8	 -2939.5	   251.3
     99.6489	   389.0	   417.8	 -2930.5	   251.3
     99.6824	   382.0	   413.7	 -2933.5	   251.2
     99.7158	   408.0	   409.9	 -2903.7	   251.1
     99.7492	   400.0	   406.3	 -2908.1	   251.1
     99.7826	   393.0	   402.6	 -2911.4	   251.0
     99.8160	   393.0	   399.5	 -2908.3	   251.0
     99.8495	   367.0	   396.6	 -2931.4	   250.9
     99.8829	   364.0	   393.9	 -2931.7	   250.9
     99.9163	   325.0	   391.4	 -2968.1	   250.8
     99.9497	   370.0	   389.0	 -2920.8	   250.8
     99.9832	   361.0	   387.0	 -2927.7	   250.7
    100.0166	   397.0	   384.9	 -2889.7	   250.7
    100.0500	   346.0	   383.0	 -2938.8	   250.6
    100.0834	   365.0	   381.3	 -2918.0	   250.6
    100.1168	   353.0	   379.6	 -2928.3	   250.5
    100.1503	   374.0	   378.1	 -2905.8	   250.4
    100.1837	   374.0	   376.6	 -2904.4	   250.4
    100.2171	   377.0	   375.3	 -2900.0	   250.3
    100.2505	   320.0	   374.1	 -2955.8	   250.3
    100.2840	   340.0	   372.9	 -2934.7	   250.2
    100.3174	   368.0	   371.9	 -2905.6	   250.2
    100.3508	   346.0	   370.9	 -2926.7	   250.1
    100.3842	   375.0	   370.0	 -2896.8	   250.1
    100.4176	   333.0	   369.2	 -2938.0	   250.0
    100.4511	   349.0	   368.5	 -2921.3	   250.0
    100.4845	   335.0	   367.9	 -2934.6	   249.9
    100.5179	   336.0	   367.3	 -2933.0	   249.9
    100.5513	   342.0	   366.7	 -2926.5	   249.8
    100.5848	   364.0	   366.3	 -2904.0	   249.7
    100.6182	   366.0	   365.9	 -2901.6	   249.7
    100.6516	   352.0	   365.5	 -2915.3	   249.6
    100.6850	   362.0	   365.3	 -2905.0	   249.6
    100.7185	   335.0	   365.1	 -2931.8	   249.5
    100.7519	   361.0	   364.9	 -2905.6	   249.5
    100.7853	   357.0	   364.8	 -2909.5	   249.4
    100.8187	   362.0	   364.7	 -2904.5	   249.4
    100.8521	   332.0	   364.7	 -2934.5	   249.3
    100.8856	   302.0	   364.8	 -2964.6	   249.3
    100.9190	   365.0	   364.9	 -2901.7	   249.2
    100.9524	   368.0	   365.1	 -2898.9	   249.2
    100.9858	   344.0	   365.3	 -2923.1	   249.1
    101.0192	   316.0	   365.6	 -2951.4	   249.0
    101.0527	   352.0	   366.0	 -2915.7	   249.0
    101.0861	   352.0	   366.4	 -2916.1	   248.9
    101.1195	   327.0	   366.9	 -2941.6	   248.9
    101.1529	   381.0	   367.4	 -2888.1	   248.8
    101.1864	   337.0	   368.0	 -2932.7	   248.8
    101.2198	   336.0	   368.7	 -2934.4	   248.7
    101.2532	   380.0	   369.4	 -2891.1	   248.7
    101.2866	   358.0	   370.2	 -2913.9	   248.6
    101.3201	   349.0	   371.1	 -2923.8	   248.6
    101.3535	   372.0	   372.0	 -2901.8	   248.5
    101.3869	   380.0	   373.0	 -2894.8	   248.5
    101.4203	   345.0	   374.1	 -2930.9	   248.4
    101.4537	   317.0	   375.3	 -2960.1	   248.3
    101.4872	   347.0	   376.6	 -2931.4	   248.3
    101.5206	   346.0	   378.0	 -2933.8	   248.2
    101.5540	   343.0	   379.5	 -2938.3	   248.2
    101.5874	   358.0	   381.1	 -2924.8	   248.1
    101.6209	   355.0	   382.8	 -2929.5	   248.1
    101.6543	   366.0	   384.6	 -2920.4	   248.0
    101.6877	   357.0	   386.6	 -2931.3	   248.0
    101.7211	   360.0	   388.6	 -2930.4	   247.9
    101.7545	   353.0	   390.8	 -2939.6	   247.9
    101.7880	   364.0	   393.2	 -2931.0	   247.8
    101.8214	   365.0	   395.7	 -2932.5	   247.7
    101.8548	   364.0	   398.4	 -2936.2	   247.7
    101.8882	   407.0	   401.3	 -2896.0	   247.6
    101.9217	   376.0	   404.3	 -2930.0	   247.6
    101.9551	   388.0	   407.5	 -2921.3	   247.5
    101.9885	   344.0	   411.0	 -2968.7	   247.5
    102.0219	   347.0	   414.6	 -2969.4	   247.4
    102.0554	   381.0	   418.5	 -2939.3	   247.4
    102.0888	   385.0	   422.6	 -2939.4	   247.3
    102.1222	   400.0	   424.6	 -2926.4	   247.3
    102.1556	   374.0	   429.3	 -2957.0	   247.2
    102.1890	   377.0	   434.2	 -2958.9	   247.2
    102.2225	   416.0	   439.4	 -2925.1	   247.1
    102.2559	   429.0	   444.9	 -2917.6	   247.0
    102.2893	   422.0	   450.6	 -2930.4	   247.0
    102.3227	   420.0	   457.8	 -2939.6	   246.9
    102.3562	   420.0	   464.2	 -2945.9	   246.9
    102.3896	   438.0	   470.8	 -2934.5	   246.8
    102.4230	   383.0	   477.6	 -2996.4	   246.8
    102.4564	   387.0	   483.5	 -2998.3	   246.7
    102.4898	   417.0	   490.9	 -2975.6	   246.7
    102.5233	   417.0	   498.3	 -2983.1	   246.6
    102.5567	   422.0	   505.9	 -2985.7	   246.6
    102.5901	   454.0	   513.6	 -2961.4	   246.5
    102.6235	   414.0	   521.3	 -3009.0	   246.5
    102.6570	   446.0	   528.8	 -2984.6	   246.4
    102.6904	   440.0	   536.8	 -2998.6	   246.3
    102.7238	   471.0	   544.0	 -2974.8	   246.3
    102.7572	   446.0	   550.9	 -3006.7	   246.2
    102.7906	   526.0	   557.4	 -2933.2	   246.2
    102.8241	   495.0	   563.5	 -2970.2	   246.1
    102.8575	   512.0	   569.1	 -2958.8	   246.1
    102.8909	   533.0	   574.1	 -2942.9	   246.0
    102.9243	   513.0	   578.7	 -2967.4	   246.0
    102.9578	   500.0	   582.6	 -2984.4	   245.9
    102.9912	   474.0	   586.1	 -3013.9	   245.9
    103.0246	   458.0	   589.1	 -3032.9	   245.8
    103.0580	   494.0	   591.7	 -2999.4	   245.8
    103.0915	   465.0	   593.9	 -3030.6	   245.7
    103.1249	   466.0	   595.7	 -3031.4	   245.6
    103.1583	   463.0	   597.3	 -3036.0	   245.6
    103.1917	   495.0	   598.7	 -3005.4	   245.5
    103.2251	   478.0	   599.9	 -3023.7	   245.5
    103.2586	   459.0	   601.1	 -3043.9	   245.4
    103.2920	   506.0	   602.3	 -2998.1	   245.4
    103.3254	   538.0	   603.7	 -2967.4	   245.3
    103.3588	   455.0	   605.1	 -3051.9	   245.3
    103.3923	   551.0	   606.9	 -2957.6	   245.2
    103.4257	   454.0	   608.9	 -3056.6	   245.2
    103.4591	   470.0	   611.2	 -3043.0	   245.1
    103.4925	   465.0	   614.0	 -3050.7	   245.0
    103.5259	   492.0	   617.2	 -3026.9	   245.0
    103.5594	   540.0	   620.8	 -2982.6	   244.9
    103.5928	   464.0	   625.0	 -3062.7	   244.9
    103.6262	   466.0	   629.5	 -3065.3	   244.8
    103.6596	   481.0	   634.5	 -3055.3	   244.8
    103.6931	   508.0	   639.9	 -3033.6	   244.7
    103.7265	   555.0	   645.6	 -2992.3	   244.7
    103.7599	   529.0	   651.5	 -3024.2	   244.6
    103.7933	   503.0	   657.5	 -3056.2	   244.6
    103.8267	   548.0	   663.5	 -3017.2	   244.5
    103.8602	   531.0	   669.3	 -3040.1	   244.5
    103.8936	   574.0	   674.9	 -3002.6	   244.4
    103.9270	   565.0	   680.0	 -3016.7	   244.3
    103.9604	   596.0	   684.5	 -2990.3	   244.3
    103.9939	   604.0	   688.3	 -2986.1	   244.2
    104.0273	   640.0	   691.2	 -2953.0	   244.2
    104.0607	   600.0	   693.2	 -2995.0	   244.1
    104.0941	   642.0	   694.2	 -2953.9	   244.1
    104.1275	   648.0	   694.1	 -2947.8	   244.0
    104.1610	   626.0	   692.8	 -2968.6	   244.0
    104.1944	   605.0	   690.5	 -2987.3	   243.9
    104.2278	   583.0	   687.1	 -3005.9	   243.9
    104.2612	   553.0	   682.7	 -3031.4	   243.8
    104.2947	   524.0	   677.2	 -3055.0	   243.8
    104.3281	   576.0	   670.9	 -2996.7	   243.7
    104.3615	   602.0	   663.7	 -2963.5	   243.6
    104.3949	   540.0	   655.8	 -3017.6	   243.6
    104.4284	   538.0	   647.2	 -3011.0	   243.5
    104.4618	   550.0	   638.0	 -2989.8	   243.5
    104.4952	   587.0	   628.4	 -2943.1	   243.4
    104.5286	   544.0	   618.3	 -2976.1	   243.4
    104.5620	   529.0	   607.9	 -2980.7	   243.3
    104.5955	   488.0	   597.4	 -3011.1	   243.3
    104.6289	   509.0	   586.7	 -2979.4	   243.2
    104.6623	   507.0	   576.0	 -2970.7	   243.2
    104.6957	   495.0	   565.3	 -2972.0	   243.1
    104.7292	   510.0	   554.7	 -2946.5	   243.1
    104.7626	   437.0	   544.4	 -3009.1	   243.0
    104.7960	   427.0	   534.3	 -3009.0	   242.9
    104.8294	   473.0	   524.4	 -2953.2	   242.9
    104.8628	   446.0	   514.9	 -2970.7	   242.8
    104.8963	   453.0	   505.8	 -2954.5	   242.8
    104.9297	   425.0	   497.0	 -2973.8	   242.7
    104.9631	   461.0	   488.6	 -2929.4	   242.7
    104.9965	   441.0	   480.6	 -2941.3	   242.6
    105.0300	   393.0	   473.0	 -2981.7	   242.6
    105.0634	   448.0	   472.6	 -2926.4	   242.5
    105.0968	   453.0	   465.8	 -2914.5	   242.5
    105.1302	   427.0	   459.3	 -2934.0	   242.4
    105.1637	   394.0	   453.1	 -2960.9	   242.4
    105.1971	   404.0	   447.3	 -2945.1	   242.3
    105.2305	   367.0	   441.9	 -2976.6	   242.2
    105.2639	   412.0	   436.7	 -2926.4	   242.2
    105.2973	   396.0	   431.8	 -2937.6	   242.1
    105.3308	   405.0	   427.2	 -2924.0	   242.1
    105.3642	   399.0	   422.9	 -2925.6	   242.0
    105.3976	   416.0	   418.8	 -2904.6	   242.0
    105.4310	   407.0	   415.0	 -2909.7	   241.9
    105.4644	   405.0	   411.4	 -2908.1	   241.9
    105.4979	   382.0	   408.0	 -2927.7	   241.8
    105.5313	   390.0	   404.8	 -2916.5	   241.8
    105.5647	   359.0	   401.7	 -2944.5	   241.7
    105.5981	   383.0	   398.9	 -2917.7	   241.6
    105.6316	   364.0	   394.8	 -2932.6	   241.6
    105.6650	   370.0	   392.3	 -2924.1	   241.5
    105.6984	   389.0	   390.0	 -2902.7	   241.5
    105.7318	   343.0	   387.8	 -2946.6	   241.4
    105.7653	   365.0	   385.8	 -2922.5	   241.4
    105.7987	   359.0	   383.8	 -2926.6	   241.3
    105.8321	   362.0	   382.0	 -2921.8	   241.3
    105.8655	   388.0	   380.4	 -2894.1	   241.2
    105.8989	   410.0	   378.8	 -2870.6	   241.2
    105.9324	   366.0	   377.4	 -2913.1	   241.1
    105.9658	   352.0	   376.0	 -2925.8	   241.1
    105.9992	   357.0	   374.0	 -2918.8	   241.0
    106.0326	   347.0	   372.9	 -2927.7	   240.9
    106.0661	   361.0	   371.9	 -2912.6	   240.9
    106.0995	   367.0	   370.9	 -2905.7	   240.8
    106.1329	   333.0	   370.0	 -2938.8	   240.8
    106.1663	   392.0	   369.3	 -2879.0	   240.7
    106.1997	   342.0	   368.6	 -2928.3	   240.7
    106.2332	   377.0	   368.0	 -2892.7	   240.6
    106.2666	   381.0	   367.5	 -2888.2	   240.6
    106.3000	   331.0	   367.0	 -2937.8	   240.5
    106.3334	   385.0	   366.7	 -2883.4	   240.5
    106.3669	   339.0	   366.4	 -2929.2	   240.4
    106.4003	   325.0	   366.2	 -2943.0	   240.4
    106.4337	   331.0	   366.1	 -2936.9	   240.3
    106.4671	   376.0	   366.1	 -2891.9	   240.2
    106.5005	   324.0	   366.2	 -2943.9	   240.2
    106.5340	   351.0	   366.3	 -2917.1	   240.1
    106.5674	   340.0	   366.6	 -2928.3	   240.1
    106.6008	   380.0	   366.9	 -2888.6	   240.0
    106.6342	   350.0	   367.3	 -2919.1	   240.0
    106.6677	   329.0	   367.8	 -2940.5	   239.9
    106.7011	   383.0	   368.4	 -2887.1	   239.9
    106.7345	   351.0	   369.0	 -2919.8	   239.8
    106.7679	   358.0	   369.8	 -2913.5	   239.8
    106.8014	   379.0	   370.6	 -2893.4	   239.7
    106.8348	   331.0	   371.5	 -2942.3	   239.7
    106.8682	   352.0	   372.5	 -2922.2	   239.6
    106.9016	   330.0	   373.5	 -2945.3	   239.5
    106.9350	   318.0	   374.6	 -2958.4	   239.5
    106.9685	   333.0	   375.8	 -2944.6	   239.4
    107.0019	   364.0	   377.0	 -2914.7	   239.4
    107.0353	   367.0	   378.2	 -2913.0	   239.3
    107.0687	   344.0	   379.5	 -2937.2	   239.3
    107.1022	   352.0	   380.7	 -2930.4	   239.2
    107.1356	   331.0	   381.9	 -2952.7	   239.2
    107.1690	   343.0	   383.1	 -2941.8	   239.1
    107.2024	   320.0	   384.2	 -2965.9	   239.1
    107.2358	   325.0	   385.2	 -2962.0	   239.0
    107.2693	   381.0	   386.1	 -2906.9	   238.9
    107.3027	   353.0	   386.9	 -2935.7	   238.9
    107.3361	   337.0	   387.6	 -2952.4	   238.8
    107.3695	   364.0	   388.1	 -2925.9	   238.8
    107.4030	   349.0	   388.5	 -2941.3	   238.7
    107.4364	   335.0	   388.7	 -2955.5	   238.7
    107.4698	   370.0	   388.8	 -2920.5	   238.6
    107.5032	   359.0	   388.7	 -2931.4	   238.6
    107.5367	   349.0	   388.4	 -2941.2	   238.5
    107.5701	   367.0	   388.0	 -2922.7	   238.5
    107.6035	   353.0	   387.4	 -2936.2	   238.4
    107.6369	   330.0	   386.7	 -2958.5	   238.4
    107.6703	   376.0	   385.9	 -2911.7	   238.3
    107.7038	   339.0	   385.0	 -2947.8	   238.2
    107.7372	   380.0	   384.0	 -2905.8	   238.2
    107.7706	   366.0	   382.9	 -2918.7	   238.1
    107.8040	   336.0	   381.7	 -2947.5	   238.1
    107.8374	   353.0	   380.5	 -2929.3	   238.0
    107.8709	   351.0	   379.3	 -2930.0	   238.0
    107.9043	   346.0	   378.0	 -2933.7	   237.9
    107.9377	   336.0	   376.6	 -2942.4	   237.9
    107.9711	   330.0	   375.3	 -2947.1	   237.8
    108.0046	   357.0	   374.0	 -2918.8	   237.8
    108.0380	   332.0	   372.7	 -2942.5	   237.7
    108.0714	   345.0	   371.5	 -2928.3	   237.7
    108.1048	   333.0	   370.3	 -2939.0	   237.6
    108.1383	   361.0	   369.1	 -2909.9	   237.5
    108.1717	   340.0	   368.1	 -2929.8	   237.5
    108.2051	   325.0	   367.0	 -2943.8	   237.4
    108.2385	   352.0	   366.1	 -2915.8	   237.4
    108.2719	   331.0	   365.2	 -2935.9	   237.3
    108.3054	   347.0	   364.4	 -2919.1	   237.3
    108.3388	   306.0	   363.7	 -2959.4	   237.2
    108.3722	   345.0	   363.0	 -2919.8	   237.2
    108.4056	   325.0	   362.5	 -2939.2	   237.1
    108.4391	   354.0	   362.0	 -2909.7	   237.1
    108.4725	   336.0	   361.6	 -2927.3	   237.0
    108.5059	   342.0	   361.3	 -2921.0	   237.0
    108.5393	   344.0	   361.1	 -2918.8	   236.9
    108.5727	   328.0	   360.9	 -2934.7	   236.8
    108.6062	   330.0	   360.9	 -2932.6	   236.8
    108.6396	   309.0	   360.9	 -2953.7	   236.7
    108.6730	   312.0	   361.1	 -2950.8	   236.7
    108.7064	   353.0	   361.3	 -2910.0	   236.6
    108.7399	   338.0	   361.6	 -2925.3	   236.6
    108.7733	   333.0	   362.0	 -2930.7	   236.5
    108.8067	   334.0	   362.4	 -2930.2	   236.5
    108.8401	   332.0	   363.0	 -2932.8	   236.4
    108.8736	   347.0	   363.7	 -2918.4	   236.4
    108.9070	   315.0	   364.4	 -2951.2	   236.3
    108.9404	   334.0	   365.3	 -2933.0	   236.2
    108.9738	   366.0	   366.2	 -2902.0	   236.2
    109.0072	   333.0	   367.3	 -2936.0	   236.1
    109.0407	   369.0	   368.4	 -2901.2	   236.1
    109.0741	   366.0	   369.7	 -2905.5	   236.0
    109.1075	   374.0	   371.1	 -2898.9	   236.0
    109.1409	   342.0	   372.6	 -2932.4	   235.9
    109.1744	   339.0	   374.2	 -2937.0	   235.9
    109.2078	   336.0	   376.0	 -2941.7	   235.8
    109.2412	   330.0	   377.9	 -2949.6	   235.8
    109.2746	   334.0	   379.9	 -2947.7	   235.7
    109.3080	   336.0	   382.1	 -2947.8	   235.7
    109.3415	   331.0	   384.4	 -2955.1	   235.6
    109.3749	   369.0	   386.9	 -2919.6	   235.5
    109.4083	   322.0	   389.5	 -2969.2	   235.5
    109.4417	   315.0	   392.3	 -2979.0	   235.4
    109.4752	   372.0	   395.3	 -2925.0	   235.4
    109.5086	   358.0	   398.4	 -2942.2	   235.3
    109.5420	   364.0	   401.7	 -2939.5	   235.3
    109.5754	   355.0	   405.2	 -2952.0	   235.2
    109.6088	   363.0	   408.9	 -2947.7	   235.2
    109.6423	   374.0	   412.8	 -2940.6	   235.1
    109.6757	   368.0	   416.9	 -2950.7	   235.1
    109.7091	   397.0	   421.2	 -2925.9	   235.0
    109.7425	   304.0	   425.6	 -3023.4	   235.0
    109.7760	   373.0	   430.2	 -2959.0	   234.9
    109.8094	   355.0	   435.0	 -2981.7	   234.8
    109.8428	   395.0	   439.9	 -2946.6	   234.8
    109.8762	   391.0	   444.9	 -2955.6	   234.7
    109.9096	   361.0	   450.0	 -2990.7	   234.7
    109.9431	   367.0	   455.1	 -2989.9	   234.6
    109.9765	   353.0	   460.3	 -3009.0	   234.6
    110.0099	   411.0	   465.4	 -2956.2	   234.5
    110.0433	   353.0	   470.4	 -3019.2	   234.5
    110.0768	   404.0	   475.4	 -2973.1	   234.4
    110.1102	   394.0	   480.1	 -2987.8	   234.4
    110.1436	   362.0	   484.5	 -3024.3	   234.3
    110.1770	   412.0	   488.7	 -2978.4	   234.3
    110.2104	   409.0	   492.4	 -2985.2	   234.2
    110.2439	   437.0	   495.8	 -2960.5	   234.1
    110.2773	   424.0	   497.6	 -2975.4	   234.1
    110.3107	   493.0	   500.0	 -2908.8	   234.0
    110.3441	   471.0	   501.8	 -2932.6	   234.0
    110.3776	   467.0	   503.1	 -2937.9	   233.9
    110.4110	   424.0	   503.8	 -2981.6	   233.9
    110.4444	   424.0	   504.0	 -2981.7	   233.8
    110.4778	   407.0	   503.6	 -2998.3	   233.8
    110.5113	   441.0	   502.6	 -2963.4	   233.7
    110.5447	   394.0	   501.2	 -3008.9	   233.7
    110.5781	   420.0	   499.2	 -2981.0	   233.6
    110.6115	   433.0	   496.8	 -2965.6	   233.6
    110.6449	   393.0	   493.5	 -3002.2	   233.5
    110.6784	   408.0	   490.3	 -2984.0	   233.4
    110.7118	   412.0	   486.7	 -2976.5	   233.4
    110.7452	   427.0	   482.8	 -2957.6	   233.3
    110.7786	   408.0	   478.7	 -2972.4	   233.3
    110.8121	   439.0	   474.3	 -2937.0	   233.2
    110.8455	   418.0	   469.7	 -2953.4	   233.2
    110.8789	   399.0	   464.9	 -2967.7	   233.1
    110.9123	   377.0	   460.1	 -2984.8	   233.1
    110.9457	   376.0	   455.1	 -2980.9	   233.0
    110.9792	   366.0	   450.2	 -2985.9	   233.0
    111.0126	   366.0	   445.2	 -2980.9	   232.9
    111.0460	   408.0	   440.2	 -2934.0	   232.8
    111.0794	   349.0	   435.3	 -2988.1	   232.8
    111.1129	   329.0	   430.5	 -3003.3	   232.7
    111.1463	   346.0	   425.8	 -2981.6	   232.7
    111.1797	   391.0	   421.2	 -2932.0	   232.6
    111.2131	   373.0	   416.8	 -2945.5	   232.6
    111.2466	   363.0	   412.5	 -2951.2	   232.5
    111.2800	   393.0	   408.3	 -2917.1	   232.5
    111.3134	   345.0	   404.4	 -2961.1	   232.4
    111.3468	   357.0	   400.6	 -2945.3	   232.4
    111.3802	   363.0	   396.9	 -2935.7	   232.3
    111.4137	   319.0	   393.4	 -2976.2	   232.3
    111.4471	   349.0	   390.1	 -2942.9	   232.2
    111.4805	   357.0	   387.0	 -2931.7	   232.1
    111.5139	   344.0	   384.0	 -2941.7	   232.1
    111.5474	   361.0	   379.2	 -2920.0	   232.0
    111.5808	   357.0	   376.6	 -2921.3	   232.0
    111.6142	   368.0	   374.0	 -2907.8	   231.9
    111.6476	   323.0	   371.6	 -2950.4	   231.9
    111.6810	   357.0	   369.3	 -2914.1	   231.8
    111.7145	   312.0	   367.2	 -2956.9	   231.8
    111.7479	   301.0	   365.2	 -2965.9	   231.7
    111.7813	   342.0	   363.3	 -2923.0	   231.7
    111.8147	   362.0	   361.4	 -2901.2	   231.6
    111.8482	   345.0	   359.7	 -2916.5	   231.6
    111.8816	   344.0	   358.1	 -2915.9	   231.5
    111.9150	   349.0	   356.6	 -2909.4	   231.4
    111.9484	   347.0	   354.3	 -2909.0	   231.4
    111.9818	   322.0	   352.9	 -2932.7	   231.3
    112.0153	   349.0	   351.7	 -2904.4	   231.3
    112.0487	   305.0	   350.5	 -2947.2	   231.2
    112.0821	   354.0	   349.4	 -2897.1	   231.2
    112.1155	   346.0	   348.3	 -2904.1	   231.1
    112.1490	   338.0	   347.4	 -2911.1	   231.1
    112.1824	   322.0	   346.5	 -2926.2	   231.0
    112.2158	   338.0	   345.6	 -2909.4	   231.0
    112.2492	   325.0	   344.8	 -2921.6	   230.9
    112.2826	   323.0	   344.1	 -2922.8	   230.9
    112.3161	   312.0	   343.4	 -2933.1	   230.8
    112.3495	   308.0	   342.7	 -2936.5	   230.7
    112.3829	   343.0	   342.1	 -2900.9	   230.7
    112.4163	   319.0	   341.6	 -2924.3	   230.6
    112.4498	   312.0	   341.1	 -2930.8	   230.6
    112.4832	   286.0	   340.6	 -2956.3	   230.5
    112.5166	   352.0	   340.2	 -2889.9	   230.5
    112.5500	   361.0	   339.8	 -2880.5	   230.4
    112.5835	   308.0	   339.4	 -2933.2	   230.4
    112.6169	   315.0	   339.1	 -2925.9	   230.3
    112.6503	   351.0	   338.8	 -2889.6	   230.3
    112.6837	   287.0	   338.6	 -2953.3	   230.2
    112.7171	   334.0	   338.4	 -2906.1	   230.1
    112.7506	   298.0	   338.2	 -2941.9	   230.1
    112.7840	   325.0	   338.0	 -2914.8	   230.0
    112.8174	   315.0	   337.9	 -2924.7	   230.0
    112.8508	   322.0	   337.8	 -2917.6	   229.9
    112.8843	   328.0	   337.8	 -2911.5	   229.9
    112.9177	   357.0	   337.8	 -2882.5	   229.8
    112.9511	   347.0	   337.8	 -2892.5	   229.8
    112.9845	   321.0	   337.8	 -2918.5	   229.7
    113.0179	   357.0	   337.9	 -2882.6	   229.7
    113.0514	   322.0	   337.9	 -2917.7	   229.6
    113.0848	   332.0	   338.1	 -2907.8	   229.6
    113.1182	   279.0	   338.2	 -2961.0	   229.5
    113.1516	   303.0	   338.4	 -2937.1	   229.4
    113.1851	   324.0	   338.6	 -2916.3	   229.4
    113.2185	   340.0	   338.8	 -2900.6	   229.3
    113.2519	   327.0	   339.1	 -2913.8	   229.3
    113.2853	   327.0	   339.4	 -2914.1	   229.2
    113.3187	   313.0	   339.7	 -2928.4	   229.2
    113.3522	   343.0	   340.0	 -2898.8	   229.1
    113.3856	   350.0	   340.4	 -2892.1	   229.1
    113.4190	   290.0	   340.8	 -2952.5	   229.0
    113.4524	   337.0	   341.2	 -2906.0	   229.0
    113.4859	   367.0	   341.7	 -2876.5	   228.9
    113.5193	   324.0	   342.2	 -2920.0	   228.9
    113.5527	   346.0	   342.7	 -2898.5	   228.8
    113.5861	   294.0	   343.3	 -2951.1	   228.7
    113.6196	   334.0	   343.9	 -2911.7	   228.7
    113.6530	   292.0	   344.5	 -2954.3	   228.6
    113.6864	   334.0	   345.2	 -2913.0	   228.6
    113.7198	   319.0	   345.9	 -2928.7	   228.5
    113.7532	   360.0	   346.7	 -2888.4	   228.5
    113.7867	   345.0	   347.5	 -2904.2	   228.4
    113.8201	   337.0	   348.3	 -2913.1	   228.4
    113.8535	   358.0	   349.2	 -2892.9	   228.3
    113.8869	   320.0	   350.1	 -2931.8	   228.3
    113.9204	   367.0	   351.1	 -2885.8	   228.2
    113.9538	   354.0	   352.1	 -2899.8	   228.2
    113.9872	   306.0	   353.1	 -2948.9	   228.1
    114.0206	   334.0	   354.2	 -2922.0	   228.0
    114.0540	   365.0	   355.4	 -2892.2	   228.0
    114.0875	   315.0	   356.6	 -2943.4	   227.9
    114.1209	   331.0	   357.9	 -2928.7	   227.9
    114.1543	   324.0	   359.3	 -2937.0	   227.8
    114.1877	   325.0	   360.7	 -2937.4	   227.8
    114.2212	   306.0	   362.1	 -2957.9	   227.7
    114.2546	   353.0	   363.7	 -2912.4	   227.7
    114.2880	   370.0	   365.3	 -2897.0	   227.6
    114.3214	   355.0	   367.0	 -2913.7	   227.6
    114.3548	   325.0	   368.7	 -2945.5	   227.5
    114.3883	   293.0	   370.6	 -2979.3	   227.5
    114.4217	   377.0	   372.5	 -2897.3	   227.4
    114.4551	   359.0	   374.6	 -2917.3	   227.3
    114.4885	   340.0	   376.7	 -2938.5	   227.3
    114.5220	   360.0	   378.9	 -2920.7	   227.2
    114.5554	   370.0	   381.3	 -2913.0	   227.2
    114.5888	   376.0	   383.7	 -2909.5	   227.1
    114.6222	   394.0	   386.3	 -2894.1	   227.1
    114.6556	   357.0	   389.0	 -2933.8	   227.0
    114.6891	   382.0	   391.8	 -2911.6	   227.0
    114.7225	   348.0	   394.8	 -2948.6	   226.9
    114.7559	   351.0	   397.9	 -2948.7	   226.9
    114.7893	   376.0	   401.2	 -2926.9	   226.8
    114.8228	   370.0	   404.6	 -2936.4	   226.7
    114.8562	   340.0	   408.2	 -2969.9	   226.7
    114.8896	   368.0	   412.0	 -2945.7	   226.6
    114.9230	   365.0	   415.9	 -2952.7	   226.6
    114.9565	   368.0	   420.1	 -2953.8	   226.5
    114.9899	   424.0	   424.4	 -2902.2	   226.5
    115.0233	   397.0	   429.0	 -2933.8	   226.4
    115.0567	   360.0	   433.8	 -2975.6	   226.4
    115.0901	   375.0	   438.9	 -2965.6	   226.3
    115.1236	   413.0	   443.8	 -2932.6	   226.3
    115.1570	   336.0	   449.4	 -3015.1	   226.2
    115.1904	   396.0	   455.2	 -2960.9	   226.2
    115.2238	   411.0	   461.3	 -2952.0	   226.1
    115.2573	   385.0	   467.7	 -2984.4	   226.0
    115.2907	   427.0	   474.3	 -2949.1	   226.0
    115.3241	   380.0	   481.3	 -3003.1	   225.9
    115.3575	   396.0	   488.6	 -2994.4	   225.9
    115.3909	   399.0	   496.2	 -2999.0	   225.8
    115.4244	   427.0	   504.2	 -2978.9	   225.8
    115.4578	   397.0	   512.4	 -3017.2	   225.7
    115.4912	   436.0	   521.0	 -2986.8	   225.7
    115.5246	   458.0	   529.9	 -2973.7	   225.6
    115.5581	   434.0	   539.0	 -3006.7	   225.6
    115.5915	   486.0	   548.5	 -2964.3	   225.5
    115.6249	   463.0	   558.3	 -2997.1	   225.5
    115.6583	   400.0	   568.4	 -3070.1	   225.4
    115.6917	   473.0	   578.6	 -3007.4	   225.3
    115.7252	   468.0	   589.1	 -3022.8	   225.3
    115.7586	   466.0	   599.6	 -3035.4	   225.2
    115.7920	   462.0	   610.3	 -3050.0	   225.2
    115.8254	   443.0	   620.9	 -3079.7	   225.1
    115.8589	   482.0	   631.5	 -3051.3	   225.1
    115.8923	   510.0	   642.0	 -3033.8	   225.0
    115.9257	   497.0	   652.2	 -3057.0	   225.0
    115.9591	   504.0	   662.1	 -3059.9	   224.9
    115.9926	   481.0	   671.6	 -3092.4	   224.9
    116.0260	   494.0	   680.6	 -3088.3	   224.8
    116.0594	   542.0	   688.9	 -3048.7	   224.8
    116.0928	   521.0	   696.6	 -3077.4	   224.7
    116.1262	   602.0	   703.5	 -3003.2	   224.6
    116.1597	   636.0	   709.5	 -2975.2	   224.6
    116.1931	   657.0	   714.6	 -2959.3	   224.5
    116.2265	   605.0	   718.7	 -3015.4	   224.5
    116.2599	   673.0	   721.8	 -2950.5	   224.4
    116.2934	   612.0	   723.9	 -3013.6	   224.4
    116.3268	   580.0	   724.9	 -3046.7	   224.3
    116.3602	   568.0	   725.0	 -3058.7	   224.3
    116.3936	   566.0	   724.0	 -3059.8	   224.2
    116.4270	   525.0	   722.1	 -3098.8	   224.2
    116.4605	   530.0	   719.2	 -3090.9	   224.1
    116.4939	   511.0	   715.4	 -3106.2	   224.0
    116.5273	   521.0	   710.9	 -3091.6	   224.0
    116.5607	   522.0	   705.5	 -3085.2	   223.9
    116.5942	   554.0	   699.4	 -3047.1	   223.9
    116.6276	   518.0	   692.6	 -3076.4	   223.8
    116.6610	   578.0	   685.2	 -3009.0	   223.8
    116.6944	   603.0	   677.3	 -2976.1	   223.7
    116.7278	   544.0	   668.9	 -3026.7	   223.7
    116.7613	   554.0	   660.1	 -3007.8	   223.6
    116.7947	   506.0	   650.9	 -3046.7	   223.6
    116.8281	   485.0	   641.5	 -3058.2	   223.5
    116.8615	   496.0	   631.8	 -3037.5	   223.5
    116.8950	   484.0	   622.0	 -3039.7	   223.4
    116.9284	   431.0	   612.0	 -3082.8	   223.3
    116.9618	   426.0	   602.0	 -3077.8	   223.3
    116.9952	   443.0	   592.1	 -3050.8	   223.2
    117.0286	   421.0	   582.2	 -3062.9	   223.2
    117.0621	   434.0	   572.4	 -3040.2	   223.1
    117.0955	   425.0	   562.8	 -3039.5	   223.1
    117.1289	   425.0	   553.3	 -3030.1	   223.0
    117.1623	   414.0	   544.1	 -3031.8	   223.0
    117.1958	   400.0	   535.1	 -3036.9	   222.9
    117.2292	   399.0	   526.4	 -3029.1	   222.9
    117.2626	   414.0	   517.9	 -3005.7	   222.8
    117.2960	   417.0	   509.7	 -2994.5	   222.8
    117.3295	   440.0	   501.8	 -2963.6	   222.7
    117.3629	   382.0	   494.3	 -3014.0	   222.6
    117.3963	   427.0	   487.0	 -2961.7	   222.6
    117.4297	   392.0	   480.0	 -2989.7	   222.5
    117.4631	   383.0	   473.3	 -2992.0	   222.5
    117.4966	   416.0	   466.9	 -2952.6	   222.4
    117.5300	   396.0	   460.7	 -2966.5	   222.4
    117.5634	   405.0	   454.9	 -2951.6	   222.3
    117.5968	   377.0	   449.3	 -2974.1	   222.3
    117.6303	   390.0	   444.0	 -2955.7	   222.2
    117.6637	   416.0	   438.9	 -2924.6	   222.2
    117.6971	   372.0	   434.0	 -2963.8	   222.1
    117.7305	   383.0	   429.4	 -2948.2	   222.1
    117.7639	   366.0	   425.0	 -2960.8	   222.0
    117.7974	   369.0	   420.9	 -2953.6	   221.9
    117.8308	   355.0	   416.9	 -2963.6	   221.9
    117.8642	   374.0	   413.1	 -2940.9	   221.8
    117.8976	   392.0	   409.5	 -2919.3	   221.8
    117.9311	   373.0	   406.1	 -2934.8	   221.7
    117.9645	   385.0	   402.8	 -2919.6	   221.7
    117.9979	   381.0	   399.8	 -2920.5	   221.6
    118.0313	   377.0	   396.8	 -2921.6	   221.6
    118.0648	   387.0	   394.0	 -2908.8	   221.5
    118.0982	   367.0	   391.4	 -2926.1	   221.5
    118.1316	   334.0	   388.9	 -2956.6	   221.4
    118.1650	   420.0	   386.5	 -2868.2	   221.3
    118.1984	   393.0	   384.2	 -2893.0	   221.3
    118.2319	   367.0	   382.1	 -2916.8	   221.2
    118.2653	   387.0	   380.0	 -2894.8	   221.2
    118.2987	   350.0	   378.1	 -2929.8	   221.1
    118.3321	   347.0	   376.3	 -2931.0	   221.1
    118.3656	   332.0	   373.4	 -2943.1	   221.0
    118.3990	   346.0	   371.8	 -2927.5	   221.0
    118.4324	   359.0	   370.2	 -2913.0	   220.9
    118.4658	   335.0	   368.8	 -2935.5	   220.9
    118.4992	   346.0	   367.4	 -2923.2	   220.8
    118.5327	   349.0	   366.1	 -2918.9	   220.8
    118.5661	   316.0	   364.9	 -2950.6	   220.7
    118.5995	   331.0	   363.8	 -2934.5	   220.6
    118.6329	   343.0	   362.7	 -2921.4	   220.6
    118.6664	   316.0	   361.7	 -2947.5	   220.5
    118.6998	   333.0	   360.8	 -2929.5	   220.5
    118.7332	   362.0	   359.9	 -2899.7	   220.4
    118.7666	   362.0	   359.1	 -2898.9	   220.4
    118.8000	   363.0	   357.8	 -2896.6	   220.3
    118.8335	   348.0	   357.1	 -2910.9	   220.3
    118.8669	   324.0	   356.5	 -2934.3	   220.2
    118.9003	   319.0	   356.0	 -2938.7	   220.2
    118.9337	   338.0	   355.5	 -2919.2	   220.1
    118.9672	   323.0	   355.0	 -2933.8	   220.1
    119.0006	   318.0	   354.7	 -2938.4	   220.0
    119.0340	   346.0	   354.3	 -2910.1	   219.9
    119.0674	   342.0	   354.1	 -2913.8	   219.9
    119.1008	   331.0	   353.8	 -2924.6	   219.8
    119.1343	   346.0	   353.7	 -2909.4	   219.8
    119.1677	   300.0	   353.6	 -2955.3	   219.7
    119.2011	   336.0	   353.5	 -2919.3	   219.7
    119.2345	   329.0	   353.5	 -2926.2	   219.6
    119.2680	   383.0	   353.5	 -2872.3	   219.6
    119.3014	   333.0	   353.7	 -2922.4	   219.5
    119.3348	   343.0	   353.8	 -2912.6	   219.5
    119.3682	   397.0	   354.0	 -2858.8	   219.4
    119.4016	   346.0	   354.3	 -2910.1	   219.4
    119.4351	   319.0	   354.6	 -2937.4	   219.3
    119.4685	   321.0	   355.0	 -2935.8	   219.2
    119.5019	   350.0	   355.5	 -2907.2	   219.2
    119.5353	   338.0	   356.0	 -2919.7	   219.1
    119.5688	   383.0	   356.5	 -2875.3	   219.1
    119.6022	   336.0	   357.2	 -2922.9	   219.0
    119.6356	   362.0	   357.9	 -2897.6	   219.0
    119.6690	   321.0	   358.6	 -2939.4	   218.9
    119.7025	   312.0	   359.4	 -2949.2	   218.9
    119.7359	   328.0	   360.3	 -2934.1	   218.8
    119.7693	   376.0	   361.3	 -2887.1	   218.8
    119.8027	   335.0	   362.4	 -2929.1	   218.7
    119.8361	   352.0	   363.5	 -2913.2	   218.7
    119.8696	   334.0	   364.7	 -2932.4	   218.6
    119.9030	   345.0	   366.0	 -2922.7	   218.5
    119.9364	   325.0	   367.3	 -2944.1	   218.5
    119.9698	   323.0	   368.8	 -2947.6	   218.4
    120.0033	   358.0	   370.4	 -2914.1	   218.4
    120.0367	   346.0	   372.0	 -2927.8	   218.3
    120.0701	   342.0	   373.8	 -2933.5	   218.3
    120.1035	   357.0	   375.6	 -2920.4	   218.2
    120.1369	   338.0	   377.6	 -2941.3	   218.2
    120.1704	   370.0	   379.6	 -2911.4	   218.1
    120.2038	   347.0	   381.8	 -2936.6	   218.1
    120.2372	   383.0	   384.1	 -2902.9	   218.0
    120.2706	   367.0	   386.5	 -2921.3	   217.9
    120.3041	   352.0	   389.1	 -2938.9	   217.9
    120.3375	   361.0	   391.8	 -2932.5	   217.8
    120.3709	   327.0	   394.6	 -2969.4	   217.8
    120.4043	   349.0	   397.6	 -2950.3	   217.7
    120.4378	   359.0	   400.7	 -2943.4	   217.7
    120.4712	   335.0	   404.0	 -2970.7	   217.6
    120.5046	   360.0	   407.4	 -2949.1	   217.6
    120.5380	   342.0	   410.9	 -2970.7	   217.5
    120.5714	   363.0	   414.7	 -2953.4	   217.5
    120.6049	   360.0	   418.6	 -2960.3	   217.4
    120.6383	   335.0	   422.6	 -2989.4	   217.4
    120.6717	   353.0	   426.8	 -2975.6	   217.3
    120.7051	   365.0	   431.2	 -2968.0	   217.2
    120.7385	   375.0	   435.7	 -2962.5	   217.2
    120.7720	   379.0	   440.4	 -2963.2	   217.1
    120.8054	   390.0	   445.3	 -2957.0	   217.1
    120.8388	   370.0	   450.3	 -2982.0	   217.0
    120.8722	   424.0	   455.4	 -2933.1	   217.0
    120.9057	   370.0	   460.6	 -2992.4	   216.9
    120.9391	   417.0	   465.9	 -2950.7	   216.9
    120.9725	   365.0	   471.4	 -3008.1	   216.8
    121.0059	   403.0	   476.8	 -2975.6	   216.8
    121.0394	   376.0	   482.3	 -3008.1	   216.7
    121.0728	   357.0	   487.9	 -3032.6	   216.7
    121.1062	   383.0	   493.4	 -3012.1	   216.6
    121.1396	   389.0	   498.8	 -3011.5	   216.5
    121.1730	   376.0	   504.1	 -3029.9	   216.5
    121.2065	   382.0	   509.3	 -3029.1	   216.4
    121.2399	   403.0	   514.3	 -3013.1	   216.4
    121.2733	   425.0	   519.1	 -2995.9	   216.3
    121.3067	   407.0	   523.7	 -3018.4	   216.3
    121.3402	   420.0	   527.9	 -3009.6	   216.2
    121.3736	   429.0	   531.8	 -3004.5	   216.2
    121.4070	   463.0	   535.2	 -2974.0	   216.1
    121.4404	   466.0	   538.3	 -2974.1	   216.1
    121.4738	   524.0	   541.0	 -2918.7	   216.0
    121.5073	   515.0	   543.1	 -2929.9	   216.0
    121.5407	   514.0	   544.8	 -2932.6	   215.9
    121.5741	   468.0	   546.0	 -2979.8	   215.8
    121.6075	   449.0	   546.7	 -2999.5	   215.8
    121.6410	   425.0	   546.9	 -3023.7	   215.7
    121.6744	   419.0	   546.7	 -3029.4	   215.7
    121.7078	   426.0	   545.9	 -3021.7	   215.6
    121.7412	   455.0	   544.7	 -2991.4	   215.6
    121.7747	   383.0	   543.0	 -3061.8	   215.5
    121.8081	   436.0	   540.9	 -3006.7	   215.5
    121.8415	   400.0	   538.4	 -3040.2	   215.4
    121.8749	   431.0	   535.5	 -3006.3	   215.4
    121.9083	   452.0	   532.3	 -2982.0	   215.3
    121.9418	   416.0	   528.7	 -3014.5	   215.2
    121.9752	   419.0	   524.8	 -3007.6	   215.2
    122.0086	   449.0	   520.7	 -2973.4	   215.1
    122.0420	   428.0	   516.3	 -2990.0	   215.1
    122.0755	   417.0	   511.6	 -2996.4	   215.0
    122.1089	   410.0	   506.8	 -2998.6	   215.0
    122.1423	   423.0	   501.8	 -2980.6	   214.9
    122.1757	   412.0	   496.7	 -2986.4	   214.9
    122.2091	   394.0	   491.4	 -2999.2	   214.8
    122.2426	   381.0	   486.1	 -3006.8	   214.8
    122.2760	   366.0	   480.7	 -3016.4	   214.7
    122.3094	   355.0	   475.2	 -3022.0	   214.7
    122.3428	   393.0	   469.8	 -2978.6	   214.6
    122.3763	   358.0	   464.4	 -3008.1	   214.5
    122.4097	   397.0	   459.0	 -2963.8	   214.5
    122.4431	   318.0	   453.7	 -3037.4	   214.4
    122.4765	   384.0	   448.4	 -2966.2	   214.4
    122.5099	   381.0	   443.3	 -2964.0	   214.3
    122.5434	   354.0	   438.2	 -2986.0	   214.3
    122.5768	   346.0	   433.3	 -2989.0	   214.2
    122.6102	   331.0	   428.4	 -2999.2	   214.2
    122.6436	   378.0	   423.7	 -2947.5	   214.1
    122.6771	   340.0	   419.2	 -2980.9	   214.1
    122.7105	   354.0	   414.8	 -2962.5	   214.0
    122.7439	   343.0	   410.5	 -2969.3	   214.0
    122.7773	   328.0	   406.4	 -2980.1	   213.9
    122.8108	   351.0	   402.4	 -2953.2	   213.8
    122.8442	   374.0	   398.6	 -2926.3	   213.8
    122.8776	   338.0	   394.9	 -2958.7	   213.7
    122.9110	   331.0	   391.4	 -2962.1	   213.7
    122.9444	   332.0	   388.0	 -2957.7	   213.6
    122.9779	   348.0	   384.7	 -2938.4	   213.6
    123.0113	   347.0	   381.6	 -2936.3	   213.5
    123.0447	   387.0	   378.6	 -2893.3	   213.5
    123.0781	   327.0	   375.7	 -2950.4	   213.4
    123.1115	   373.0	   372.9	 -2901.7	   213.4
    123.1450	   361.0	   370.3	 -2911.1	   213.3
    123.1784	   359.0	   367.8	 -2910.5	   213.3
    123.2118	   346.0	   365.4	 -2921.1	   213.2
    123.2452	   319.0	   363.1	 -2945.8	   213.1
    123.2787	   353.0	   360.9	 -2909.6	   213.1
    123.3121	   314.0	   358.8	 -2946.5	   213.0
    123.3455	   318.0	   356.8	 -2940.6	   213.0
    123.3789	   328.0	   354.9	 -2928.6	   212.9
    123.4124	   330.0	   353.1	 -2924.8	   212.9
    123.4458	   339.0	   351.3	 -2914.1	   212.8
    123.4792	   335.0	   349.7	 -2916.4	   212.8
    123.5126	   339.0	   348.1	 -2910.9	   212.7
    123.5460	   337.0	   346.6	 -2911.4	   212.7
    123.5795	   333.0	   345.2	 -2914.0	   212.6
    123.6129	   355.0	   343.9	 -2890.6	   212.6
    123.6463	   318.0	   342.6	 -2926.4	   212.5
    123.6797	   312.0	   341.4	 -2931.1	   212.4
    123.7132	   336.0	   340.2	 -2906.0	   212.4
    123.7466	   296.0	   339.2	 -2944.9	   212.3
    123.7800	   318.0	   338.1	 -2921.9	   212.3
    123.8134	   320.0	   337.2	 -2918.9	   212.2
    123.8468	   313.0	   336.3	 -2925.0	   212.2
    123.8803	   368.0	   335.4	 -2869.2	   212.1
    123.9137	   338.0	   334.6	 -2898.4	   212.1
    123.9471	   345.0	   333.9	 -2890.6	   212.0
    123.9805	   348.0	   333.2	 -2887.0	   212.0
    124.0140	   362.0	   332.6	 -2872.3	   211.9
    124.0474	   332.0	   332.0	 -2901.7	   211.8
    124.0808	   350.0	   331.4	 -2883.2	   211.8
    124.1142	   340.0	   330.9	 -2892.7	   211.7
    124.1477	   343.0	   330.5	 -2889.2	   211.7
    124.1811	   344.0	   330.1	 -2887.8	   211.6
    124.2145	   324.0	   329.7	 -2907.4	   211.6
    124.2479	   342.0	   329.4	 -2889.1	   211.5
    124.2813	   323.0	   329.1	 -2907.8	   211.5
    124.3148	   332.0	   328.8	 -2898.6	   211.4
    124.3482	   318.0	   328.6	 -2912.4	   211.4
    124.3816	   364.0	   328.5	 -2866.2	   211.3
    124.4150	   309.0	   328.3	 -2921.1	   211.3
    124.4485	   331.0	   328.2	 -2899.0	   211.2
    124.4819	   360.0	   328.1	 -2869.9	   211.1
    124.5153	   291.0	   328.1	 -2938.8	   211.1
    124.5487	   348.0	   328.1	 -2881.8	   211.0
    124.5821	   315.0	   328.0	 -2914.8	   211.0
    124.6156	   363.0	   328.1	 -2866.8	   210.9
    124.6490	   330.0	   328.1	 -2899.8	   210.9
    124.6824	   312.0	   328.1	 -2917.9	   210.8
    124.7158	   336.0	   328.2	 -2893.9	   210.8
    124.7493	   357.0	   328.2	 -2873.0	   210.7
    124.7827	   331.0	   328.3	 -2899.0	   210.7
    124.8161	   317.0	   328.3	 -2913.1	   210.6
    124.8495	   358.0	   328.4	 -2872.1	   210.6
    124.8829	   384.0	   325.7	 -2843.4	   210.5
    124.9164	   314.0	   325.7	 -2913.5	   210.4
    124.9498	   362.0	   325.7	 -2865.5	   210.4
    124.9832	   345.0	   325.7	 -2882.5	   210.3
    125.0166	   351.0	   325.7	 -2876.4	   210.3
    125.0501	   329.0	   325.6	 -2898.4	   210.2
    125.0835	   382.0	   325.5	 -2845.3	   210.2
    125.1169	   365.0	   325.4	 -2862.1	   210.1
    125.1503	   352.0	   325.2	 -2875.0	   210.1
    125.1837	   354.0	   325.0	 -2872.8	   210.0
    125.2172	   346.0	   324.8	 -2880.5	   210.0
    125.2506	   333.0	   324.5	 -2893.2	   209.9
    125.2840	   336.0	   324.1	 -2889.9	   209.9
    125.3174	   309.0	   323.8	 -2916.5	   209.8
    125.3509	   337.0	   323.4	 -2888.1	   209.7
    125.3843	   354.0	   321.6	 -2869.3	   209.7
    125.4177	   300.0	   321.1	 -2922.9	   209.6
    125.4511	   302.0	   320.6	 -2920.4	   209.6
    125.4846	   310.0	   320.1	 -2911.8	   209.5
    125.5180	   346.0	   319.5	 -2875.3	   209.5
    125.5514	   352.0	   319.0	 -2868.7	   209.4
    125.5848	   306.0	   318.4	 -2914.1	   209.4
    125.6182	   316.0	   317.7	 -2903.5	   209.3
    125.6517	   320.0	   317.1	 -2898.9	   209.3
    125.6851	   350.0	   316.4	 -2868.2	   209.2
    125.7185	   321.0	   315.8	 -2896.5	   209.1
    125.7519	   361.0	   315.1	 -2855.8	   209.1
    125.7854	   314.0	   314.4	 -2902.1	   209.0
    125.8188	   323.0	   313.7	 -2892.4	   209.0
    125.8522	   323.0	   312.9	 -2891.7	   208.9
    125.8856	   294.0	   312.2	 -2920.0	   208.9
    125.9190	   308.0	   311.5	 -2905.2	   208.8
    125.9525	   310.0	   310.8	 -2902.5	   208.8
    125.9859	   314.0	   310.1	 -2897.8	   208.7
    126.0193	   355.0	   309.3	 -2856.1	   208.7
    126.0527	   348.0	   308.6	 -2862.4	   208.6
    126.0862	   321.0	   307.9	 -2888.7	   208.6
    126.1196	   318.0	   307.2	 -2891.0	   208.5
    126.1530	   329.0	   306.6	 -2879.3	   208.4
    126.1864	   312.0	   305.9	 -2895.6	   208.4
    126.2198	   293.0	   305.2	 -2914.0	   208.3
    126.2533	   323.0	   304.6	 -2883.3	   208.3
    126.2867	   314.0	   304.0	 -2891.7	   208.2
    126.3201	   308.0	   303.4	 -2897.1	   208.2
    126.3535	   290.0	   302.8	 -2914.5	   208.1
    126.3870	   305.0	   302.2	 -2898.9	   208.1
    126.4204	   336.0	   301.6	 -2867.4	   208.0
    126.4538	   321.0	   301.1	 -2881.8	   208.0
    126.4872	   304.0	   300.6	 -2898.3	   207.9
    126.5207	   290.0	   300.0	 -2911.8	   207.9
    126.5541	   328.0	   299.5	 -2873.3	   207.8
    126.5875	   354.0	   299.1	 -2846.8	   207.7
    126.6209	   335.0	   298.6	 -2865.4	   207.7
    126.6543	   305.0	   298.2	 -2894.9	   207.6
    126.6878	   357.0	   297.7	 -2842.5	   207.6
    126.7212	   318.0	   297.3	 -2881.1	   207.5
    126.7546	   351.0	   296.9	 -2847.7	   207.5
    126.7880	   302.0	   296.5	 -2896.3	   207.4
    126.8215	   329.0	   296.2	 -2868.9	   207.4
    126.8549	   324.0	   295.8	 -2873.5	   207.3
    126.8883	   301.0	   295.4	 -2896.2	   207.3
    126.9217	   313.0	   295.1	 -2883.9	   207.2
    126.9551	   288.0	   294.8	 -2908.5	   207.2
    126.9886	   323.0	   294.5	 -2873.2	   207.1
    127.0220	   313.0	   294.2	 -2882.9	   207.0
    127.0554	   302.0	   293.9	 -2893.7	   207.0
    127.0888	   323.0	   293.6	 -2872.4	   206.9
    127.1223	   305.0	   293.4	 -2890.1	   206.9
    127.1557	   302.0	   293.1	 -2892.9	   206.8
    127.1891	   295.0	   292.9	 -2899.6	   206.8
    127.2225	   320.0	   292.6	 -2874.4	   206.7
    127.2560	   263.0	   292.4	 -2931.2	   206.7
    127.2894	   306.0	   292.2	 -2887.9	   206.6
    127.3228	   316.0	   292.0	 -2877.7	   206.6
    127.3562	   314.0	   291.8	 -2879.5	   206.5
    127.3896	   296.0	   291.6	 -2897.3	   206.4
    127.4231	   323.0	   291.4	 -2870.2	   206.4
    127.4565	   310.0	   291.2	 -2883.0	   206.3
    127.4899	   266.0	   291.1	 -2926.8	   206.3
    127.5233	   304.0	   290.9	 -2888.6	   206.2
    127.5567	   314.0	   290.7	 -2878.5	   206.2
    127.5902	   332.0	   290.6	 -2860.3	   206.1
    127.6236	   314.0	   290.5	 -2878.2	   206.1
    127.6570	   335.0	   290.3	 -2857.1	   206.0
    127.6904	   312.0	   290.2	 -2879.9	   206.0
    127.7239	   302.0	   290.1	 -2889.8	   205.9
    127.7573	   287.0	   290.0	 -2904.7	   205.9
    127.7907	   349.0	   289.8	 -2842.6	   205.8
    127.8241	   291.0	   289.7	 -2900.5	   205.7
    127.8576	   335.0	   289.6	 -2856.4	   205.7
    127.8910	   312.0	   289.5	 -2879.3	   205.6
    127.9244	   274.0	   289.5	 -2917.2	   205.6
    127.9578	   315.0	   289.4	 -2876.1	   205.5
    127.9912	   299.0	   289.3	 -2892.0	   205.5
    128.0247	   322.0	   289.2	 -2869.0	   205.4
    128.0581	   301.0	   289.2	 -2889.9	   205.4
    128.0915	   276.0	   289.1	 -2914.8	   205.3
    128.1249	   315.0	   289.0	 -2875.8	   205.3
    128.1584	   303.0	   289.0	 -2887.7	   205.2
    128.1918	   294.0	   288.9	 -2896.7	   205.2
    128.2252	   295.0	   288.9	 -2895.6	   205.1
    128.2586	   301.0	   288.8	 -2889.6	   205.0
    128.2920	   325.0	   288.8	 -2865.5	   205.0
    128.3255	   331.0	   288.8	 -2859.5	   204.9
    128.3589	   319.0	   288.7	 -2871.5	   204.9
    128.3923	   278.0	   288.7	 -2912.5	   204.8
    128.4257	   334.0	   288.7	 -2856.4	   204.8
    128.4592	   327.0	   288.7	 -2863.4	   204.7
    128.4926	   312.0	   288.7	 -2878.4	   204.7
    128.5260	   313.0	   288.7	 -2877.4	   204.6
    128.5594	   329.0	   288.7	 -2861.4	   204.6
    128.5928	   327.0	   288.7	 -2863.4	   204.5
    128.6263	   314.0	   288.7	 -2876.4	   204.5
    128.6597	   321.0	   288.7	 -2869.4	   204.4
    128.6931	   303.0	   288.7	 -2887.4	   204.3
    128.7265	   291.0	   288.7	 -2899.5	   204.3
    128.7600	   287.0	   288.7	 -2903.5	   204.2
    128.7934	   315.0	   288.8	 -2875.5	   204.2
    128.8268	   316.0	   288.8	 -2874.5	   204.1
    128.8602	   294.0	   288.8	 -2896.6	   204.1
    128.8936	   278.0	   288.9	 -2912.6	   204.0
    128.9271	   285.0	   288.9	 -2905.7	   204.0
    128.9605	   285.0	   288.9	 -2905.7	   203.9
    128.9939	   307.0	   289.0	 -2883.8	   203.9
    129.0273	   287.0	   289.1	 -2903.8	   203.8
    129.0608	   329.0	   289.1	 -2861.9	   203.8
    129.0942	   295.0	   289.2	 -2895.9	   203.7
    129.1276	   285.0	   289.2	 -2906.0	   203.6
    129.1610	   319.0	   289.3	 -2872.1	   203.6
    129.1945	   303.0	   289.4	 -2888.1	   203.5
    129.2279	   285.0	   289.5	 -2906.2	   203.5
    129.2613	   295.0	   289.6	 -2896.3	   203.4
    129.2947	   308.0	   289.7	 -2883.4	   203.4
    129.3281	   335.0	   289.8	 -2856.5	   203.3
    129.3616	   300.0	   289.9	 -2891.6	   203.3
    129.3950	   318.0	   290.0	 -2873.7	   203.2
    129.4284	   334.0	   290.1	 -2857.8	   203.2
    129.4618	   305.0	   290.2	 -2886.9	   203.1
    129.4953	   316.0	   290.3	 -2876.1	   203.0
    129.5287	   294.0	   290.4	 -2898.2	   203.0
    129.5621	   318.0	   290.6	 -2874.3	   202.9
    129.5955	   298.0	   290.7	 -2894.4	   202.9
    129.6289	   358.0	   290.8	 -2834.6	   202.8
    129.6624	   291.0	   291.0	 -2901.7	   202.8
    129.6958	   304.0	   291.1	 -2888.9	   202.7
    129.7292	   339.0	   291.3	 -2854.0	   202.7
    129.7626	   310.0	   291.5	 -2883.2	   202.6
    129.7961	   302.0	   291.6	 -2891.4	   202.6
    129.8295	   317.0	   291.8	 -2876.5	   202.5
    129.8629	   316.0	   292.0	 -2877.7	   202.5
    129.8963	   300.0	   292.2	 -2893.9	   202.4
    129.9297	   299.0	   292.4	 -2895.1	   202.3
    129.9632	   298.0	   292.6	 -2896.3	   202.3
    129.9966	   303.0	   292.8	 -2891.5	   202.2
    130.0300	   317.0	   293.0	 -2877.7	   202.2
    130.0634	   302.0	   293.2	 -2893.0	   202.1
    130.0969	   323.0	   293.4	 -2872.2	   202.1
    130.1303	   284.0	   293.7	 -2911.4	   202.0
    130.1637	   324.0	   293.9	 -2871.7	   202.0
    130.1971	   324.0	   294.2	 -2871.9	   201.9
    130.2305	   329.0	   294.4	 -2867.2	   201.9
    130.2640	   295.0	   294.7	 -2901.4	   201.8
    130.2974	   290.0	   295.0	 -2906.7	   201.8
    130.3308	   315.0	   295.2	 -2882.0	   201.7
    130.3642	   309.0	   295.5	 -2888.3	   201.6
    130.3977	   328.0	   295.8	 -2869.6	   201.6
    130.4311	   339.0	   296.2	 -2858.9	   201.5
    130.4645	   343.0	   296.5	 -2855.2	   201.5
    130.4979	   345.0	   296.8	 -2853.6	   201.4
    130.5314	   346.0	   297.2	 -2852.9	   201.4
    130.5648	   316.0	   297.5	 -2883.3	   201.3
    130.5982	   315.0	   297.9	 -2884.6	   201.3
    130.6316	   316.0	   298.2	 -2884.0	   201.2
    130.6650	   344.0	   298.6	 -2856.4	   201.2
    130.6985	   294.0	   299.0	 -2906.8	   201.1
    130.7319	   283.0	   299.4	 -2918.2	   201.1
    130.7653	   313.0	   299.9	 -2888.6	   201.0
    130.7987	   325.0	   300.3	 -2877.0	   200.9
    130.8322	   335.0	   299.0	 -2865.8	   200.9
    130.8656	   303.0	   299.5	 -2898.3	   200.8
    130.8990	   290.0	   300.0	 -2911.7	   200.8
    130.9324	   319.0	   300.5	 -2883.2	   200.7
    130.9659	   308.0	   301.0	 -2894.8	   200.7
    130.9993	   329.0	   301.5	 -2874.3	   200.6
    131.0327	   323.0	   302.1	 -2880.8	   200.6
    131.0661	   324.0	   302.7	 -2880.4	   200.5
    131.0995	   335.0	   303.2	 -2870.0	   200.5
    131.1330	   329.0	   303.8	 -2876.6	   200.4
    131.1664	   313.0	   304.5	 -2893.2	   200.3
    131.1998	   332.0	   305.1	 -2874.8	   200.3
    131.2332	   303.0	   305.8	 -2904.5	   200.2
    131.2666	   349.0	   306.4	 -2859.2	   200.2
    131.3001	   318.0	   307.1	 -2890.9	   200.1
    131.3335	   316.0	   307.8	 -2893.6	   200.1
    131.3669	   350.0	   308.6	 -2860.3	   200.0
    131.4003	   340.0	   309.4	 -2871.1	   200.0
    131.4338	   313.0	   309.3	 -2898.0	   199.9
    131.4672	   348.0	   310.1	 -2863.9	   199.9
    131.5006	   338.0	   311.0	 -2874.7	   199.8
    131.5340	   331.0	   311.8	 -2882.6	   199.8
    131.5674	   340.0	   312.7	 -2874.5	   199.7
    131.6009	   352.0	   313.7	 -2863.4	   199.6
    131.6343	   360.0	   314.6	 -2856.4	   199.6
    131.6677	   336.0	   315.6	 -2881.4	   199.5
    131.7011	   312.0	   316.6	 -2906.4	   199.5
    131.7346	   338.0	   317.7	 -2881.4	   199.4
    131.7680	   357.0	   318.8	 -2863.5	   199.4
    131.8014	   304.0	   319.9	 -2917.7	   199.3
    131.8348	   313.0	   321.1	 -2909.8	   199.3
    131.8683	   328.0	   322.3	 -2896.0	   199.2
    131.9017	   350.0	   323.5	 -2875.3	   199.2
    131.9351	   347.0	   324.8	 -2879.5	   199.1
    131.9685	   351.0	   326.1	 -2876.9	   199.1
    132.0019	   319.0	   327.5	 -2910.2	   199.0
    132.0354	   332.0	   328.9	 -2898.6	   198.9
    132.0688	   362.0	   330.4	 -2870.1	   198.9
    132.1022	   353.0	   331.9	 -2880.6	   198.8
    132.1356	   338.0	   333.4	 -2897.2	   198.8
    132.1691	   353.0	   335.0	 -2883.8	   198.7
    132.2025	   376.0	   336.7	 -2862.4	   198.7
    132.2359	   372.0	   338.4	 -2868.2	   198.6
    132.2693	   379.0	   340.2	 -2862.9	   198.6
    132.3027	   362.0	   342.0	 -2881.8	   198.5
    132.3362	   382.0	   343.9	 -2863.7	   198.5
    132.3696	   340.0	   345.9	 -2907.6	   198.4
    132.4030	   372.0	   347.9	 -2877.6	   198.4
    132.4364	   370.0	   350.0	 -2881.7	   198.3
    132.4699	   337.0	   352.1	 -2916.9	   198.2
    132.5033	   349.0	   354.3	 -2907.1	   198.2
    132.5367	   348.0	   356.6	 -2910.4	   198.1
    132.5701	   362.0	   359.0	 -2898.7	   198.1
    132.6035	   331.0	   361.4	 -2932.2	   198.0
    132.6370	   367.0	   363.9	 -2898.7	   198.0
    132.6704	   363.0	   366.5	 -2905.3	   197.9
    132.7038	   354.0	   369.2	 -2916.9	   197.9
    132.7372	   374.0	   371.9	 -2899.6	   197.8
    132.7707	   361.0	   374.7	 -2915.4	   197.8
    132.8041	   346.0	   377.6	 -2933.3	   197.7
    132.8375	   360.0	   380.5	 -2922.3	   197.7
    132.8709	   360.0	   383.6	 -2925.3	   197.6
    132.9044	   339.0	   386.7	 -2949.4	   197.5
    132.9378	   360.0	   389.8	 -2931.6	   197.5
    132.9712	   347.0	   393.1	 -2947.8	   197.4
    133.0046	   381.0	   396.4	 -2917.1	   197.4
    133.0380	   354.0	   399.7	 -2947.5	   197.3
    133.0715	   366.0	   403.1	 -2938.9	   197.3
    133.1049	   381.0	   406.6	 -2927.4	   197.2
    133.1383	   390.0	   410.1	 -2921.9	   197.2
    133.1717	   402.0	   413.7	 -2913.4	   197.1
    133.2052	   374.0	   417.2	 -2945.0	   197.1
    133.2386	   373.0	   420.8	 -2949.6	   197.0
    133.2720	   360.0	   424.4	 -2966.2	   196.9
    133.3054	   355.0	   428.0	 -2974.8	   196.9
    133.3389	   407.0	   431.6	 -2926.4	   196.8
    133.3723	   421.0	   435.2	 -2915.9	   196.8
    133.4057	   399.0	   438.7	 -2941.4	   196.7
    133.4391	   394.0	   442.1	 -2949.9	   196.7
    133.4725	   394.0	   445.5	 -2953.3	   196.6
    133.5060	   368.0	   448.9	 -2982.6	   196.6
    133.5394	   335.0	   452.1	 -3018.8	   196.5
    133.5728	   402.0	   455.2	 -2954.9	   196.5
    133.6062	   400.0	   458.1	 -2959.9	   196.4
    133.6396	   372.0	   461.0	 -2990.7	   196.4
    133.6731	   409.0	   463.7	 -2956.4	   196.3
    133.7065	   411.0	   466.2	 -2956.9	   196.2
    133.7399	   416.0	   468.5	 -2954.2	   196.2
    133.7733	   454.0	   470.6	 -2918.4	   196.1
    133.8068	   457.0	   472.5	 -2917.3	   196.1
    133.8402	   484.0	   474.2	 -2892.0	   196.0
    133.8736	   474.0	   475.7	 -2903.5	   196.0
    133.9070	   486.0	   477.0	 -2892.8	   195.9
    133.9404	   468.0	   478.1	 -2911.8	   195.9
    133.9739	   502.0	   478.9	 -2878.6	   195.8
    134.0073	   439.0	   479.5	 -2942.2	   195.8
    134.0407	   462.0	   479.9	 -2919.6	   195.7
    134.0741	   427.0	   480.0	 -2954.8	   195.7
    134.1076	   427.0	   479.9	 -2954.7	   195.6
    134.1410	   434.0	   479.6	 -2947.4	   195.5
    134.1744	   426.0	   479.2	 -2954.9	   195.5
    134.2078	   402.0	   478.5	 -2978.2	   195.4
    134.2413	   396.0	   477.6	 -2983.3	   195.4
    134.2747	   376.0	   476.5	 -3002.3	   195.3
    134.3081	   397.0	   475.3	 -2980.0	   195.3
    134.3415	   354.0	   473.8	 -3021.6	   195.2
    134.3749	   443.0	   472.3	 -2931.0	   195.2
    134.4084	   422.0	   470.5	 -2950.3	   195.1
    134.4418	   454.0	   468.7	 -2916.4	   195.1
    134.4752	   458.0	   466.7	 -2910.4	   195.0
    134.5086	   446.0	   464.6	 -2920.3	   195.0
    134.5421	   372.0	   462.3	 -2992.1	   194.9
    134.5755	   472.0	   460.0	 -2889.7	   194.8
    134.6089	   443.0	   457.6	 -2916.3	   194.8
    134.6423	   416.0	   455.1	 -2940.8	   194.7
    134.6758	   440.0	   452.5	 -2914.2	   194.7
    134.7092	   420.0	   449.9	 -2931.6	   194.6
    134.7426	   392.0	   447.2	 -2956.9	   194.6
    134.7760	   425.0	   444.4	 -2921.2	   194.5
    134.8094	   437.0	   441.7	 -2906.4	   194.5
    134.8429	   404.0	   438.9	 -2936.7	   194.4
    134.8763	   376.0	   436.1	 -2961.9	   194.4
    134.9097	   383.0	   433.3	 -2952.1	   194.3
    134.9431	   382.0	   430.5	 -2950.3	   194.2
    134.9765	   397.0	   427.6	 -2932.3	   194.2
    135.0100	   395.0	   424.8	 -2931.6	   194.1
    135.0434	   373.0	   422.1	 -2950.9	   194.1
    135.0768	   379.0	   419.5	 -2942.2	   194.0
    135.1102	   406.0	   416.8	 -2912.6	   194.0
    135.1437	   365.0	   414.3	 -2951.0	   193.9
    135.1771	   400.0	   411.7	 -2913.5	   193.9
    135.2105	   383.0	   409.3	 -2928.0	   193.8
    135.2439	   357.0	   406.9	 -2951.6	   193.8
    135.2774	   382.0	   404.6	 -2924.3	   193.7
    135.3108	   391.0	   402.3	 -2913.1	   193.7
    135.3442	   400.0	   400.2	 -2901.9	   193.6
    135.3776	   387.0	   398.1	 -2912.8	   193.5
    135.4110	   379.0	   396.1	 -2918.8	   193.5
    135.4445	   391.0	   394.1	 -2904.9	   193.4
    135.4779	   382.0	   392.3	 -2912.0	   193.4
    135.5113	   350.0	   390.5	 -2942.2	   193.3
    135.5447	   365.0	   388.8	 -2925.6	   193.3
    135.5782	   418.0	   387.2	 -2870.9	   193.2
    135.6116	   385.0	   385.6	 -2902.3	   193.2
    135.6450	   380.0	   384.1	 -2905.9	   193.1
    135.6784	   323.0	   382.8	 -2961.5	   193.1
    135.7119	   366.0	   381.5	 -2917.2	   193.0
    135.7453	   405.0	   380.2	 -2877.0	   193.0
    135.7787	   351.0	   379.1	 -2929.8	   192.9
    135.8121	   388.0	   378.0	 -2891.8	   192.8
    135.8455	   363.0	   377.0	 -2915.8	   192.8
    135.8790	   405.0	   376.1	 -2872.8	   192.7
    135.9124	   384.0	   375.2	 -2892.9	   192.7
    135.9458	   395.0	   374.3	 -2881.1	   192.6
    135.9792	   394.0	   373.6	 -2881.3	   192.6
    136.0126	   376.0	   372.9	 -2898.6	   192.5
    136.0461	   366.0	   372.2	 -2907.9	   192.5
    136.0795	   346.0	   371.6	 -2927.3	   192.4
    136.1129	   388.0	   371.0	 -2884.7	   192.4
    136.1463	   380.0	   370.4	 -2892.2	   192.3
    136.1798	   361.0	   369.9	 -2910.7	   192.3
    136.2132	   385.0	   369.4	 -2886.2	   192.2
    136.2466	   404.0	   369.0	 -2866.7	   192.1
    136.2800	   367.0	   368.5	 -2903.3	   192.1
    136.3134	   398.0	   368.1	 -2871.9	   192.0
    136.3469	   380.0	   367.8	 -2889.5	   192.0
    136.3803	   399.0	   367.4	 -2870.1	   191.9
    136.4137	   378.0	   367.0	 -2890.8	   191.9
    136.4471	   384.0	   366.7	 -2884.4	   191.8
    136.4806	   418.0	   366.3	 -2850.1	   191.8
    136.5140	   379.0	   366.0	 -2888.8	   191.7
    136.5474	   375.0	   365.7	 -2892.5	   191.7
    136.5808	   396.0	   365.4	 -2871.1	   191.6
    136.6143	   398.0	   365.1	 -2868.8	   191.6
    136.6477	   354.0	   364.8	 -2912.5	   191.5
    136.6811	   399.0	   364.5	 -2867.3	   191.4
    136.7145	   372.0	   364.2	 -2894.0	   191.4
    136.7479	   374.0	   363.9	 -2891.7	   191.3
    136.7814	   360.0	   363.7	 -2905.4	   191.3
    136.8148	   342.0	   363.4	 -2923.1	   191.2
    136.8482	   378.0	   363.1	 -2886.9	   191.2
    136.8816	   378.0	   362.9	 -2886.6	   191.1
    136.9151	   362.0	   362.6	 -2902.4	   191.1
    136.9485	   366.0	   362.4	 -2898.2	   191.0
    136.9819	   363.0	   362.2	 -2900.9	   191.0
    137.0153	   366.0	   362.0	 -2897.7	   190.9
    137.0488	   379.0	   361.8	 -2884.5	   190.8
    137.0822	   382.0	   361.6	 -2881.3	   190.8
    137.1156	   304.0	   361.4	 -2959.2	   190.7
    137.1490	   364.0	   361.3	 -2899.0	   190.7
    137.1824	   349.0	   361.1	 -2913.9	   190.6
    137.2159	   399.0	   361.0	 -2863.8	   190.6
    137.2493	   347.0	   360.9	 -2915.7	   190.5
    137.2827	   357.0	   360.8	 -2905.6	   190.5
    137.3161	   354.0	   360.8	 -2908.5	   190.4
    137.3495	   354.0	   360.7	 -2908.5	   190.4
    137.3830	   372.0	   360.7	 -2890.5	   190.3
    137.4164	   379.0	   360.7	 -2883.5	   190.3
    137.4498	   354.0	   360.7	 -2908.5	   190.2
    137.4832	   387.0	   360.8	 -2875.5	   190.1
    137.5167	   372.0	   360.9	 -2890.6	   190.1
    137.5501	   382.0	   361.0	 -2880.7	   190.0
    137.5835	   343.0	   361.1	 -2919.8	   190.0
    137.6169	   367.0	   361.2	 -2896.0	   189.9
    137.6504	   385.0	   361.4	 -2878.2	   189.9
    137.6838	   373.0	   361.6	 -2890.3	   189.8
    137.7172	   359.0	   361.8	 -2904.5	   189.8
    137.7506	   327.0	   362.0	 -2936.8	   189.7
    137.7840	   395.0	   362.3	 -2869.0	   189.7
    137.8175	   359.0	   362.5	 -2905.3	   189.6
    137.8509	   357.0	   362.8	 -2907.6	   189.6
    137.8843	   333.0	   363.1	 -2931.8	   189.5
    137.9177	   399.0	   363.4	 -2866.1	   189.4
    137.9512	   362.0	   363.7	 -2903.4	   189.4
    137.9846	   358.0	   364.0	 -2907.7	   189.3
    138.0180	   384.0	   364.3	 -2882.0	   189.3
    138.0514	   351.0	   364.6	 -2915.3	   189.2
    138.0849	   377.0	   364.9	 -2889.6	   189.2
    138.1183	   387.0	   365.1	 -2879.9	   189.1
    138.1517	   340.0	   365.4	 -2927.1	   189.1
    138.1851	   377.0	   365.6	 -2890.4	   189.0
    138.2185	   381.0	   365.8	 -2886.6	   189.0
    138.2520	   393.0	   366.0	 -2874.8	   188.9
    138.2854	   351.0	   366.2	 -2916.9	   188.9
    138.3188	   362.0	   366.3	 -2906.1	   188.8
    138.3522	   370.0	   366.4	 -2898.2	   188.7
    138.3857	   370.0	   366.5	 -2898.2	   188.7
    138.4191	   363.0	   366.5	 -2905.3	   188.6
    138.4525	   395.0	   366.5	 -2873.2	   188.6
    138.4859	   385.0	   366.4	 -2883.2	   188.5
    138.5193	   366.0	   366.3	 -2902.1	   188.5
    138.5528	   345.0	   366.1	 -2922.9	   188.4
    138.5862	   389.0	   365.9	 -2878.7	   188.4
    138.6196	   340.0	   365.7	 -2927.5	   188.3
    138.6530	   362.0	   365.4	 -2905.2	   188.3
    138.6864	   374.0	   365.1	 -2892.8	   188.2
    138.7199	   363.0	   364.7	 -2903.4	   188.1
    138.7533	   340.0	   364.3	 -2926.0	   188.1
    138.7867	   365.0	   363.8	 -2900.5	   188.0
    138.8201	   339.0	   363.3	 -2926.0	   188.0
    138.8536	   361.0	   362.7	 -2903.5	   187.9
    138.8870	   363.0	   362.1	 -2900.9	   187.9
    138.9204	   353.0	   361.5	 -2910.3	   187.8
    138.9538	   346.0	   360.9	 -2916.6	   187.8
    138.9873	   345.0	   360.2	 -2916.9	   187.7
    139.0207	   375.0	   359.4	 -2886.2	   187.7
    139.0541	   336.0	   358.7	 -2924.4	   187.6
    139.0875	   327.0	   357.9	 -2932.7	   187.6
    139.1209	   348.0	   357.1	 -2910.9	   187.5
    139.1544	   329.0	   356.3	 -2929.0	   187.4
    139.1878	   380.0	   355.4	 -2877.2	   187.4
    139.2212	   344.0	   354.6	 -2912.3	   187.3
    139.2546	   337.0	   353.7	 -2918.4	   187.3
    139.2881	   374.0	   352.8	 -2880.5	   187.2
    139.3215	   380.0	   351.9	 -2873.6	   187.2
    139.3549	   344.0	   351.0	 -2908.7	   187.1
    139.3883	   362.0	   350.0	 -2889.8	   187.1
    139.4218	   384.0	   349.1	 -2866.9	   187.0
    139.4552	   354.0	   348.2	 -2895.9	   187.0
    139.4886	   348.0	   347.2	 -2901.0	   186.9
    139.5220	   351.0	   346.3	 -2897.1	   186.9
    139.5554	   359.0	   345.4	 -2888.1	   186.8
    139.5889	   368.0	   344.5	 -2878.2	   186.7
    139.6223	   322.0	   343.6	 -2923.3	   186.7
    139.6557	   329.0	   342.7	 -2915.4	   186.6
    139.6891	   348.0	   341.8	 -2895.5	   186.6
    139.7225	   334.0	   340.9	 -2908.7	   186.5
    139.7560	   362.0	   340.1	 -2879.8	   186.5
    139.7894	   384.0	   339.2	 -2857.0	   186.4
    139.8228	   359.0	   338.4	 -2881.2	   186.4
    139.8562	   322.0	   337.6	 -2917.4	   186.3
    139.8897	   304.0	   336.9	 -2934.6	   186.3
    139.9231	   319.0	   336.1	 -2918.9	   186.2
    139.9565	   331.0	   335.4	 -2906.2	   186.2
    139.9899	   383.0	   334.8	 -2853.5	   186.1
    140.0234	   346.0	   334.1	 -2889.9	   186.0
    140.0568	   368.0	   333.5	 -2867.2	   186.0
    140.0902	   377.0	   332.9	 -2857.6	   185.9
    140.1236	   331.0	   332.3	 -2903.1	   185.9
    140.1570	   376.0	   331.8	 -2857.5	   185.8
    140.1905	   304.0	   331.3	 -2929.0	   185.8
    140.2239	   335.0	   330.8	 -2897.6	   185.7
    140.2573	   339.0	   330.4	 -2893.2	   185.7
    140.2907	   353.0	   330.0	 -2878.8	   185.6
    140.3242	   308.0	   329.7	 -2923.4	   185.6
    140.3576	   325.0	   329.3	 -2906.1	   185.5
    140.3910	   338.0	   329.0	 -2892.8	   185.4
    140.4244	   302.0	   328.8	 -2928.5	   185.4
    140.4578	   305.0	   328.6	 -2925.3	   185.3
    140.4913	   292.0	   328.4	 -2938.2	   185.3
    140.5247	   327.0	   328.3	 -2903.0	   185.2
    140.5581	   354.0	   328.2	 -2875.9	   185.2
    140.5915	   320.0	   328.1	 -2909.8	   185.1
    140.6250	   366.0	   328.1	 -2863.8	   185.1
    140.6584	   358.0	   328.1	 -2871.8	   185.0
    140.6918	   322.0	   328.1	 -2907.9	   185.0
    140.7252	   305.0	   328.2	 -2924.9	   184.9
    140.7587	   332.0	   328.3	 -2898.1	   184.9
    140.7921	   320.0	   328.5	 -2910.2	   184.8
    140.8255	   331.0	   328.7	 -2899.4	   184.7
    140.8589	   327.0	   328.9	 -2903.6	   184.7
    140.8923	   334.0	   329.2	 -2896.9	   184.6
    140.9258	   330.0	   329.5	 -2901.2	   184.6
    140.9592	   349.0	   329.8	 -2882.6	   184.5
    140.9926	   309.0	   330.2	 -2923.0	   184.5
    141.0260	   340.0	   330.6	 -2892.4	   184.4
    141.0594	   352.0	   331.1	 -2880.8	   184.4
    141.0929	   346.0	   331.6	 -2887.3	   184.3
    141.1263	   366.0	   332.1	 -2867.9	   184.3
    141.1597	   344.0	   332.7	 -2890.5	   184.2
    141.1931	   339.0	   333.3	 -2896.1	   184.2
    141.2266	   330.0	   334.0	 -2905.7	   184.1
    141.2600	   314.0	   334.7	 -2922.4	   184.0
    141.2934	   363.0	   335.4	 -2874.2	   184.0
    141.3268	   355.0	   336.2	 -2882.9	   183.9
    141.3603	   327.0	   337.0	 -2911.8	   183.9
    141.3937	   369.0	   337.9	 -2870.6	   183.8
    141.4271	   362.0	   338.8	 -2878.5	   183.8
    141.4605	   357.0	   339.7	 -2884.4	   183.7
    141.4939	   373.0	   340.7	 -2869.4	   183.7
    141.5274	   345.0	   341.7	 -2898.4	   183.6
    141.5608	   329.0	   342.7	 -2915.5	   183.6
    141.5942	   414.0	   343.8	 -2831.5	   183.5
    141.6276	   345.0	   344.9	 -2901.6	   183.5
    141.6611	   318.0	   346.0	 -2929.8	   183.4
    141.6945	   360.0	   347.2	 -2889.0	   183.3
    141.7279	   367.0	   348.4	 -2883.2	   183.3
    141.7613	   338.0	   349.7	 -2913.4	   183.2
    141.7948	   344.0	   351.0	 -2908.7	   183.2
    141.8282	   346.0	   352.3	 -2908.0	   183.1
    141.8616	   382.0	   353.6	 -2873.4	   183.1
    141.8950	   373.0	   355.0	 -2883.7	   183.0
    141.9284	   314.0	   356.4	 -2944.1	   183.0
    141.9619	   323.0	   357.8	 -2936.5	   182.9
    141.9953	   323.0	   359.2	 -2937.9	   182.9
    142.0287	   337.0	   360.6	 -2925.4	   182.8
    142.0621	   352.0	   362.1	 -2911.8	   182.8
    142.0956	   347.0	   363.5	 -2918.3	   182.7
    142.1290	   403.0	   365.0	 -2863.8	   182.6
    142.1624	   351.0	   366.5	 -2917.2	   182.6
    142.1958	   324.0	   367.9	 -2945.7	   182.5
    142.2292	   321.0	   369.4	 -2950.1	   182.5
    142.2627	   351.0	   370.8	 -2921.6	   182.4
    142.2961	   399.0	   372.3	 -2875.0	   182.4
    142.3295	   367.0	   373.7	 -2908.5	   182.3
    142.3629	   359.0	   375.1	 -2917.8	   182.3
    142.3963	   340.0	   376.5	 -2938.2	   182.2
    142.4298	   364.0	   377.8	 -2915.5	   182.2
    142.4632	   380.0	   379.1	 -2900.8	   182.1
    142.4966	   384.0	   380.3	 -2898.1	   182.0
    142.5300	   396.0	   381.5	 -2887.3	   182.0
    142.5635	   362.0	   382.7	 -2922.4	   181.9
    142.5969	   381.0	   383.8	 -2904.5	   181.9
    142.6303	   379.0	   384.8	 -2907.6	   181.8
    142.6637	   385.0	   385.8	 -2902.5	   181.8
    142.6972	   370.0	   386.7	 -2918.4	   181.7
    142.7306	   384.0	   387.5	 -2905.2	   181.7
    142.7640	   423.0	   388.2	 -2867.0	   181.6
    142.7974	   396.0	   388.9	 -2894.7	   181.6
    142.8308	   463.0	   389.5	 -2828.2	   181.5
    142.8643	   406.0	   390.0	 -2885.8	   181.5
    142.8977	   397.0	   390.4	 -2895.2	   181.4
    142.9311	   439.0	   390.8	 -2853.5	   181.3
    142.9645	   399.0	   391.0	 -2893.7	   181.3
    142.9980	   413.0	   391.1	 -2879.9	   181.2
    143.0314	   423.0	   391.2	 -2870.0	   181.2
    143.0648	   385.0	   391.2	 -2907.9	   181.1
    143.0982	   416.0	   391.1	 -2876.8	   181.1
    143.1317	   366.0	   390.9	 -2926.6	   181.0
    143.1651	   363.0	   390.6	 -2929.4	   181.0
    143.1985	   359.0	   390.2	 -2933.0	   180.9
    143.2319	   391.0	   389.8	 -2900.6	   180.9
    143.2653	   381.0	   389.3	 -2910.0	   180.8
    143.2988	   360.0	   388.7	 -2930.4	   180.8
    143.3322	   372.0	   388.0	 -2917.7	   180.7
    143.3656	   380.0	   387.2	 -2909.0	   180.6
    143.3990	   391.0	   386.4	 -2897.2	   180.6
    143.4324	   373.0	   385.5	 -2914.3	   180.5
    143.4659	   362.0	   384.6	 -2924.3	   180.5
    143.4993	   357.0	   383.5	 -2928.3	   180.4
    143.5327	   359.0	   382.5	 -2925.2	   180.4
    143.5661	   350.0	   381.3	 -2933.1	   180.3
    143.5996	   380.0	   380.1	 -2901.9	   180.3
    143.6330	   344.0	   378.9	 -2936.6	   180.2
    143.6664	   370.0	   377.6	 -2909.3	   180.2
    143.6998	   387.0	   376.2	 -2891.0	   180.1
    143.7333	   390.0	   374.9	 -2886.6	   180.1
    143.7667	   391.0	   373.4	 -2884.2	   180.0
    143.8001	   349.0	   372.0	 -2924.7	   179.9
    143.8335	   355.0	   370.5	 -2917.2	   179.9
    143.8669	   370.0	   369.0	 -2900.7	   179.8
    143.9004	   400.0	   367.4	 -2869.2	   179.8
    143.9338	   337.0	   365.8	 -2930.6	   179.7
    143.9672	   373.0	   364.2	 -2893.0	   179.7
    144.0006	   366.0	   362.6	 -2898.3	   179.6
    144.0341	   385.0	   361.0	 -2877.7	   179.6
    144.0675	   343.0	   359.3	 -2918.1	   179.5
    144.1009	   364.0	   357.6	 -2895.4	   179.5
    144.1343	   321.0	   356.0	 -2936.7	   179.4
    144.1678	   395.0	   354.3	 -2861.0	   179.3
    144.2012	   364.0	   352.6	 -2890.4	   179.3
    144.2346	   361.0	   350.9	 -2891.7	   179.2
    144.2680	   352.0	   349.2	 -2899.0	   179.2
    144.3014	   327.0	   347.6	 -2922.3	   179.1
    144.3349	   359.0	   345.9	 -2888.7	   179.1
    144.3683	   320.0	   344.2	 -2926.0	   179.0
    144.4017	   329.0	   342.6	 -2915.3	   179.0
    144.4351	   331.0	   341.0	 -2911.7	   178.9
    144.4686	   360.0	   339.3	 -2881.1	   178.9
    144.5020	   377.0	   337.7	 -2862.5	   178.8
    144.5354	   358.0	   336.1	 -2879.9	   178.8
    144.5688	   336.0	   334.6	 -2900.3	   178.7
    144.6022	   365.0	   333.0	 -2869.8	   178.6
    144.6357	   372.0	   331.5	 -2861.3	   178.6
    144.6691	   322.0	   330.0	 -2909.7	   178.5
    144.7025	   336.0	   328.5	 -2894.3	   178.5
    144.7359	   306.0	   327.1	 -2922.8	   178.4
    144.7693	   330.0	   325.6	 -2897.4	   178.4
    144.8028	   334.0	   324.2	 -2892.0	   178.3
    144.8362	   338.0	   322.8	 -2886.6	   178.3
    144.8696	   369.0	   321.5	 -2854.2	   178.2
    144.9030	   321.0	   320.1	 -2900.9	   178.2
    144.9365	   366.0	   318.8	 -2854.6	   178.1
    144.9699	   327.0	   317.6	 -2892.3	   178.1
    145.0033	   325.0	   316.3	 -2893.1	   178.0
    145.0367	   369.0	   315.1	 -2847.8	   177.9
    145.0702	   344.0	   313.9	 -2871.6	   177.9
    145.1036	   343.0	   312.7	 -2871.5	   177.8
    145.1370	   347.0	   311.6	 -2866.3	   177.8
    145.1704	   362.0	   310.4	 -2850.2	   177.7
    145.2038	   309.0	   309.3	 -2902.1	   177.7
    145.2373	   317.0	   308.3	 -2893.0	   177.6
    145.2707	   352.0	   307.2	 -2857.0	   177.6
    145.3041	   316.0	   306.2	 -2891.9	   177.5
    145.3375	   330.0	   305.2	 -2876.9	   177.5
    145.3710	   345.0	   304.2	 -2861.0	   177.4
    145.4044	   348.0	   303.3	 -2857.0	   177.4
    145.4378	   294.0	   300.8	 -2908.6	   177.3
    145.4712	   317.0	   299.9	 -2884.7	   177.2
    145.5047	   333.0	   299.1	 -2867.8	   177.2
    145.5381	   315.0	   298.2	 -2884.9	   177.1
    145.5715	   325.0	   297.4	 -2874.1	   177.1
    145.6049	   317.0	   296.5	 -2881.3	   177.0
    145.6383	   324.0	   295.7	 -2873.5	   177.0
    145.6718	   300.0	   295.0	 -2896.7	   176.9
    145.7052	   323.0	   294.2	 -2873.0	   176.9
    145.7386	   355.0	   293.5	 -2840.2	   176.8
    145.7720	   353.0	   292.8	 -2841.5	   176.8
    145.8055	   338.0	   292.1	 -2855.8	   176.7
    145.8389	   335.0	   291.4	 -2858.1	   176.7
    145.8723	   335.0	   290.7	 -2857.4	   176.6
    145.9057	   303.0	   290.0	 -2888.8	   176.5
    145.9391	   324.0	   289.4	 -2867.2	   176.5
    145.9726	   329.0	   288.8	 -2861.5	   176.4
    146.0060	   330.0	   288.2	 -2859.9	   176.4
    146.0394	   309.0	   287.6	 -2880.3	   176.3
    146.0728	   322.0	   287.0	 -2866.8	   176.3
    146.1063	   347.0	   286.5	 -2841.2	   176.2
    146.1397	   305.0	   285.9	 -2882.7	   176.2
    146.1731	   314.0	   285.4	 -2873.1	   176.1
    146.2065	   331.0	   284.8	 -2855.6	   176.1
    146.2399	   310.0	   284.3	 -2876.1	   176.0
    146.2734	   343.0	   283.1	 -2841.8	   175.9
    146.3068	   322.0	   282.6	 -2862.4	   175.9
    146.3402	   317.0	   282.1	 -2866.9	   175.8
    146.3736	   352.0	   281.7	 -2831.4	   175.8
    146.4071	   309.0	   281.2	 -2874.0	   175.7
    146.4405	   367.0	   280.8	 -2815.6	   175.7
    146.4739	   331.0	   280.4	 -2851.1	   175.6
    146.5073	   342.0	   280.0	 -2839.7	   175.6
    146.5408	   314.0	   279.6	 -2867.3	   175.5
    146.5742	   309.0	   279.2	 -2871.9	   175.5
    146.6076	   339.0	   278.8	 -2841.5	   175.4
    146.6410	   334.0	   278.4	 -2846.1	   175.4
    146.6744	   333.0	   278.0	 -2846.8	   175.3
    146.7079	   286.0	   277.7	 -2893.4	   175.2
    146.7413	   319.0	   277.3	 -2860.1	   175.2
    146.7747	   322.0	   277.0	 -2856.7	   175.1
    146.8081	   340.0	   276.6	 -2838.4	   175.1
    146.8416	   345.0	   276.3	 -2833.1	   175.0
    146.8750	   320.0	   276.0	 -2857.7	   175.0
    146.9084	   316.0	   275.7	 -2861.4	   174.9
    146.9418	   317.0	   275.4	 -2860.1	   174.9
    146.9752	   361.0	   275.1	 -2815.8	   174.8
    147.0087	   325.0	   274.8	 -2851.5	   174.8
    147.0421	   302.0	   274.5	 -2874.2	   174.7
    147.0755	   310.0	   274.2	 -2866.0	   174.7
    147.1089	   320.0	   273.9	 -2855.7	   174.6
    147.1423	   352.0	   273.7	 -2823.4	   174.5
    147.1758	   332.0	   273.4	 -2843.2	   174.5
    147.2092	   299.0	   273.2	 -2875.9	   174.4
    147.2426	   335.0	   272.9	 -2839.7	   174.4
    147.2760	   317.0	   272.7	 -2857.4	   174.3
    147.3095	   314.0	   272.4	 -2860.2	   174.3
    147.3429	   312.0	   272.2	 -2862.0	   174.2
    147.3763	   325.0	   272.0	 -2848.7	   174.2
    147.4097	   316.0	   271.8	 -2857.5	   174.1
    147.4432	   334.0	   271.5	 -2839.3	   174.1
    147.4766	   281.0	   271.3	 -2892.1	   174.0
    147.5100	   315.0	   271.1	 -2857.9	   174.0
    147.5434	   332.0	   270.9	 -2840.7	   173.9
    147.5768	   336.0	   270.7	 -2836.5	   173.8
    147.6103	   332.0	   270.5	 -2840.3	   173.8
    147.6437	   309.0	   270.4	 -2863.1	   173.7
    147.6771	   336.0	   270.2	 -2835.9	   173.7
    147.7105	   299.0	   270.0	 -2872.7	   173.6
    147.7440	   315.0	   269.8	 -2856.6	   173.6
    147.7774	   310.0	   269.6	 -2861.4	   173.5
    147.8108	   336.0	   269.5	 -2835.2	   173.5
    147.8442	   295.0	   269.3	 -2876.1	   173.4
    147.8777	   317.0	   269.1	 -2853.9	   173.4
    147.9111	   294.0	   269.0	 -2876.7	   173.3
    147.9445	   324.0	   268.8	 -2846.6	   173.2
    147.9779	   318.0	   268.7	 -2852.4	   173.2
    148.0113	   334.0	   268.5	 -2836.3	   173.1
    148.0448	   318.0	   268.4	 -2852.1	   173.1
    148.0782	   335.0	   268.3	 -2835.0	   173.0
    148.1116	   302.0	   268.1	 -2867.9	   173.0
    148.1450	   301.0	   268.0	 -2868.7	   172.9
    148.1785	   318.0	   267.9	 -2851.6	   172.9
    148.2119	   317.0	   267.7	 -2852.5	   172.8
    148.2453	   337.0	   267.6	 -2832.4	   172.8
    148.2787	   320.0	   267.5	 -2849.2	   172.7
    148.3121	   325.0	   267.4	 -2844.1	   172.7
    148.3456	   345.0	   267.2	 -2824.0	   172.6
    148.3790	   368.0	   267.1	 -2800.9	   172.5
    148.4124	   302.0	   267.0	 -2866.8	   172.5
    148.4458	   327.0	   266.9	 -2841.7	   172.4
    148.4792	   302.0	   266.8	 -2866.6	   172.4
    148.5127	   294.0	   266.7	 -2874.5	   172.3
    148.5461	   316.0	   266.6	 -2852.4	   172.3
    148.5795	   318.0	   266.5	 -2850.3	   172.2
    148.6129	   308.0	   266.4	 -2860.2	   172.2
    148.6464	   309.0	   266.3	 -2859.1	   172.1
    148.6798	   315.0	   266.2	 -2853.0	   172.1
    148.7132	   336.0	   265.9	 -2831.6	   172.0
    148.7466	   305.0	   265.8	 -2862.5	   172.0
    148.7801	   314.0	   265.7	 -2853.5	   171.9
    148.8135	   353.0	   265.6	 -2814.4	   171.8
    148.8469	   340.0	   265.5	 -2827.3	   171.8
    148.8803	   345.0	   265.5	 -2822.2	   171.7
    148.9137	   307.0	   265.4	 -2860.1	   171.7
    148.9472	   313.0	   265.3	 -2854.1	   171.6
    148.9806	   320.0	   265.3	 -2847.0	   171.6
    149.0140	   290.0	   265.2	 -2876.9	   171.5
    149.0474	   339.0	   265.1	 -2827.9	   171.5
    149.0809	   331.0	   265.1	 -2835.8	   171.4
    149.1143	   277.0	   265.0	 -2889.7	   171.4
    149.1477	   313.0	   264.9	 -2853.7	   171.3
    149.1811	   321.0	   264.9	 -2845.6	   171.3
    149.2146	   291.0	   264.8	 -2875.6	   171.2
    149.2480	   329.0	   264.8	 -2837.5	   171.1
    149.2814	   342.0	   264.7	 -2824.5	   171.1
    149.3148	   316.0	   264.7	 -2850.4	   171.0
    149.3482	   359.0	   264.6	 -2807.4	   171.0
    149.3817	   321.0	   264.6	 -2845.3	   170.9
    149.4151	   335.0	   264.5	 -2831.3	   170.9
    149.4485	   299.0	   264.5	 -2867.2	   170.8
    149.4819	   344.0	   264.4	 -2822.2	   170.8
    149.5154	   330.0	   264.4	 -2836.2	   170.7
    149.5488	   324.0	   264.4	 -2842.1	   170.7
    149.5822	   304.0	   264.3	 -2862.1	   170.6
    149.6156	   288.0	   264.2	 -2877.9	   170.5
    149.6490	   340.0	   264.1	 -2825.9	   170.5
    149.6825	   304.0	   264.1	 -2861.8	   170.4
    149.7159	   322.0	   264.1	 -2843.8	   170.4
    149.7493	   289.0	   264.0	 -2876.8	   170.3
    149.7827	   338.0	   264.0	 -2827.8	   170.3
    149.8162	   255.0	   264.0	 -2910.7	   170.2
    149.8496	   318.0	   264.0	 -2847.7	   170.2
    149.8830	   310.0	   263.9	 -2855.7	   170.1
    149.9164	   323.0	   263.9	 -2842.7	   170.1
    149.9498	   315.0	   263.9	 -2850.6	   170.0
    149.9833	   319.0	   263.9	 -2846.6	   170.0
     31.6879	        	        	        	        	       0	(  1  0  0)	  0  1
     31.7681	        	        	        	        	       0	(  1  0  0)	  0  2
     34.3412	        	        	        	        	       0	(  0  0  2)	  0  1
     34.4285	        	        	        	        	       0	(  0  0  2)	  0  2
     36.1735	        	        	        	        	       0	(  1  0  1)	  0  1
     36.2658	        	        	        	        	       0	(  1  0  1)	  0  2
     47.4609	        	        	        	        	       0	(  1  0  2)	  0  1
     47.5851	        	        	        	        	       0	(  1  0  2)	  0  2
     56.5188	        	        	        	        	       0	(  1  1  0)	  0  1
     56.6707	        	        	        	        	       0	(  1  1  0)	  0  2
     62.7820	        	        	        	        	       0	(  1  0  3)	  0  1
     62.9544	        	        	        	        	       0	(  1  0  3)	  0  2
     66.3019	        	        	        	        	       0	(  2  0  0)	  0  1
     66.4865	        	        	        	        	       0	(  2  0  0)	  0  2
     67.8741	        	        	        	        	       0	(  1  1  2)	  0  1
     68.0642	        	        	        	        	       0	(  1  1  2)	  0  2
     69.0131	        	        	        	        	       0	(  2  0  1)	  0  1
     69.2074	        	        	        	        	       0	(  2  0  1)	  0  2
     72.4935	        	        	        	        	       0	(  0  0  4)	  0  1
     72.7007	        	        	        	        	       0	(  0  0  4)	  0  2
     76.8887	        	        	        	        	       0	(  2  0  2)	  0  1
     77.1130	        	        	        	        	       0	(  2  0  2)	  0  2
     81.3154	        	        	        	        	       0	(  1  0  4)	  0  1
     81.5581	        	        	        	        	       0	(  1  0  4)	  0  2
     89.5454	        	        	        	        	       0	(  2  0  3)	  0  1
     89.8258	        	        	        	        	       0	(  2  0  3)	  0  2
     92.7263	        	        	        	        	       0	(  2  1  0)	  0  1
     93.0229	        	        	        	        	       0	(  2  1  0)	  0  2
     95.2418	        	        	        	        	       0	(  2  1  1)	  0  1
     95.5516	        	        	        	        	       0	(  2  1  1)	  0  2
     98.5536	        	        	        	        	       0	(  1  1  4)	  0  1
     98.8821	        	        	        	        	       0	(  1  1  4)	  0  2
    102.8705	        	        	        	        	       0	(  2  1  2)	  0  1
    103.2253	        	        	        	        	       0	(  2  1  2)	  0  2
    104.0709	        	        	        	        	       0	(  1  0  5)	  0  1
    104.4335	        	        	        	        	       0	(  1  0  5)	  0  2
    107.3758	        	        	        	        	       0	(  2  0  4)	  0  1
    107.7609	        	        	        	        	       0	(  2  0  4)	  0  2
    110.3262	        	        	        	        	       0	(  3  0  0)	  0  1
    110.7329	        	        	        	        	       0	(  3  0  0)	  0  2
    113.0274	        	        	        	        	       0	(  3  0  1)	  0  1
    113.4553	        	        	        	        	       0	(  3  0  1)	  0  2
    116.2169	        	        	        	        	       0	(  2  1  3)	  0  1
    116.6721	        	        	        	        	       0	(  2  1  3)	  0  2
    121.5068	        	        	        	        	       0	(  3  0  2)	  0  1
    122.0130	        	        	        	        	       0	(  3  0  2)	  0  2
    125.1050	        	        	        	        	       0	(  0  0  6)	  0  1
    125.6511	        	        	        	        	       0	(  0  0  6)	  0  2
    133.8632	        	        	        	        	       0	(  2  0  5)	  0  1
    134.5306	        	        	        	        	       0	(  2  0  5)	  0  2
    136.4721	        	        	        	        	       0	(  1  0  6)	  0  1
    137.1848	        	        	        	        	       0	(  1  0  6)	  0  2
    137.8749	        	        	        	        	       0	(  3  0  3)	  0  1
    138.4586	        	        	        	        	       0	(  2  1  4)	  0  1
    138.6141	        	        	        	        	       0	(  3  0  3)	  0  2
    139.2094	        	        	        	        	       0	(  2  1  4)	  0  2
    142.8656	        	        	        	        	       0	(  2  2  0)	  0  1
    143.7154	        	        	        	        	       0	(  2  2  0)	  0  2
    161.2999	        	        	        	        	       0	(  3  1  0)	  0  1
    163.1005	        	        	        	        	       0	(  3  1  0)	  0  2
    166.5372	        	        	        	        	       0	(  2  2  2)	  0  1
    169.1893	        	        	        	        	       0	(  2  2  2)	  0  2
    172.3233	        	        	        	        	       0	(  3  1  1)	  0  1
