 Fe3O4   Chi2:  2.3671  CELL:    8.39871   8.39871   8.39871   90.0000   90.0000   90.0000   SPGR: 227:1                  TEMP:      0.00
  1   2693     1.54060     1.54439     0.00000     0.02073     0.00000    0
    78     0     1
       0.00000      28.00000
 2Theta	Yobs	Ycal	Yobs-Ycal	Backg	Posr	(hkl)	K
     10.0167	  7926.0	  3285.2	 -6390.5	  3159.8
     10.0501	  8105.0	  3285.2	 -6390.5	  3159.8
     10.0836	  7916.0	  3285.2	 -6390.5	  3159.8
     10.1170	  8100.0	  3285.2	 -6390.5	  3159.8
     10.1504	  7943.0	  3285.2	 -6390.5	  3159.8
     10.1838	  8043.0	  3285.2	 -6390.5	  3159.8
     10.2172	  8051.0	  3285.2	 -6390.5	  3159.8
     10.2507	  8026.0	  3285.2	 -6390.5	  3159.8
     10.2841	  8164.0	  3285.2	 -6390.5	  3159.8
     10.3175	  7996.0	  3285.2	 -6390.5	  3159.8
     10.3509	  8097.0	  3285.2	 -6390.5	  3159.8
     10.3844	  8289.0	  3285.2	 -6390.5	  3159.8
     10.4178	  8008.0	  3285.2	 -6390.5	  3159.8
     10.4512	  8267.0	  3285.2	 -6390.5	  3159.8
     10.4846	  8220.0	  3285.2	 -6390.5	  3159.8
     10.5180	  8376.0	  3285.2	 -6390.5	  3159.8
     10.5515	  8393.0	  3285.2	 -6390.5	  3159.8
     10.5849	  8434.0	  3285.2	 -6390.5	  3159.8
     10.6183	  8478.0	  3285.2	 -6390.5	  3159.8
     10.6517	  8499.0	  3285.2	 -6390.5	  3159.8
     10.6852	  8472.0	  3285.2	 -6390.5	  3159.8
     10.7186	  8519.0	  3285.2	 -6390.5	  3159.8
     10.7520	  8583.0	  3285.2	 -6390.5	  3159.8
     10.7854	  8687.0	  3285.2	 -6390.5	  3159.8
     10.8189	  8619.0	  3285.2	 -6390.5	  3159.8
     10.8523	  8727.0	  3285.2	 -6390.5	  3159.8
     10.8857	  8703.0	  3285.2	 -6390.5	  3159.8
     10.9191	  8904.0	  3285.2	 -6390.5	  3159.8
     10.9525	  8613.0	  3285.2	 -6390.5	  3159.8
     10.9860	  8892.0	  3285.2	 -6390.5	  3159.8
     11.0194	  8779.0	  3285.2	 -6390.5	  3159.8
     11.0528	  8825.0	  3285.2	 -6390.5	  3159.8
     11.0862	  8755.0	  3285.2	 -6390.5	  3159.8
     11.1197	  8728.0	  3285.2	 -6390.5	  3159.8
     11.1531	  8876.0	  3285.2	 -6390.5	  3159.8
     11.1865	  9136.0	  3285.2	 -6390.5	  3159.8
     11.2199	  9098.0	  3285.2	 -6390.5	  3159.8
     11.2533	  9084.0	  3285.2	 -6390.5	  3159.8
     11.2868	  9201.0	  3285.2	 -6390.5	  3159.8
     11.3202	  8894.0	  3285.2	 -6390.5	  3159.8
     11.3536	  9068.0	  3285.2	 -6390.5	  3159.8
     11.3870	  9170.0	  3285.2	 -6390.5	  3159.8
     11.4205	  9269.0	  3285.2	 -6390.5	  3159.8
     11.4539	  9250.0	  3285.2	 -6390.5	  3159.8
     11.4873	  9548.0	  3285.2	 -6390.5	  3159.8
     11.5207	  9144.0	  3285.2	 -6390.5	  3159.8
     11.5541	  9332.0	  3285.2	 -6390.5	  3159.8
     11.5876	  9618.0	  3285.2	 -6390.5	  3159.8
     11.6210	  9581.0	  3285.2	 -6390.5	  3159.8
     11.6544	  9704.0	  3285.2	 -6390.5	  3159.8
     11.6878	  9513.0	  3285.2	 -6390.5	  3159.8
     11.7213	  9625.0	  3285.2	 -6390.5	  3159.8
     11.7547	  9836.0	  3285.2	 -6390.5	  3159.8
     11.7881	  9858.0	  3285.2	 -6390.5	  3159.8
     11.8215	  9811.0	  3285.2	 -6390.5	  3159.8
     11.8550	  9848.0	  3285.2	 -6390.5	  3159.8
     11.8884	  9844.0	  3285.2	 -6390.5	  3159.8
     11.9218	  9733.0	  3285.2	 -6390.5	  3159.8
     11.9552	  9924.0	  3285.2	 -6390.5	  3159.8
     11.9886	  9988.0	  3285.2	 -6390.5	  3159.8
     12.0221	 10284.0	  3285.2	 -6390.5	  3159.8
     12.0555	 10155.0	  3285.2	 -6390.5	  3159.8
     12.0889	  9978.0	  3285.2	 -6390.5	  3159.8
     12.1223	 10588.0	  3285.2	 -6390.5	  3159.8
     12.1558	 10291.0	  3285.2	 -6390.5	  3159.8
     12.1892	 10268.0	  3285.2	 -6390.5	  3159.8
     12.2226	 10543.0	  3285.2	 -6390.5	  3159.8
     12.2560	 10467.0	  3285.2	 -6390.5	  3159.8
     12.2894	 10473.0	  3285.2	 -6390.5	  3159.8
     12.3229	 10552.0	  3285.2	 -6390.5	  3159.8
     12.3563	 10609.0	  3285.2	 -6390.5	  3159.8
     12.3897	 10744.0	  3285.2	 -6390.5	  3159.8
     12.4231	 10684.0	  3285.2	 -6390.5	  3159.8
     12.4566	 10769.0	  3285.2	 -6390.5	  3159.8
     12.4900	 10761.0	  3285.2	 -6390.5	  3159.8
     12.5234	 10684.0	  3285.2	 -6390.5	  3159.8
     12.5568	 11203.0	  3285.2	 -6390.5	  3159.8
     12.5902	 10860.0	  3285.2	 -6390.5	  3159.8
     12.6237	 11108.0	  3285.2	 -6390.5	  3159.8
     12.6571	 11272.0	  3285.2	 -6390.5	  3159.8
     12.6905	 11124.0	  3285.2	 -6390.5	  3159.8
     12.7239	 11082.0	  3285.2	 -6390.5	  3159.8
     12.7574	 11358.0	  3285.2	 -6390.5	  3159.8
     12.7908	 11561.0	  3285.2	 -6390.5	  3159.8
     12.8242	 11436.0	  3285.2	 -6390.5	  3159.8
     12.8576	 11514.0	  3285.2	 -6390.5	  3159.8
     12.8910	 11398.0	  3285.2	 -6390.5	  3159.8
     12.9245	 11803.0	  3285.2	 -6390.5	  3159.8
     12.9579	 11690.0	  3285.2	 -6390.5	  3159.8
     12.9913	 11971.0	  3285.2	 -6390.5	  3159.8
     13.0247	 12010.0	  3285.2	 -6390.5	  3159.8
     13.0582	 11884.0	  3285.2	 -6390.5	  3159.8
     13.0916	 11847.0	  3285.2	 -6390.5	  3159.8
     13.1250	 12300.0	  3285.2	 -6390.5	  3159.8
     13.1584	 12171.0	  3285.2	 -6390.5	  3159.8
     13.1919	 12248.0	  3285.2	 -6390.5	  3159.8
     13.2253	 12256.0	  3285.2	 -6390.5	  3159.8
     13.2587	 12419.0	  3285.2	 -6390.5	  3159.8
     13.2921	 12682.0	  3285.2	 -6390.5	  3159.8
     13.3255	 12655.0	  3285.2	 -6390.5	  3159.8
     13.3590	 12570.0	  3285.2	 -6390.5	  3159.8
     13.3924	 12808.0	  3285.2	 -6390.5	  3159.8
     13.4258	 12971.0	  3285.2	 -6390.5	  3159.8
     13.4592	 12776.0	  3285.2	 -6390.5	  3159.8
     13.4927	 12839.0	  3285.2	 -6390.5	  3159.8
     13.5261	 13164.0	  3285.2	 -6390.5	  3159.8
     13.5595	 13046.0	  3285.2	 -6390.5	  3159.8
     13.5929	 13202.0	  3285.2	 -6390.5	  3159.8
     13.6263	 13175.0	  3285.2	 -6390.5	  3159.8
     13.6598	 13361.0	  3285.2	 -6390.5	  3159.8
     13.6932	 13561.0	  3285.2	 -6390.5	  3159.8
     13.7266	 13378.0	  3285.2	 -6390.5	  3159.8
     13.7600	 13622.0	  3285.2	 -6390.5	  3159.8
     13.7935	 13722.0	  3285.2	 -6390.5	  3159.8
     13.8269	 13628.0	  3285.2	 -6390.5	  3159.8
     13.8603	 14070.0	  3285.2	 -6390.5	  3159.8
     13.8937	 13890.0	  3285.2	 -6390.5	  3159.8
     13.9271	 14069.0	  3285.2	 -6390.5	  3159.8
     13.9606	 14177.0	  3285.2	 -6390.5	  3159.8
     13.9940	 14277.0	  3285.2	 -6390.5	  3159.8
     14.0274	 14549.0	  3285.2	 -6390.5	  3159.8
     14.0608	 14617.0	  3285.2	 -6390.5	  3159.8
     14.0943	 14611.0	  3285.2	 -6390.5	  3159.8
     14.1277	 14712.0	  3285.2	 -6390.5	  3159.8
     14.1611	 14819.0	  3285.2	 -6390.5	  3159.8
     14.1945	 14898.0	  3285.2	 -6390.5	  3159.8
     14.2280	 14661.0	  3285.2	 -6390.5	  3159.8
     14.2614	 14943.0	  3285.2	 -6390.5	  3159.8
     14.2948	 15162.0	  3285.2	 -6390.5	  3159.8
     14.3282	 15094.0	  3285.2	 -6390.5	  3159.8
     14.3616	 15359.0	  3285.2	 -6390.5	  3159.8
     14.3951	 15384.0	  3285.2	 -6390.5	  3159.8
     14.4285	 15595.0	  3285.2	 -6390.5	  3159.8
     14.4619	 15649.0	  3285.2	 -6390.5	  3159.8
     14.4953	 16104.0	  3285.2	 -6390.5	  3159.8
     14.5288	 15699.0	  3285.2	 -6390.5	  3159.8
     14.5622	 16043.0	  3285.2	 -6390.5	  3159.8
     14.5956	 16012.0	  3285.2	 -6390.5	  3159.8
     14.6290	 16021.0	  3285.2	 -6390.5	  3159.8
     14.6624	 16273.0	  3285.2	 -6390.5	  3159.8
     14.6959	 16240.0	  3285.2	 -6390.5	  3159.8
     14.7293	 16388.0	  3285.2	 -6390.5	  3159.8
     14.7627	 16317.0	  3285.2	 -6390.5	  3159.8
     14.7961	 16799.0	  3285.2	 -6390.5	  3159.8
     14.8296	 16792.0	  3285.2	 -6390.5	  3159.8
     14.8630	 16798.0	  3285.2	 -6390.5	  3159.8
     14.8964	 17106.0	  3285.2	 -6390.5	  3159.8
     14.9298	 17119.0	  3285.2	 -6390.5	  3159.8
     14.9632	 17299.0	  3285.2	 -6390.5	  3159.8
     14.9967	 17176.0	  3285.2	 -6390.5	  3159.8
     15.0301	 17336.0	  3285.2	 -6390.5	  3159.8
     15.0635	 17581.0	  3285.2	 -6390.5	  3159.8
     15.0969	 17619.0	  3285.2	 -6390.5	  3159.8
     15.1304	 17766.0	  3285.2	 -6390.5	  3159.8
     15.1638	 17840.0	  3285.2	 -6390.5	  3159.8
     15.1972	 17830.0	  3285.2	 -6390.5	  3159.8
     15.2306	 18080.0	  3285.2	 -6390.5	  3159.8
     15.2640	 18330.0	  3285.2	 -6390.5	  3159.8
     15.2975	 18485.0	  3285.2	 -6390.5	  3159.8
     15.3309	 18400.0	  3285.2	 -6390.5	  3159.8
     15.3643	 18622.0	  3285.2	 -6390.5	  3159.8
     15.3977	 18717.0	  3285.2	 -6390.5	  3159.8
     15.4312	 18983.0	  3285.2	 -6390.5	  3159.8
     15.4646	 18934.0	  3285.2	 -6390.5	  3159.8
     15.4980	 19103.0	  3285.2	 -6390.5	  3159.8
     15.5314	 19162.0	  3285.2	 -6390.5	  3159.8
     15.5649	 19462.0	  3285.2	 -6390.5	  3159.8
     15.5983	 19266.0	  3285.2	 -6390.5	  3159.8
     15.6317	 19527.0	  3285.2	 -6390.5	  3159.8
     15.6651	 19799.0	  3285.2	 -6390.5	  3159.8
     15.6985	 19687.0	  3285.2	 -6390.5	  3159.8
     15.7320	 20033.0	  3285.2	 -6390.5	  3159.8
     15.7654	 19935.0	  3285.2	 -6390.5	  3159.8
     15.7988	 20116.0	  3285.2	 -6390.5	  3159.8
     15.8322	 20120.0	  3285.2	 -6390.5	  3159.8
     15.8657	 20363.0	  3285.2	 -6390.5	  3159.8
     15.8991	 20260.0	  3285.2	 -6390.5	  3159.8
     15.9325	 20631.0	  3285.2	 -6390.5	  3159.8
     15.9659	 21006.0	  3285.2	 -6390.5	  3159.8
     15.9993	 20730.0	  3285.2	 -6390.5	  3159.8
     16.0328	 20839.0	  3285.2	 -6390.5	  3159.8
     16.0662	 21001.0	  3285.2	 -6390.5	  3159.8
     16.0996	 21328.0	  3285.2	 -6390.5	  3159.8
     16.1330	 21721.0	  3285.2	 -6390.5	  3159.8
     16.1665	 21585.0	  3285.2	 -6390.5	  3159.8
     16.1999	 21776.0	  3285.2	 -6390.5	  3159.8
     16.2333	 21669.0	  3285.2	 -6390.5	  3159.8
     16.2667	 21603.0	  3285.2	 -6390.5	  3159.8
     16.3001	 22119.0	  3285.2	 -6390.5	  3159.8
     16.3336	 21929.0	  3285.2	 -6390.5	  3159.8
     16.3670	 22007.0	  3285.2	 -6390.5	  3159.8
     16.4004	 22012.0	  3285.2	 -6390.5	  3159.8
     16.4338	 22232.0	  3285.2	 -6390.5	  3159.8
     16.4673	 22563.0	  3285.2	 -6390.5	  3159.8
     16.5007	 22714.0	  3285.2	 -6390.5	  3159.8
     16.5341	 22554.0	  3285.2	 -6390.5	  3159.8
     16.5675	 22955.0	  3285.2	 -6390.5	  3159.8
     16.6010	 22969.0	  3285.2	 -6390.5	  3159.8
     16.6344	 23126.0	  3285.2	 -6390.5	  3159.8
     16.6678	 23387.0	  3285.2	 -6390.5	  3159.8
     16.7012	 23277.0	  3285.2	 -6390.5	  3159.8
     16.7346	 23318.0	  3285.2	 -6390.5	  3159.8
     16.7681	 23867.0	  3285.2	 -6390.5	  3159.8
     16.8015	 23716.0	  3285.2	 -6390.5	  3159.8
     16.8349	 23604.0	  3285.2	 -6390.5	  3159.8
     16.8683	 23828.0	  3285.2	 -6390.5	  3159.8
     16.9018	 24099.0	  3285.2	 -6390.5	  3159.8
     16.9352	 24006.0	  3285.2	 -6390.5	  3159.8
     16.9686	 23934.0	  3285.2	 -6390.5	  3159.8
     17.0020	 24374.0	  3285.2	 -6390.5	  3159.8
     17.0354	 24238.0	  3285.2	 -6390.5	  3159.8
     17.0689	 24190.0	  3285.2	 -6390.5	  3159.8
     17.1023	 24549.0	  3285.2	 -6390.5	  3159.8
     17.1357	 24391.0	  3285.2	 -6390.5	  3159.8
     17.1691	 24669.0	  3285.2	 -6390.5	  3159.8
     17.2026	 24756.0	  3285.2	 -6390.5	  3159.8
     17.2360	 24626.0	  3285.2	 -6390.5	  3159.8
     17.2694	 24839.0	  3285.2	 -6390.5	  3159.8
     17.3028	 24719.0	  3285.2	 -6390.5	  3159.8
     17.3362	 24785.0	  3285.2	 -6390.5	  3159.8
     17.3697	 24850.0	  3285.2	 -6390.5	  3159.8
     17.4031	 24996.0	  3285.2	 -6390.5	  3159.8
     17.4365	 25169.0	  3285.2	 -6390.5	  3159.8
     17.4699	 25068.0	  3285.2	 -6390.5	  3159.8
     17.5034	 25522.0	  3285.2	 -6390.5	  3159.8
     17.5368	 24813.0	  3285.2	 -6390.5	  3159.8
     17.5702	 25172.0	  3285.2	 -6390.5	  3159.8
     17.6036	 25016.0	  3285.2	 -6390.5	  3159.8
     17.6371	 25195.0	  3285.2	 -6390.5	  3159.8
     17.6705	 25248.0	  3285.2	 -6390.5	  3159.8
     17.7039	 25007.0	  3285.2	 -6390.5	  3159.8
     17.7373	 25511.0	  3285.2	 -6390.5	  3159.8
     17.7707	 25487.0	  3285.2	 -6390.5	  3159.8
     17.8042	 25150.0	  3285.2	 -6390.5	  3159.8
     17.8376	 25396.0	  3285.2	 -6390.5	  3159.8
     17.8710	 25157.0	  3285.2	 -6390.5	  3159.8
     17.9044	 25425.0	  3285.2	 -6390.5	  3159.8
     17.9379	 25370.0	  3285.2	 -6390.5	  3159.8
     17.9713	 25173.0	  3285.2	 -6390.5	  3159.8
     18.0047	 25562.0	  3285.2	 -6390.5	  3159.8
     18.0381	 25485.0	  3285.2	 -6390.5	  3159.8
     18.0715	 25158.0	  3285.2	 -6390.5	  3159.8
     18.1050	 25186.0	  3285.2	 -6390.5	  3159.8
     18.1384	 25352.0	  3285.2	 -6390.5	  3159.8
     18.1718	 25076.0	  3285.2	 -6390.5	  3159.8
     18.2052	 25199.0	  3285.2	 -6390.5	  3159.8
     18.2387	 25344.0	  3285.2	 -6390.5	  3159.8
     18.2721	 25437.0	  3285.2	 -6390.5	  3159.8
     18.3055	 25182.0	  3285.2	 -6390.5	  3159.8
     18.3389	 25534.0	  3285.2	 -6390.5	  3159.8
     18.3723	 25262.0	  3285.2	 -6390.5	  3159.8
     18.4058	 25048.0	  3285.2	 -6390.5	  3159.8
     18.4392	 25014.0	  3285.2	 -6390.5	  3159.8
     18.4726	 24959.0	  3285.2	 -6390.5	  3159.8
     18.5060	 24662.0	  3285.2	 -6390.5	  3159.8
     18.5395	 24616.0	  3285.2	 -6390.5	  3159.8
     18.5729	 24167.0	  3285.2	 -6390.5	  3159.8
     18.6063	 24081.0	  3285.2	 -6390.5	  3159.8
     18.6397	 23984.0	  3285.2	 -6390.5	  3159.8
     18.6731	 23860.0	  3285.2	 -6390.5	  3159.8
     18.7066	 23880.0	  3285.2	 -6390.5	  3159.8
     18.7400	 23693.0	  3285.2	 -6390.5	  3159.8
     18.7734	 23388.0	  3285.2	 -6390.5	  3159.8
     18.8068	 23332.0	  3285.2	 -6390.5	  3159.8
     18.8403	 23111.0	  3285.2	 -6390.5	  3159.8
     18.8737	 23077.0	  3285.2	 -6390.5	  3159.8
     18.9071	 23200.0	  3285.2	 -6390.5	  3159.8
     18.9405	 23108.0	  3285.2	 -6390.5	  3159.8
     18.9740	 22640.0	  3285.2	 -6390.5	  3159.8
     19.0074	 22741.0	  3285.2	 -6390.5	  3159.8
     19.0408	 22623.0	  3285.2	 -6390.5	  3159.8
     19.0742	 22545.0	  3285.2	 -6390.5	  3159.8
     19.1076	 22617.0	  3285.2	 -6390.5	  3159.8
     19.1411	 22278.0	  3285.2	 -6390.5	  3159.8
     19.1745	 22221.0	  3285.2	 -6390.5	  3159.8
     19.2079	 22311.0	  3285.2	 -6390.5	  3159.8
     19.2413	 21664.0	  3285.2	 -6390.5	  3159.8
     19.2748	 21491.0	  3285.2	 -6390.5	  3159.8
     19.3082	 21022.0	  3285.2	 -6390.5	  3159.8
     19.3416	 21466.0	  3285.2	 -6390.5	  3159.8
     19.3750	 21036.0	  3285.2	 -6390.5	  3159.8
     19.4084	 20745.0	  3285.2	 -6390.5	  3159.8
     19.4419	 20824.0	  3285.2	 -6390.5	  3159.8
     19.4753	 20732.0	  3285.2	 -6390.5	  3159.8
     19.5087	 20592.0	  3285.2	 -6390.5	  3159.8
     19.5421	 20353.0	  3285.2	 -6390.5	  3159.8
     19.5756	 20175.0	  3285.2	 -6390.5	  3159.8
     19.6090	 20118.0	  3285.2	 -6390.5	  3159.8
     19.6424	 19888.0	  3285.2	 -6390.5	  3159.8
     19.6758	 19680.0	  3285.2	 -6390.5	  3159.8
     19.7092	 19648.0	  3285.2	 -6390.5	  3159.8
     19.7427	 19413.0	  3285.2	 -6390.5	  3159.8
     19.7761	 19299.0	  3285.2	 -6390.5	  3159.8
     19.8095	 19018.0	  3285.2	 -6390.5	  3159.8
     19.8429	 18864.0	  3285.2	 -6390.5	  3159.8
     19.8764	 18825.0	  3285.2	 -6390.5	  3159.8
     19.9098	 18771.0	  3285.2	 -6390.5	  3159.8
     19.9432	 18092.0	  3285.2	 -6390.5	  3159.8
     19.9766	 18385.0	  3285.2	 -6390.5	  3159.8
     20.0100	 18138.0	  3285.2	 -6390.5	  3159.8
     20.0435	 17982.0	  3285.2	 -6390.5	  3159.8
     20.0769	 17790.0	  3285.2	 -6390.5	  3159.8
     20.1103	 17756.0	  3285.2	 -6390.5	  3159.8
     20.1437	 17356.0	  3285.2	 -6390.5	  3159.8
     20.1772	 17298.0	  3285.2	 -6390.5	  3159.8
     20.2106	 17174.0	  3285.2	 -6390.5	  3159.8
     20.2440	 16954.0	  3285.2	 -6390.5	  3159.8
     20.2774	 16885.0	  3285.2	 -6390.5	  3159.8
     20.3109	 16640.0	  3285.2	 -6390.5	  3159.8
     20.3443	 16567.0	  3285.2	 -6390.5	  3159.8
     20.3777	 16153.0	  3285.2	 -6390.5	  3159.8
     20.4111	 16197.0	  3285.2	 -6390.5	  3159.8
     20.4445	 16143.0	  3285.2	 -6390.5	  3159.8
     20.4780	 15757.0	  3285.2	 -6390.5	  3159.8
     20.5114	 15707.0	  3285.2	 -6390.5	  3159.8
     20.5448	 15507.0	  3285.2	 -6390.5	  3159.8
     20.5782	 15402.0	  3285.2	 -6390.5	  3159.8
     20.6117	 15331.0	  3285.2	 -6390.5	  3159.8
     20.6451	 15054.0	  3285.2	 -6390.5	  3159.8
     20.6785	 15197.0	  3285.2	 -6390.5	  3159.8
     20.7119	 15008.0	  3285.2	 -6390.5	  3159.8
     20.7453	 14815.0	  3285.2	 -6390.5	  3159.8
     20.7788	 14433.0	  3285.2	 -6390.5	  3159.8
     20.8122	 14406.0	  3285.2	 -6390.5	  3159.8
     20.8456	 14626.0	  3285.2	 -6390.5	  3159.8
     20.8790	 13946.0	  3285.2	 -6390.5	  3159.8
     20.9125	 13839.0	  3285.2	 -6390.5	  3159.8
     20.9459	 13823.0	  3285.2	 -6390.5	  3159.8
     20.9793	 13665.0	  3285.2	 -6390.5	  3159.8
     21.0127	 13634.0	  3285.2	 -6390.5	  3159.8
     21.0461	 13547.0	  3285.2	 -6390.5	  3159.8
     21.0796	 13414.0	  3285.2	 -6390.5	  3159.8
     21.1130	 13396.0	  3285.2	 -6390.5	  3159.8
     21.1464	 13114.0	  3285.2	 -6390.5	  3159.8
     21.1798	 12860.0	  3285.2	 -6390.5	  3159.8
     21.2133	 12982.0	  3285.2	 -6390.5	  3159.8
     21.2467	 12645.0	  3285.2	 -6390.5	  3159.8
     21.2801	 12479.0	  3285.2	 -6390.5	  3159.8
     21.3135	 12518.0	  3285.2	 -6390.5	  3159.8
     21.3470	 12206.0	  3285.2	 -6390.5	  3159.8
     21.3804	 11988.0	  3285.2	 -6390.5	  3159.8
     21.4138	 12230.0	  3285.2	 -6390.5	  3159.8
     21.4472	 12102.0	  3285.2	 -6390.5	  3159.8
     21.4806	 11880.0	  3285.2	 -6390.5	  3159.8
     21.5141	 11693.0	  3285.2	 -6390.5	  3159.8
     21.5475	 11553.0	  3285.2	 -6390.5	  3159.8
     21.5809	 11488.0	  3285.2	 -6390.5	  3159.8
     21.6143	 11261.0	  3285.2	 -6390.5	  3159.8
     21.6478	 11422.0	  3285.2	 -6390.5	  3159.8
     21.6812	 11291.0	  3285.2	 -6390.5	  3159.8
     21.7146	 10935.0	  3285.2	 -6390.5	  3159.8
     21.7480	 10747.0	  3285.2	 -6390.5	  3159.8
     21.7814	 10849.0	  3285.2	 -6390.5	  3159.8
     21.8149	 10690.0	  3285.2	 -6390.5	  3159.8
     21.8483	 10554.0	  3285.2	 -6390.5	  3159.8
     21.8817	 10613.0	  3285.2	 -6390.5	  3159.8
     21.9151	 10469.0	  3285.2	 -6390.5	  3159.8
     21.9486	 10252.0	  3285.2	 -6390.5	  3159.8
     21.9820	 10158.0	  3285.2	 -6390.5	  3159.8
     22.0154	 10100.0	  3285.2	 -6390.5	  3159.8
     22.0488	 10048.0	  3285.2	 -6390.5	  3159.8
     22.0822	  9824.0	  3285.2	 -6390.5	  3159.8
     22.1157	  9907.0	  3285.2	 -6390.5	  3159.8
     22.1491	  9940.0	  3285.2	 -6390.5	  3159.8
     22.1825	  9564.0	  3285.2	 -6390.5	  3159.8
     22.2159	  9647.0	  3285.2	 -6390.5	  3159.8
     22.2494	  9582.0	  3285.2	 -6390.5	  3159.8
     22.2828	  9350.0	  3285.2	 -6390.5	  3159.8
     22.3162	  9208.0	  3285.2	 -6390.5	  3159.8
     22.3496	  9253.0	  3285.2	 -6390.5	  3159.8
     22.3830	  9148.0	  3285.2	 -6390.5	  3159.8
     22.4165	  9126.0	  3285.2	 -6390.5	  3159.8
     22.4499	  8895.0	  3285.2	 -6390.5	  3159.8
     22.4833	  8817.0	  3285.2	 -6390.5	  3159.8
     22.5167	  8801.0	  3285.2	 -6390.5	  3159.8
     22.5502	  8709.0	  3285.2	 -6390.5	  3159.8
     22.5836	  8581.0	  3285.2	 -6390.5	  3159.8
     22.6170	  8435.0	  3285.2	 -6390.5	  3159.8
     22.6504	  8416.0	  3285.2	 -6390.5	  3159.8
     22.6839	  8369.0	  3285.2	 -6390.5	  3159.8
     22.7173	  8274.0	  3285.2	 -6390.5	  3159.8
     22.7507	  8291.0	  3285.2	 -6390.5	  3159.8
     22.7841	  8020.0	  3285.2	 -6390.5	  3159.8
     22.8175	  7898.0	  3285.2	 -6390.5	  3159.8
     22.8510	  8228.0	  3285.2	 -6390.5	  3159.8
     22.8844	  8011.0	  3285.2	 -6390.5	  3159.8
     22.9178	  7803.0	  3285.2	 -6390.5	  3159.8
     22.9512	  7890.0	  3285.2	 -6390.5	  3159.8
     22.9847	  7666.0	  3285.2	 -6390.5	  3159.8
     23.0181	  7535.0	  3285.2	 -6390.5	  3159.8
     23.0515	  7433.0	  3285.2	 -6390.5	  3159.8
     23.0849	  7518.0	  3285.2	 -6390.5	  3159.8
     23.1183	  7544.0	  3285.2	 -6390.5	  3159.8
     23.1518	  7417.0	  3285.2	 -6390.5	  3159.8
     23.1852	  7435.0	  3285.2	 -6390.5	  3159.8
     23.2186	  7402.0	  3285.2	 -6390.5	  3159.8
     23.2520	  7351.0	  3285.2	 -6390.5	  3159.8
     23.2855	  7212.0	  3285.2	 -6390.5	  3159.8
     23.3189	  7207.0	  3285.2	 -6390.5	  3159.8
     23.3523	  7178.0	  3285.2	 -6390.5	  3159.8
     23.3857	  6994.0	  3285.2	 -6390.5	  3159.8
     23.4191	  7017.0	  3285.2	 -6390.5	  3159.8
     23.4526	  6901.0	  3285.2	 -6390.5	  3159.8
     23.4860	  6881.0	  3285.2	 -6390.5	  3159.8
     23.5194	  6879.0	  3285.2	 -6390.5	  3159.8
     23.5528	  6704.0	  3285.2	 -6390.5	  3159.8
     23.5863	  6601.0	  3285.2	 -6390.5	  3159.8
     23.6197	  6736.0	  3285.2	 -6390.5	  3159.8
     23.6531	  6722.0	  3285.2	 -6390.5	  3159.8
     23.6865	  6476.0	  3285.2	 -6390.5	  3159.8
     23.7200	  6424.0	  3285.2	 -6390.5	  3159.8
     23.7534	  6566.0	  3285.2	 -6390.5	  3159.8
     23.7868	  6390.0	  3285.2	 -6390.5	  3159.8
     23.8202	  6230.0	  3285.2	 -6390.5	  3159.8
     23.8536	  6196.0	  3285.2	 -6390.5	  3159.8
     23.8871	  6378.0	  3285.2	 -6390.5	  3159.8
     23.9205	  6279.0	  3285.2	 -6390.5	  3159.8
     23.9539	  6138.0	  3285.2	 -6390.5	  3159.8
     23.9873	  6106.0	  3285.2	 -6390.5	  3159.8
     24.0208	  6147.0	  3285.2	 -6390.5	  3159.8
     24.0542	  6007.0	  3285.2	 -6390.5	  3159.8
     24.0876	  6010.0	  3285.2	 -6390.5	  3159.8
     24.1210	  5971.0	  3285.2	 -6390.5	  3159.8
     24.1544	  5844.0	  3285.2	 -6390.5	  3159.8
     24.1879	  5767.0	  3285.2	 -6390.5	  3159.8
     24.2213	  5830.0	  3285.2	 -6390.5	  3159.8
     24.2547	  5766.0	  3285.2	 -6390.5	  3159.8
     24.2881	  5730.0	  3285.2	 -6390.5	  3159.8
     24.3216	  5649.0	  3285.2	 -6390.5	  3159.8
     24.3550	  5617.0	  3285.2	 -6390.5	  3159.8
     24.3884	  5695.0	  3285.2	 -6390.5	  3159.8
     24.4218	  5590.0	  3285.2	 -6390.5	  3159.8
     24.4552	  5526.0	  3285.2	 -6390.5	  3159.8
     24.4887	  5502.0	  3285.2	 -6390.5	  3159.8
     24.5221	  5392.0	  3285.2	 -6390.5	  3159.8
     24.5555	  5482.0	  3285.2	 -6390.5	  3159.8
     24.5889	  5350.0	  3285.2	 -6390.5	  3159.8
     24.6224	  5362.0	  3285.2	 -6390.5	  3159.8
     24.6558	  5354.0	  3285.2	 -6390.5	  3159.8
     24.6892	  5262.0	  3285.2	 -6390.5	  3159.8
     24.7226	  5199.0	  3285.2	 -6390.5	  3159.8
     24.7561	  5292.0	  3285.2	 -6390.5	  3159.8
     24.7895	  5167.0	  3285.2	 -6390.5	  3159.8
     24.8229	  5210.0	  3285.2	 -6390.5	  3159.8
     24.8563	  5136.0	  3285.2	 -6390.5	  3159.8
     24.8897	  5009.0	  3285.2	 -6390.5	  3159.8
     24.9232	  4995.0	  3285.2	 -6390.5	  3159.8
     24.9566	  5000.0	  3285.2	 -6390.5	  3159.8
     24.9900	  4882.0	  3285.2	 -6390.5	  3159.8
     25.0234	  4895.0	  3285.2	 -6390.5	  3159.8
     25.0569	  4834.0	  3285.2	 -6390.5	  3159.8
     25.0903	  4773.0	  3285.2	 -6390.5	  3159.8
     25.1237	  4830.0	  3285.2	 -6390.5	  3159.8
     25.1571	  4822.0	  3285.2	 -6390.5	  3159.8
     25.1905	  4716.0	  3285.2	 -6390.5	  3159.8
     25.2240	  4798.0	  3285.2	 -6390.5	  3159.8
     25.2574	  4830.0	  3285.2	 -6390.5	  3159.8
     25.2908	  4701.0	  3285.2	 -6390.5	  3159.8
     25.3242	  4750.0	  3285.2	 -6390.5	  3159.8
     25.3577	  4638.0	  3285.2	 -6390.5	  3159.8
     25.3911	  4472.0	  3285.2	 -6390.5	  3159.8
     25.4245	  4506.0	  3285.2	 -6390.5	  3159.8
     25.4579	  4576.0	  3285.2	 -6390.5	  3159.8
     25.4913	  4606.0	  3285.2	 -6390.5	  3159.8
     25.5248	  4460.0	  3285.2	 -6390.5	  3159.8
     25.5582	  4611.0	  3285.2	 -6390.5	  3159.8
     25.5916	  4376.0	  3285.2	 -6390.5	  3159.8
     25.6250	  4381.0	  3285.2	 -6390.5	  3159.8
     25.6585	  4468.0	  3285.2	 -6390.5	  3159.8
     25.6919	  4422.0	  3285.2	 -6390.5	  3159.8
     25.7253	  4313.0	  3285.2	 -6390.5	  3159.8
     25.7587	  4271.0	  3285.2	 -6390.5	  3159.8
     25.7921	  4330.0	  3285.2	 -6390.5	  3159.8
     25.8256	  4210.0	  3285.2	 -6390.5	  3159.8
     25.8590	  4198.0	  3285.2	 -6390.5	  3159.8
     25.8924	  4345.0	  3285.2	 -6390.5	  3159.8
     25.9258	  4218.0	  3285.2	 -6390.5	  3159.8
     25.9593	  4145.0	  3285.2	 -6390.5	  3159.8
     25.9927	  4183.0	  3285.2	 -6390.5	  3159.8
     26.0261	  4132.0	  3285.2	 -6390.5	  3159.8
     26.0595	  4110.0	  3285.2	 -6390.5	  3159.8
     26.0930	  4100.0	  3285.2	 -6390.5	  3159.8
     26.1264	  4039.0	  3285.2	 -6390.5	  3159.8
     26.1598	  4177.0	  3285.2	 -6390.5	  3159.8
     26.1932	  4015.0	  3285.2	 -6390.5	  3159.8
     26.2266	  3978.0	  3285.2	 -6390.5	  3159.8
     26.2601	  3961.0	  3285.2	 -6390.5	  3159.8
     26.2935	  4110.0	  3285.2	 -6390.5	  3159.8
     26.3269	  4075.0	  3285.2	 -6390.5	  3159.8
     26.3603	  3969.0	  3285.2	 -6390.5	  3159.8
     26.3938	  3929.0	  3285.2	 -6390.5	  3159.8
     26.4272	  3890.0	  3285.2	 -6390.5	  3159.8
     26.4606	  3887.0	  3285.2	 -6390.5	  3159.8
     26.4940	  3902.0	  3285.2	 -6390.5	  3159.8
     26.5274	  3840.0	  3285.2	 -6390.5	  3159.8
     26.5609	  3806.0	  3285.2	 -6390.5	  3159.8
     26.5943	  3810.0	  3285.2	 -6390.5	  3159.8
     26.6277	  3790.0	  3285.2	 -6390.5	  3159.8
     26.6611	  3826.0	  3285.2	 -6390.5	  3159.8
     26.6946	  3883.0	  3285.2	 -6390.5	  3159.8
     26.7280	  3750.0	  3285.2	 -6390.5	  3159.8
     26.7614	  3797.0	  3285.2	 -6390.5	  3159.8
     26.7948	  3721.0	  3285.2	 -6390.5	  3159.8
     26.8282	  3711.0	  3285.2	 -6390.5	  3159.8
     26.8617	  3583.0	  3285.2	 -6390.5	  3159.8
     26.8951	  3619.0	  3285.2	 -6390.5	  3159.8
     26.9285	  3675.0	  3285.2	 -6390.5	  3159.8
     26.9619	  3737.0	  3285.2	 -6390.5	  3159.8
     26.9954	  3633.0	  3285.2	 -6390.5	  3159.8
     27.0288	  3599.0	  3285.2	 -6390.5	  3159.8
     27.0622	  3593.0	  3285.2	 -6390.5	  3159.8
     27.0956	  3480.0	  3285.2	 -6390.5	  3159.8
     27.1291	  3548.0	  3285.2	 -6390.5	  3159.8
     27.1625	  3581.0	  3285.2	 -6390.5	  3159.8
     27.1959	  3511.0	  3285.2	 -6390.5	  3159.8
     27.2293	  3422.0	  3285.2	 -6390.5	  3159.8
     27.2627	  3554.0	  3285.2	 -6390.5	  3159.8
     27.2962	  3351.0	  3285.2	 -6390.5	  3159.8
     27.3296	  3495.0	  3285.2	 -6390.5	  3159.8
     27.3630	  3529.0	  3285.2	 -6390.5	  3159.8
     27.3964	  3415.0	  3285.2	 -6390.5	  3159.8
     27.4299	  3421.0	  3285.2	 -6390.5	  3159.8
     27.4633	  3375.0	  3285.2	 -6390.5	  3159.8
     27.4967	  3434.0	  3285.2	 -6390.5	  3159.8
     27.5301	  3353.0	  3285.2	 -6390.5	  3159.8
     27.5635	  3388.0	  3285.2	 -6390.5	  3159.8
     27.5970	  3230.0	  3285.2	 -6390.5	  3159.8
     27.6304	  3353.0	  3285.2	 -6390.5	  3159.8
     27.6638	  3362.0	  3285.2	 -6390.5	  3159.8
     27.6972	  3391.0	  3285.2	 -6390.5	  3159.8
     27.7307	  3306.0	  3285.2	 -6390.5	  3159.8
     27.7641	  3317.0	  3285.5	 -6390.5	  3160.1
     27.7975	  3274.0	  3276.5	 -6390.5	  3151.1
     27.8309	  3256.0	  3267.5	 -6390.5	  3142.1
     27.8643	  3212.0	  3258.5	 -6390.5	  3133.0
     27.8978	  3292.0	  3249.4	 -6390.5	  3124.0
     27.9312	  3303.0	  3240.4	 -6390.5	  3115.0
     27.9646	  3339.0	  3231.4	 -6390.5	  3106.0
     27.9980	  3232.0	  3222.4	 -6390.5	  3096.9
     28.0315	  3240.0	  3224.4	 -6374.9	  3087.9
     28.0649	  3268.0	  3215.8	 -6338.3	  3078.9
     28.0983	  3149.0	  3207.1	 -6448.6	  3069.9
     28.1317	  3230.0	  3198.5	 -6359.0	  3060.9
     28.1651	  3208.0	  3189.9	 -6372.4	  3051.8
     28.1986	  3133.0	  3181.3	 -6438.8	  3042.8
     28.2320	  3255.0	  3172.8	 -6308.3	  3033.8
     28.2654	  3147.0	  3164.2	 -6407.7	  3024.8
     28.2988	  3077.0	  3155.7	 -6469.2	  3015.7
     28.3323	  3143.0	  3147.3	 -6394.8	  3006.7
     28.3657	  3231.0	  3138.8	 -6298.3	  2997.7
     28.3991	  3103.0	  3130.4	 -6417.9	  2988.7
     28.4325	  3128.0	  3122.0	 -6384.5	  2979.7
     28.4660	  3162.0	  3113.7	 -6342.2	  2970.6
     28.4994	  3139.0	  3105.4	 -6356.9	  2961.6
     28.5328	  3094.0	  3097.2	 -6393.7	  2952.6
     28.5662	  3166.0	  3089.0	 -6313.5	  2943.6
     28.5996	  3125.0	  3080.8	 -6346.3	  2934.5
     28.6331	  3100.0	  3072.8	 -6363.3	  2925.5
     28.6665	  3010.0	  3064.7	 -6445.2	  2916.5
     28.6999	  3020.0	  3056.8	 -6427.3	  2907.5
     28.7333	  3082.0	  3048.9	 -6357.4	  2898.4
     28.7668	  3178.0	  3041.2	 -6253.7	  2889.4
     28.8002	  3247.0	  3033.5	 -6177.0	  2880.4
     28.8336	  3182.0	  3025.9	 -6234.4	  2871.4
     28.8670	  3081.0	  3018.4	 -6327.9	  2862.4
     28.9004	  3118.0	  3011.1	 -6283.6	  2853.3
     28.9339	  3060.0	  3003.9	 -6334.4	  2844.3
     28.9673	  2997.0	  2996.9	 -6390.4	  2835.3
     29.0007	  3011.0	  2990.0	 -6369.5	  2826.3
     29.0341	  3020.0	  2983.4	 -6353.9	  2817.2
     29.0676	  2994.0	  2979.4	 -6375.9	  2810.7
     29.1010	  2995.0	  2976.1	 -6371.6	  2804.5
     29.1344	  3025.0	  2973.0	 -6338.5	  2798.3
     29.1678	  2977.0	  2970.3	 -6383.8	  2792.2
     29.2012	  3038.0	  2967.9	 -6320.4	  2786.0
     29.2347	  3002.0	  2966.0	 -6354.5	  2779.8
     29.2681	  2950.0	  2964.6	 -6405.1	  2773.6
     29.3015	  2941.0	  2963.7	 -6413.2	  2767.4
     29.3349	  3078.0	  2963.6	 -6276.1	  2761.2
     29.3684	  3101.0	  2964.2	 -6253.7	  2755.0
     29.4018	  3043.0	  2965.7	 -6313.2	  2748.9
     29.4352	  3031.0	  2968.4	 -6327.9	  2742.7
     29.4686	  3037.0	  2972.3	 -6325.8	  2736.5
     29.5020	  3074.0	  2977.9	 -6294.4	  2730.3
     29.5355	  2938.0	  2985.4	 -6437.9	  2724.1
     29.5689	  3015.0	  2995.3	 -6370.8	  2717.9
     29.6023	  3054.0	  3008.2	 -6344.7	  2711.7
     29.6357	  3035.0	  3024.9	 -6380.4	  2705.5
     29.6692	  3004.0	  3046.6	 -6433.1	  2699.4
     29.7026	  3028.0	  3074.9	 -6437.4	  2693.2
     29.7360	  3134.0	  3112.2	 -6368.7	  2687.0
     29.7694	  3072.0	  3161.8	 -6480.3	  2680.8
     29.8029	  3203.0	  3228.5	 -6416.0	  2674.7
     29.8363	  3355.0	  3318.2	 -6353.7	  2668.7
     29.8697	  3514.0	  3438.7	 -6315.2	  2662.7
     29.9031	  3666.0	  3598.3	 -6322.8	  2656.7
     29.9365	  3749.0	  3805.5	 -6447.0	  2650.7
     29.9700	  3945.0	  4064.4	 -6509.9	  2644.6
     30.0034	  4321.0	  4367.1	 -6436.6	  2638.6
     30.0368	  4645.0	  4680.1	 -6425.6	  2632.6
     30.0702	  4936.0	  4936.8	 -6391.3	  2626.6
     30.1037	  5050.0	  5060.9	 -6401.4	  2620.6
     30.1371	  5080.0	  5016.3	 -6326.8	  2614.6
     30.1705	  4680.0	  4824.7	 -6535.2	  2608.6
     30.2039	  4528.0	  4540.3	 -6402.8	  2602.5
     30.2373	  4118.0	  4225.1	 -6497.6	  2596.5
     30.2708	  3708.0	  3928.5	 -6611.0	  2590.5
     30.3042	  3619.0	  3675.5	 -6447.0	  2584.5
     30.3376	  3492.0	  3471.5	 -6370.0	  2578.5
     30.3710	  3331.0	  3311.9	 -6371.4	  2572.5
     30.4045	  3116.0	  3188.6	 -6463.1	  2566.5
     30.4379	  3217.0	  3093.5	 -6267.0	  2560.4
     30.4713	  3023.0	  3019.7	 -6387.2	  2554.4
     30.5047	  2942.0	  2961.3	 -6409.8	  2548.4
     30.5382	  2967.0	  2914.4	 -6337.9	  2542.4
     30.5716	  2929.0	  2875.7	 -6337.2	  2536.4
     30.6050	  2886.0	  2843.2	 -6347.7	  2530.4
     30.6384	  2867.0	  2815.4	 -6338.9	  2524.3
     30.6718	  2705.0	  2791.1	 -6476.6	  2518.3
     30.7053	  2804.0	  2769.7	 -6356.2	  2512.3
     30.7387	  2865.0	  2750.8	 -6276.3	  2506.6
     30.7721	  2751.0	  2736.8	 -6376.3	  2503.9
     30.8055	  2751.0	  2724.4	 -6363.9	  2501.2
     30.8390	  2702.0	  2713.1	 -6401.6	  2498.5
     30.8724	  2719.0	  2703.0	 -6374.5	  2495.8
     30.9058	  2599.0	  2693.7	 -6485.2	  2493.1
     30.9392	  2691.0	  2685.2	 -6384.7	  2490.4
     30.9726	  2803.0	  2677.3	 -6264.8	  2487.7
     31.0061	  2671.0	  2670.0	 -6389.5	  2485.0
     31.0395	  2664.0	  2663.1	 -6389.6	  2482.3
     31.0729	  2531.0	  2656.7	 -6516.2	  2479.5
     31.1063	  2643.0	  2650.6	 -6398.1	  2476.8
     31.1398	  2607.0	  2644.9	 -6428.4	  2474.1
     31.1732	  2628.0	  2639.4	 -6401.9	  2471.4
     31.2066	  2575.0	  2634.2	 -6449.7	  2468.7
     31.2400	  2529.0	  2629.1	 -6490.6	  2466.0
     31.2734	  2681.0	  2624.3	 -6333.8	  2463.3
     31.3069	  2575.0	  2619.7	 -6435.2	  2460.6
     31.3403	  2630.0	  2615.2	 -6375.7	  2457.9
     31.3737	  2618.0	  2610.8	 -6383.3	  2455.2
     31.4071	  2472.0	  2606.6	 -6525.1	  2452.5
     31.4406	  2561.0	  2602.5	 -6432.0	  2449.8
     31.4740	  2570.0	  2598.4	 -6418.9	  2447.1
     31.5074	  2690.0	  2594.5	 -6295.0	  2444.4
     31.5408	  2641.0	  2590.7	 -6340.2	  2441.7
     31.5742	  2559.0	  2586.9	 -6418.4	  2438.9
     31.6077	  2577.0	  2592.0	 -6405.5	  2436.2
     31.6411	  2609.0	  2588.5	 -6370.0	  2433.5
     31.6745	  2574.0	  2589.4	 -6405.9	  2430.8
     31.7079	  2509.0	  2586.2	 -6467.7	  2428.1
     31.7414	  2621.0	  2582.9	 -6352.4	  2425.4
     31.7748	  2626.0	  2579.8	 -6344.3	  2422.7
     31.8082	  2674.0	  2576.6	 -6293.1	  2420.0
     31.8416	  2610.0	  2573.6	 -6354.1	  2417.3
     31.8750	  2627.0	  2570.5	 -6334.0	  2414.6
     31.9085	  2608.0	  2567.5	 -6350.0	  2411.9
     31.9419	  2615.0	  2564.6	 -6340.1	  2409.2
     31.9753	  2521.0	  2561.7	 -6431.2	  2406.5
     32.0087	  2509.0	  2558.8	 -6440.3	  2403.8
     32.0422	  2568.0	  2556.8	 -6379.3	  2402.0
     32.0756	  2618.0	  2554.9	 -6327.4	  2400.2
     32.1090	  2603.0	  2553.0	 -6340.5	  2398.4
     32.1424	  2616.0	  2551.2	 -6325.7	  2396.5
     32.1759	  2550.0	  2549.4	 -6389.9	  2394.7
     32.2093	  2460.0	  2547.6	 -6478.1	  2392.9
     32.2427	  2520.0	  2545.8	 -6416.3	  2391.1
     32.2761	  2475.0	  2544.1	 -6459.6	  2389.3
     32.3095	  2593.0	  2542.3	 -6339.8	  2387.5
     32.3430	  2471.0	  2540.7	 -6460.2	  2385.7
     32.3764	  2472.0	  2539.0	 -6457.5	  2383.9
     32.4098	  2512.0	  2537.4	 -6415.9	  2382.1
     32.4432	  2600.0	  2535.8	 -6326.3	  2380.3
     32.4767	  2590.0	  2534.2	 -6334.7	  2378.5
     32.5101	  2432.0	  2532.6	 -6491.1	  2376.7
     32.5435	  2373.0	  2531.1	 -6548.6	  2374.9
     32.5769	  2449.0	  2529.6	 -6471.1	  2373.1
     32.6103	  2509.0	  2528.1	 -6409.6	  2371.3
     32.6438	  2560.0	  2526.7	 -6357.2	  2369.5
     32.6772	  2508.0	  2525.3	 -6407.8	  2367.7
     32.7106	  2508.0	  2523.9	 -6406.4	  2365.9
     32.7440	  2597.0	  2522.5	 -6316.0	  2364.1
     32.7775	  2562.0	  2521.2	 -6349.7	  2362.3
     32.8109	  2582.0	  2519.9	 -6328.4	  2360.5
     32.8443	  2417.0	  2518.6	 -6492.1	  2358.7
     32.8777	  2509.0	  2517.4	 -6398.9	  2356.9
     32.9111	  2452.0	  2516.2	 -6454.7	  2355.0
     32.9446	  2441.0	  2515.0	 -6464.5	  2353.2
     32.9780	  2416.0	  2513.9	 -6488.4	  2351.4
     33.0114	  2481.0	  2512.8	 -6422.3	  2349.6
     33.0448	  2432.0	  2511.7	 -6470.2	  2347.8
     33.0783	  2544.0	  2510.7	 -6357.2	  2346.0
     33.1117	  2537.0	  2509.8	 -6363.3	  2344.2
     33.1451	  2473.0	  2508.8	 -6426.3	  2342.4
     33.1785	  2446.0	  2508.0	 -6452.5	  2340.6
     33.2120	  2613.0	  2507.8	 -6285.3	  2338.8
     33.2454	  2510.0	  2507.0	 -6387.5	  2337.0
     33.2788	  2585.0	  2506.3	 -6311.8	  2335.2
     33.3122	  2498.0	  2510.4	 -6402.9	  2337.8
     33.3456	  2526.0	  2514.6	 -6379.1	  2340.7
     33.3791	  2559.0	  2518.8	 -6350.3	  2343.7
     33.4125	  2536.0	  2523.1	 -6377.6	  2346.6
     33.4459	  2645.0	  2527.5	 -6273.0	  2349.6
     33.4793	  2476.0	  2532.0	 -6446.5	  2352.5
     33.5128	  2550.0	  2536.6	 -6377.1	  2355.5
     33.5462	  2637.0	  2541.2	 -6294.7	  2358.4
     33.5796	  2603.0	  2546.0	 -6333.5	  2361.4
     33.6130	  2554.0	  2550.8	 -6387.3	  2364.3
     33.6464	  2527.0	  2555.8	 -6419.3	  2367.3
     33.6799	  2575.0	  2560.8	 -6376.3	  2370.2
     33.7133	  2623.0	  2566.0	 -6333.5	  2373.2
     33.7467	  2658.0	  2571.4	 -6303.9	  2376.2
     33.7801	  2665.0	  2576.9	 -6302.4	  2379.1
     33.8136	  2705.0	  2582.5	 -6268.0	  2382.1
     33.8470	  2837.0	  2588.3	 -6141.8	  2385.0
     33.8804	  2919.0	  2594.3	 -6065.8	  2388.0
     33.9138	  2857.0	  2600.5	 -6134.0	  2390.9
     33.9472	  2841.0	  2604.8	 -6154.3	  2393.9
     33.9807	  2804.0	  2611.5	 -6198.0	  2396.8
     34.0141	  2692.0	  2617.3	 -6315.8	  2399.8
     34.0475	  2840.0	  2624.6	 -6175.1	  2402.7
     34.0809	  2768.0	  2632.1	 -6254.6	  2405.7
     34.1144	  2743.0	  2640.0	 -6287.5	  2408.6
     34.1478	  2747.0	  2648.3	 -6291.8	  2411.6
     34.1812	  2738.0	  2657.0	 -6309.5	  2414.5
     34.2146	  2706.0	  2666.1	 -6350.6	  2417.5
     34.2481	  2628.0	  2675.8	 -6438.3	  2420.4
     34.2815	  2658.0	  2686.0	 -6418.5	  2423.4
     34.3149	  2719.0	  2696.8	 -6368.3	  2426.4
     34.3483	  2697.0	  2708.3	 -6401.8	  2429.3
     34.3817	  2677.0	  2720.6	 -6434.1	  2432.3
     34.4152	  2752.0	  2733.7	 -6372.2	  2435.2
     34.4486	  2644.0	  2747.9	 -6494.4	  2438.2
     34.4820	  2617.0	  2762.6	 -6536.1	  2440.6
     34.5154	  2720.0	  2778.6	 -6449.1	  2443.0
     34.5489	  2676.0	  2796.0	 -6510.5	  2445.4
     34.5823	  2784.0	  2815.2	 -6421.7	  2447.8
     34.6157	  2819.0	  2836.2	 -6407.7	  2450.2
     34.6491	  2760.0	  2859.4	 -6489.9	  2452.6
     34.6825	  2845.0	  2885.3	 -6430.8	  2455.0
     34.7160	  2934.0	  2914.1	 -6370.6	  2457.4
     34.7494	  2887.0	  2946.5	 -6450.0	  2459.8
     34.7828	  2932.0	  2983.0	 -6441.5	  2462.2
     34.8162	  2914.0	  3024.6	 -6501.1	  2464.6
     34.8497	  2995.0	  3072.3	 -6467.8	  2467.0
     34.8831	  3000.0	  3127.3	 -6517.8	  2469.4
     34.9165	  3174.0	  3191.3	 -6407.8	  2471.8
     34.9499	  3261.0	  3266.8	 -6396.3	  2474.2
     34.9833	  3375.0	  3356.6	 -6372.1	  2476.7
     35.0168	  3487.0	  3465.1	 -6368.6	  2479.1
     35.0502	  3761.0	  3598.1	 -6227.6	  2481.5
     35.0836	  3707.0	  3763.4	 -6446.9	  2483.9
     35.1170	  4012.0	  3971.5	 -6350.0	  2486.3
     35.1505	  4392.0	  4235.8	 -6234.3	  2488.7
     35.1839	  4672.0	  4572.7	 -6291.2	  2491.1
     35.2173	  5013.0	  5001.8	 -6379.3	  2493.5
     35.2507	  5469.0	  5542.6	 -6464.1	  2495.9
     35.2841	  6158.0	  6211.5	 -6444.0	  2498.3
     35.3176	  6862.0	  7009.2	 -6537.7	  2500.7
     35.3510	  7600.0	  7900.5	 -6691.0	  2503.1
     35.3844	  8722.0	  8787.4	 -6455.9	  2505.5
     35.4178	  9736.0	  9502.6	 -6157.1	  2506.4
     35.4513	 10278.0	  9874.8	 -5987.3	  2505.3
     35.4847	  9825.0	  9827.3	 -6392.8	  2504.2
     35.5181	  9339.0	  9400.6	 -6452.1	  2503.1
     35.5515	  8855.0	  8701.8	 -6237.3	  2502.1
     35.5850	  7878.0	  7862.3	 -6374.8	  2501.0
     35.6184	  6912.0	  7009.1	 -6487.6	  2499.9
     35.6518	  6092.0	  6231.2	 -6529.7	  2498.8
     35.6852	  5519.0	  5569.9	 -6441.4	  2497.7
     35.7186	  5055.0	  5030.5	 -6366.0	  2496.7
     35.7521	  4776.0	  4600.9	 -6215.4	  2495.6
     35.7855	  4366.0	  4262.5	 -6287.0	  2494.5
     35.8189	  4042.0	  3996.9	 -6345.4	  2493.4
     35.8523	  3697.0	  3787.9	 -6481.4	  2492.3
     35.8858	  3581.0	  3622.2	 -6431.7	  2491.2
     35.9192	  3601.0	  3489.3	 -6278.8	  2490.2
     35.9526	  3327.0	  3381.4	 -6444.9	  2489.1
     35.9860	  3390.0	  3292.5	 -6293.0	  2488.0
     36.0194	  3173.0	  3218.5	 -6436.0	  2486.9
     36.0529	  3111.0	  3156.0	 -6435.5	  2485.8
     36.0863	  3026.0	  3102.8	 -6467.3	  2484.7
     36.1197	  2921.0	  3057.1	 -6526.6	  2483.7
     36.1531	  2880.0	  3017.7	 -6528.2	  2482.6
     36.1866	  2910.0	  2983.4	 -6463.9	  2481.5
     36.2200	  2805.0	  2953.5	 -6539.0	  2480.4
     36.2534	  2762.0	  2927.3	 -6555.8	  2479.3
     36.2868	  2845.0	  2904.3	 -6449.8	  2478.2
     36.3202	  2706.0	  2884.1	 -6568.6	  2477.2
     36.3537	  2669.0	  2866.4	 -6587.9	  2476.1
     36.3871	  2611.0	  2850.8	 -6630.3	  2475.0
     36.4205	  2635.0	  2837.3	 -6592.8	  2473.9
     36.4539	  2584.0	  2825.5	 -6632.0	  2472.8
     36.4874	  2699.0	  2812.1	 -6503.6	  2468.3
     36.5208	  2663.0	  2798.8	 -6526.3	  2462.3
     36.5542	  2724.0	  2787.3	 -6453.8	  2456.3
     36.5876	  2673.0	  2777.5	 -6495.0	  2450.2
     36.6211	  2680.0	  2769.5	 -6480.0	  2444.2
     36.6545	  2702.0	  2763.7	 -6452.2	  2438.2
     36.6879	  2761.0	  2760.3	 -6389.8	  2432.2
     36.7213	  2755.0	  2760.0	 -6395.5	  2426.2
     36.7547	  2700.0	  2763.3	 -6453.8	  2420.2
     36.7882	  2729.0	  2771.2	 -6432.7	  2414.2
     36.8216	  2666.0	  2784.8	 -6509.3	  2408.1
     36.8550	  2706.0	  2805.1	 -6489.6	  2402.1
     36.8884	  2669.0	  2833.6	 -6555.1	  2396.1
     36.9219	  2813.0	  2870.7	 -6448.2	  2390.1
     36.9553	  2807.0	  2916.2	 -6499.7	  2384.1
     36.9887	  2904.0	  2966.4	 -6452.9	  2378.1
     37.0221	  2975.0	  3014.1	 -6429.6	  2372.1
     37.0555	  3070.0	  3048.0	 -6368.5	  2366.0
     37.0890	  3052.0	  3058.3	 -6396.8	  2360.0
     37.1224	  2998.0	  3041.7	 -6434.2	  2354.0
     37.1558	  2894.0	  3001.9	 -6498.4	  2348.0
     37.1892	  2924.0	  2945.7	 -6412.2	  2342.0
     37.2227	  2837.0	  2881.3	 -6434.8	  2336.0
     37.2561	  2716.0	  2816.4	 -6490.9	  2330.0
     37.2895	  2641.0	  2756.5	 -6506.0	  2323.9
     37.3229	  2696.0	  2704.1	 -6398.6	  2317.9
     37.3563	  2637.0	  2659.8	 -6413.3	  2311.9
     37.3898	  2551.0	  2622.7	 -6462.2	  2305.9
     37.4232	  2671.0	  2592.6	 -6312.1	  2300.7
     37.4566	  2477.0	  2572.5	 -6486.0	  2300.7
     37.4900	  2606.0	  2556.4	 -6340.9	  2300.7
     37.5235	  2558.0	  2543.2	 -6375.7	  2300.7
     37.5569	  2550.0	  2532.4	 -6372.9	  2300.7
     37.5903	  2580.0	  2523.4	 -6333.9	  2300.7
     37.6237	  2493.0	  2515.8	 -6413.3	  2300.7
     37.6572	  2414.0	  2509.3	 -6485.8	  2300.7
     37.6906	  2483.0	  2503.7	 -6411.2	  2300.7
     37.7240	  2518.0	  2498.7	 -6371.2	  2300.7
     37.7574	  2479.0	  2494.4	 -6405.9	  2300.7
     37.7908	  2439.0	  2490.5	 -6442.0	  2300.7
     37.8243	  2451.0	  2487.0	 -6426.5	  2300.7
     37.8577	  2359.0	  2483.9	 -6515.4	  2300.7
     37.8911	  2417.0	  2481.1	 -6454.6	  2300.7
     37.9245	  2455.0	  2478.5	 -6414.0	  2300.7
     37.9580	  2493.0	  2476.1	 -6373.6	  2300.7
     37.9914	  2448.0	  2474.0	 -6416.5	  2300.7
     38.0248	  2477.0	  2472.0	 -6385.5	  2300.7
     38.0582	  2451.0	  2470.1	 -6409.6	  2300.7
     38.0916	  2515.0	  2468.4	 -6343.9	  2300.7
     38.1251	  2566.0	  2466.8	 -6291.3	  2300.7
     38.1585	  2473.0	  2465.3	 -6382.8	  2300.7
     38.1919	  2444.0	  2463.9	 -6410.4	  2300.7
     38.2253	  2425.0	  2462.6	 -6428.1	  2300.7
     38.2588	  2471.0	  2461.4	 -6380.9	  2300.7
     38.2922	  2397.0	  2460.3	 -6453.8	  2300.7
     38.3256	  2462.0	  2459.2	 -6387.7	  2300.7
     38.3590	  2502.0	  2458.2	 -6346.7	  2300.7
     38.3924	  2648.0	  2457.2	 -6199.7	  2300.7
     38.4259	  2388.0	  2456.3	 -6458.8	  2300.7
     38.4593	  2533.0	  2455.4	 -6312.9	  2300.7
     38.4927	  2466.0	  2454.5	 -6379.0	  2300.7
     38.5261	  2419.0	  2453.8	 -6425.3	  2300.7
     38.5596	  2486.0	  2453.0	 -6357.5	  2300.7
     38.5930	  2416.0	  2452.3	 -6426.8	  2300.7
     38.6264	  2457.0	  2451.6	 -6385.1	  2300.7
     38.6598	  2463.0	  2450.9	 -6378.4	  2300.7
     38.6932	  2486.0	  2450.3	 -6354.8	  2300.7
     38.7267	  2502.0	  2449.7	 -6338.2	  2300.7
     38.7601	  2337.0	  2449.1	 -6502.6	  2300.7
     38.7935	  2481.0	  2448.6	 -6358.1	  2300.7
     38.8269	  2506.0	  2448.0	 -6332.5	  2300.7
     38.8604	  2446.0	  2447.5	 -6392.0	  2300.7
     38.8938	  2420.0	  2447.0	 -6417.5	  2300.7
     38.9272	  2480.0	  2445.9	 -6356.4	  2300.1
     38.9606	  2558.0	  2444.6	 -6277.1	  2299.2
     38.9940	  2484.0	  2443.2	 -6349.7	  2298.3
     39.0275	  2562.0	  2441.9	 -6270.4	  2297.3
     39.0609	  2479.0	  2440.6	 -6352.1	  2296.4
     39.0943	  2451.0	  2439.3	 -6378.8	  2295.5
     39.1277	  2461.0	  2438.0	 -6367.5	  2294.6
     39.1612	  2478.0	  2439.0	 -6351.5	  2293.7
     39.1946	  2417.0	  2437.8	 -6411.3	  2292.8
     39.2280	  2434.0	  2436.6	 -6393.1	  2291.9
     39.2614	  2482.0	  2436.5	 -6345.0	  2291.0
     39.2949	  2520.0	  2435.4	 -6305.9	  2290.1
     39.3283	  2481.0	  2425.7	 -6335.2	  2289.2
     39.3617	  2455.0	  2424.7	 -6360.2	  2288.3
     39.3951	  2433.0	  2419.4	 -6376.9	  2287.4
     39.4285	  2422.0	  2418.5	 -6387.0	  2286.5
     39.4620	  2465.0	  2417.6	 -6343.1	  2285.6
     39.4954	  2508.0	  2416.7	 -6299.2	  2284.7
     39.5288	  2480.0	  2415.8	 -6326.3	  2283.8
     39.5622	  2408.0	  2414.9	 -6397.4	  2282.9
     39.5957	  2381.0	  2414.0	 -6423.5	  2282.0
     39.6291	  2429.0	  2413.1	 -6374.6	  2281.1
     39.6625	  2370.0	  2412.3	 -6432.8	  2280.2
     39.6959	  2401.0	  2411.4	 -6400.9	  2279.3
     39.7293	  2472.0	  2410.5	 -6329.0	  2278.4
     39.7628	  2513.0	  2409.7	 -6287.2	  2277.5
     39.7962	  2438.0	  2408.8	 -6361.3	  2276.6
     39.8296	  2549.0	  2408.0	 -6249.5	  2275.7
     39.8630	  2478.0	  2407.1	 -6319.6	  2274.8
     39.8965	  2466.0	  2406.3	 -6330.8	  2273.9
     39.9299	  2408.0	  2405.4	 -6387.9	  2273.0
     39.9633	  2420.0	  2404.6	 -6375.1	  2272.1
     39.9967	  2537.0	  2403.8	 -6257.3	  2271.2
     40.0302	  2373.0	  2402.9	 -6420.4	  2270.3
     40.0636	  2514.0	  2402.1	 -6278.6	  2269.4
     40.0970	  2448.0	  2401.3	 -6343.8	  2268.5
     40.1304	  2411.0	  2400.5	 -6380.0	  2267.6
     40.1638	  2452.0	  2399.7	 -6338.2	  2266.7
     40.1973	  2398.0	  2399.5	 -6392.0	  2266.3
     40.2307	  2425.0	  2399.6	 -6365.1	  2266.3
     40.2641	  2469.0	  2399.7	 -6321.2	  2266.3
     40.2975	  2352.0	  2399.8	 -6438.3	  2266.3
     40.3310	  2297.0	  2400.0	 -6493.5	  2266.3
     40.3644	  2427.0	  2400.1	 -6363.6	  2266.3
     40.3978	  2449.0	  2400.2	 -6341.7	  2266.3
     40.4312	  2431.0	  2400.4	 -6359.9	  2266.3
     40.4646	  2399.0	  2400.6	 -6392.1	  2266.3
     40.4981	  2416.0	  2400.7	 -6375.2	  2266.3
     40.5315	  2396.0	  2400.9	 -6395.4	  2266.3
     40.5649	  2433.0	  2401.1	 -6358.6	  2266.3
     40.5983	  2366.0	  2401.3	 -6425.8	  2266.3
     40.6318	  2468.0	  2401.5	 -6324.0	  2266.3
     40.6652	  2414.0	  2401.7	 -6378.2	  2266.3
     40.6986	  2418.0	  2401.9	 -6374.4	  2266.3
     40.7320	  2406.0	  2402.2	 -6386.7	  2266.3
     40.7654	  2414.0	  2402.4	 -6378.9	  2266.3
     40.7989	  2543.0	  2402.7	 -6250.2	  2266.3
     40.8323	  2494.0	  2403.0	 -6299.5	  2266.3
     40.8657	  2408.0	  2403.2	 -6385.7	  2266.3
     40.8991	  2448.0	  2403.5	 -6346.0	  2266.3
     40.9326	  2370.0	  2403.9	 -6424.4	  2266.3
     40.9660	  2381.0	  2403.6	 -6413.1	  2266.3
     40.9994	  2330.0	  2403.9	 -6464.4	  2266.3
     41.0328	  2354.0	  2404.3	 -6440.8	  2266.3
     41.0662	  2468.0	  2404.4	 -6326.9	  2266.3
     41.0997	  2424.0	  2404.8	 -6371.3	  2266.3
     41.1331	  2412.0	  2405.3	 -6383.8	  2266.3
     41.1665	  2460.0	  2405.7	 -6336.2	  2266.3
     41.1999	  2528.0	  2406.2	 -6268.7	  2266.3
     41.2334	  2411.0	  2406.7	 -6386.2	  2266.3
     41.2668	  2518.0	  2403.8	 -6276.3	  2262.9
     41.3002	  2314.0	  2400.5	 -6477.0	  2258.9
     41.3336	  2423.0	  2397.1	 -6364.6	  2255.0
     41.3671	  2382.0	  2393.9	 -6402.4	  2251.1
     41.4005	  2340.0	  2390.6	 -6441.1	  2247.1
     41.4339	  2412.0	  2387.4	 -6365.9	  2243.2
     41.4673	  2501.0	  2384.2	 -6273.7	  2239.3
     41.5007	  2340.0	  2381.1	 -6431.6	  2235.3
     41.5342	  2424.0	  2378.0	 -6344.5	  2231.4
     41.5676	  2413.0	  2375.0	 -6352.5	  2227.5
     41.6010	  2321.0	  2372.1	 -6441.6	  2223.5
     41.6344	  2349.0	  2369.2	 -6410.7	  2219.6
     41.6679	  2367.0	  2366.4	 -6389.9	  2215.6
     41.7013	  2326.0	  2363.6	 -6428.1	  2211.7
     41.7347	  2371.0	  2361.0	 -6380.5	  2207.8
     41.7681	  2337.0	  2358.4	 -6411.9	  2203.8
     41.8015	  2397.0	  2356.0	 -6349.5	  2199.9
     41.8350	  2384.0	  2353.7	 -6360.2	  2196.0
     41.8684	  2415.0	  2351.5	 -6327.0	  2192.0
     41.9018	  2400.0	  2349.4	 -6339.9	  2188.1
     41.9352	  2333.0	  2347.5	 -6405.0	  2184.1
     41.9687	  2275.0	  2345.8	 -6461.3	  2180.2
     42.0021	  2299.0	  2344.3	 -6435.8	  2176.3
     42.0355	  2320.0	  2343.0	 -6413.5	  2172.3
     42.0689	  2355.0	  2341.9	 -6377.4	  2168.4
     42.1023	  2343.0	  2341.2	 -6388.7	  2164.5
     42.1358	  2389.0	  2340.7	 -6342.2	  2160.5
     42.1692	  2347.0	  2340.7	 -6384.2	  2156.6
     42.2026	  2346.0	  2341.0	 -6385.5	  2152.6
     42.2360	  2419.0	  2341.8	 -6313.3	  2148.7
     42.2695	  2310.0	  2343.2	 -6423.7	  2144.8
     42.3029	  2406.0	  2345.2	 -6329.7	  2140.8
     42.3363	  2389.0	  2348.0	 -6349.5	  2136.9
     42.3697	  2409.0	  2351.6	 -6333.1	  2133.0
     42.4032	  2398.0	  2356.3	 -6348.8	  2129.0
     42.4366	  2465.0	  2362.0	 -6287.5	  2124.9
     42.4700	  2471.0	  2369.1	 -6288.6	  2120.7
     42.5034	  2360.0	  2378.0	 -6408.5	  2116.5
     42.5368	  2441.0	  2389.2	 -6338.7	  2112.4
     42.5703	  2367.0	  2403.0	 -6426.5	  2108.2
     42.6037	  2506.0	  2420.3	 -6304.8	  2104.0
     42.6371	  2505.0	  2441.9	 -6327.4	  2099.9
     42.6705	  2494.0	  2469.0	 -6365.5	  2095.7
     42.7040	  2630.0	  2502.9	 -6263.4	  2091.6
     42.7374	  2627.0	  2545.6	 -6309.1	  2087.4
     42.7708	  2678.0	  2599.2	 -6311.7	  2083.2
     42.8042	  2752.0	  2666.2	 -6304.7	  2079.1
     42.8376	  2848.0	  2749.1	 -6291.6	  2074.9
     42.8711	  2936.0	  2850.3	 -6304.8	  2070.7
     42.9045	  3191.0	  2971.2	 -6170.7	  2066.6
     42.9379	  3234.0	  3109.9	 -6266.4	  2062.4
     42.9713	  3285.0	  3259.3	 -6364.8	  2058.2
     43.0048	  3365.0	  3404.2	 -6429.7	  2054.1
     43.0382	  3699.0	  3522.1	 -6213.6	  2049.9
     43.0716	  3783.0	  3591.0	 -6198.5	  2045.8
     43.1050	  3798.0	  3599.0	 -6191.5	  2041.6
     43.1384	  3635.0	  3548.9	 -6304.4	  2037.4
     43.1719	  3566.0	  3451.9	 -6276.4	  2033.3
     43.2053	  3447.0	  3322.3	 -6265.8	  2029.1
     43.2387	  3264.0	  3175.7	 -6302.2	  2024.9
     43.2721	  3085.0	  3027.5	 -6333.0	  2020.8
     43.3056	  2985.0	  2889.1	 -6294.6	  2016.6
     43.3390	  2929.0	  2767.0	 -6228.5	  2012.4
     43.3724	  2769.0	  2662.8	 -6284.3	  2008.3
     43.4058	  2756.0	  2575.8	 -6210.3	  2004.1
     43.4393	  2545.0	  2503.7	 -6349.2	  1999.9
     43.4727	  2531.0	  2444.3	 -6303.8	  1995.8
     43.5061	  2440.0	  2395.1	 -6345.6	  1991.6
     43.5395	  2396.0	  2354.3	 -6348.8	  1987.5
     43.5729	  2391.0	  2320.0	 -6319.5	  1983.3
     43.6064	  2400.0	  2291.0	 -6281.5	  1979.1
     43.6398	  2304.0	  2266.0	 -6352.5	  1975.0
     43.6732	  2351.0	  2244.4	 -6283.9	  1970.8
     43.7066	  2286.0	  2225.4	 -6329.9	  1966.6
     43.7401	  2213.0	  2208.5	 -6386.0	  1962.5
     43.7735	  2154.0	  2193.3	 -6429.8	  1958.3
     43.8069	  2214.0	  2179.3	 -6355.8	  1953.8
     43.8403	  2214.0	  2166.2	 -6342.7	  1949.2
     43.8737	  2123.0	  2154.2	 -6421.7	  1944.5
     43.9072	  2156.0	  2143.0	 -6377.5	  1939.9
     43.9406	  2227.0	  2132.6	 -6296.1	  1935.2
     43.9740	  2111.0	  2122.8	 -6402.3	  1930.6
     44.0074	  2079.0	  2113.5	 -6425.0	  1926.0
     44.0409	  2197.0	  2104.6	 -6298.1	  1921.3
     44.0743	  2104.0	  2096.2	 -6382.7	  1916.7
     44.1077	  2101.0	  2088.2	 -6377.7	  1912.0
     44.1411	  2108.0	  2080.4	 -6362.9	  1907.4
     44.1745	  2189.0	  2072.9	 -6274.4	  1902.8
     44.2080	  2031.0	  2065.7	 -6425.2	  1898.1
     44.2414	  2009.0	  2058.7	 -6440.2	  1893.5
     44.2748	  2046.0	  2051.9	 -6396.4	  1888.8
     44.3082	  2071.0	  2045.2	 -6364.7	  1884.2
     44.3417	  2001.0	  2038.8	 -6428.3	  1879.6
     44.3751	  2076.0	  2032.4	 -6346.9	  1874.9
     44.4085	  2045.0	  2026.2	 -6371.7	  1870.3
     44.4419	  2012.0	  2020.1	 -6398.6	  1865.6
     44.4753	  1942.0	  2014.1	 -6462.6	  1861.0
     44.5088	  1969.0	  2008.2	 -6429.7	  1856.4
     44.5422	  2100.0	  2002.4	 -6292.9	  1851.7
     44.5756	  1988.0	  1996.6	 -6399.1	  1847.1
     44.6090	  2058.0	  1990.9	 -6323.4	  1842.4
     44.6425	  2025.0	  1985.3	 -6350.8	  1837.8
     44.6759	  1913.0	  1979.8	 -6457.3	  1833.2
     44.7093	  1996.0	  1974.3	 -6368.8	  1828.5
     44.7427	  1894.0	  1968.9	 -6465.4	  1823.9
     44.7761	  1943.0	  1963.5	 -6411.0	  1819.2
     44.8096	  1958.0	  1958.1	 -6390.6	  1814.6
     44.8430	  1909.0	  1952.8	 -6434.3	  1810.0
     44.8764	  1994.0	  1947.6	 -6344.1	  1805.3
     44.9098	  1873.0	  1942.3	 -6459.8	  1800.7
     44.9433	  1930.0	  1937.1	 -6397.6	  1796.0
     44.9767	  1925.0	  1931.9	 -6397.4	  1791.4
     45.0101	  1922.0	  1926.8	 -6395.3	  1786.8
     45.0435	  1831.0	  1921.7	 -6481.2	  1782.1
     45.0770	  1925.0	  1916.6	 -6382.1	  1777.5
     45.1104	  1912.0	  1911.5	 -6390.0	  1772.8
     45.1438	  1933.0	  1906.5	 -6364.0	  1768.2
     45.1772	  1935.0	  1901.4	 -6356.9	  1763.6
     45.2106	  1916.0	  1896.4	 -6370.9	  1758.9
     45.2441	  1907.0	  1891.4	 -6374.9	  1754.3
     45.2775	  2046.0	  1886.6	 -6231.1	  1749.8
     45.3109	  1837.0	  1882.3	 -6435.8	  1745.8
     45.3443	  1920.0	  1878.0	 -6348.5	  1741.8
     45.3778	  1887.0	  1873.8	 -6377.3	  1737.8
     45.4112	  1862.0	  1869.5	 -6398.0	  1733.9
     45.4446	  1926.0	  1865.2	 -6329.7	  1729.9
     45.4780	  1849.0	  1861.0	 -6402.5	  1725.9
     45.5114	  1794.0	  1856.8	 -6453.3	  1721.9
     45.5449	  1834.0	  1852.6	 -6409.1	  1717.9
     45.5783	  1882.0	  1848.4	 -6356.9	  1713.9
     45.6117	  1878.0	  1844.2	 -6356.7	  1709.9
     45.6451	  1928.0	  1840.0	 -6302.5	  1705.9
     45.6786	  1809.0	  1835.8	 -6417.3	  1701.9
     45.7120	  1881.0	  1831.6	 -6341.1	  1698.0
     45.7454	  1856.0	  1827.5	 -6362.0	  1694.0
     45.7788	  1770.0	  1823.3	 -6443.8	  1690.0
     45.8122	  1832.0	  1819.2	 -6377.7	  1686.0
     45.8457	  1751.0	  1815.1	 -6454.6	  1682.0
     45.8791	  1833.0	  1811.0	 -6368.5	  1678.0
     45.9125	  1758.0	  1806.8	 -6439.3	  1674.0
     45.9459	  1756.0	  1802.7	 -6437.2	  1670.0
     45.9794	  1829.0	  1798.7	 -6360.2	  1666.0
     46.0128	  1764.0	  1794.6	 -6421.1	  1662.1
     46.0462	  1768.0	  1790.5	 -6413.0	  1658.1
     46.0796	  1771.0	  1786.4	 -6405.9	  1654.1
     46.1131	  1734.0	  1782.4	 -6438.9	  1650.1
     46.1465	  1703.0	  1778.3	 -6465.8	  1646.1
     46.1799	  1687.0	  1774.3	 -6477.8	  1642.1
     46.2133	  1726.0	  1770.2	 -6434.7	  1638.1
     46.2467	  1828.0	  1766.2	 -6328.7	  1634.1
     46.2802	  1784.0	  1762.2	 -6368.7	  1630.1
     46.3136	  1829.0	  1758.2	 -6319.7	  1626.2
     46.3470	  1623.0	  1754.3	 -6521.8	  1622.2
     46.3804	  1751.0	  1750.3	 -6389.8	  1618.2
     46.4139	  1745.0	  1746.4	 -6391.9	  1614.2
     46.4473	  1719.0	  1742.5	 -6414.0	  1610.2
     46.4807	  1710.0	  1738.6	 -6419.1	  1606.2
     46.5141	  1800.0	  1734.7	 -6325.2	  1602.2
     46.5475	  1697.0	  1730.9	 -6424.4	  1598.2
     46.5810	  1665.0	  1727.1	 -6452.6	  1594.2
     46.6144	  1735.0	  1723.4	 -6378.9	  1590.3
     46.6478	  1784.0	  1719.7	 -6326.2	  1586.3
     46.6812	  1706.0	  1716.1	 -6400.6	  1582.3
     46.7147	  1673.0	  1712.6	 -6430.1	  1578.3
     46.7481	  1697.0	  1709.2	 -6402.7	  1574.3
     46.7815	  1693.0	  1706.0	 -6403.5	  1570.3
     46.8149	  1720.0	  1702.9	 -6373.4	  1566.3
     46.8483	  1688.0	  1700.1	 -6402.6	  1562.3
     46.8818	  1693.0	  1697.4	 -6394.9	  1558.3
     46.9152	  1663.0	  1695.1	 -6422.6	  1554.4
     46.9486	  1635.0	  1693.2	 -6448.7	  1550.4
     46.9820	  1697.0	  1691.5	 -6385.0	  1546.4
     47.0155	  1685.0	  1687.9	 -6393.4	  1542.4
     47.0489	  1673.0	  1686.8	 -6404.3	  1538.4
     47.0823	  1685.0	  1685.6	 -6391.1	  1534.4
     47.1157	  1688.0	  1682.9	 -6385.4	  1530.4
     47.1492	  1740.0	  1680.4	 -6330.9	  1526.4
     47.1826	  1716.0	  1676.9	 -6351.4	  1522.4
     47.2160	  1656.0	  1672.4	 -6406.9	  1518.5
     47.2494	  1610.0	  1667.0	 -6447.5	  1514.5
     47.2828	  1699.0	  1660.9	 -6352.4	  1510.5
     47.3163	  1596.0	  1653.9	 -6448.4	  1506.0
     47.3497	  1648.0	  1646.7	 -6389.2	  1501.5
     47.3831	  1638.0	  1639.5	 -6392.0	  1497.0
     47.4165	  1677.0	  1632.6	 -6346.1	  1492.5
     47.4500	  1586.0	  1625.9	 -6430.4	  1488.0
     47.4834	  1660.0	  1619.5	 -6350.0	  1483.4
     47.5168	  1721.0	  1613.5	 -6283.0	  1478.9
     47.5502	  1653.0	  1607.7	 -6345.2	  1474.4
     47.5836	  1539.0	  1602.1	 -6453.6	  1469.9
     47.6171	  1626.0	  1596.7	 -6361.2	  1465.4
     47.6505	  1679.0	  1591.5	 -6303.0	  1460.9
     47.6839	  1647.0	  1586.3	 -6329.8	  1456.4
     47.7173	  1613.0	  1581.3	 -6358.8	  1451.9
     47.7508	  1607.0	  1576.4	 -6359.9	  1447.4
     47.7842	  1569.0	  1571.5	 -6393.0	  1442.8
     47.8176	  1643.0	  1566.7	 -6314.2	  1438.3
     47.8510	  1620.0	  1561.9	 -6332.4	  1433.8
     47.8844	  1550.0	  1557.2	 -6397.7	  1429.3
     47.9179	  1582.0	  1552.4	 -6360.9	  1424.8
     47.9513	  1594.0	  1547.8	 -6344.3	  1420.3
     47.9847	  1501.0	  1543.1	 -6432.6	  1415.8
     48.0181	  1573.0	  1538.4	 -6355.9	  1411.3
     48.0516	  1559.0	  1533.8	 -6365.3	  1406.7
     48.0850	  1652.0	  1529.2	 -6267.7	  1402.2
     48.1184	  1588.0	  1524.6	 -6327.1	  1397.7
     48.1518	  1583.0	  1519.9	 -6327.5	  1393.2
     48.1852	  1561.0	  1515.4	 -6344.9	  1388.7
     48.2187	  1507.0	  1510.8	 -6394.3	  1384.2
     48.2521	  1505.0	  1506.2	 -6391.7	  1379.7
     48.2855	  1483.0	  1501.6	 -6409.1	  1375.2
     48.3189	  1546.0	  1497.0	 -6341.5	  1370.7
     48.3524	  1571.0	  1492.5	 -6312.0	  1366.1
     48.3858	  1475.0	  1487.9	 -6403.4	  1361.6
     48.4192	  1498.0	  1483.4	 -6375.9	  1357.1
     48.4526	  1593.0	  1478.8	 -6276.3	  1352.6
     48.4861	  1501.0	  1474.3	 -6363.8	  1348.1
     48.5195	  1524.0	  1469.7	 -6336.2	  1343.6
     48.5529	  1571.0	  1465.2	 -6284.7	  1339.1
     48.5863	  1522.0	  1463.0	 -6331.5	  1336.9
     48.6197	  1436.0	  1461.1	 -6415.6	  1335.1
     48.6532	  1487.0	  1459.3	 -6362.8	  1333.3
     48.6866	  1490.0	  1457.5	 -6358.0	  1331.5
     48.7200	  1518.0	  1455.7	 -6328.2	  1329.7
     48.7534	  1511.0	  1453.8	 -6333.3	  1327.9
     48.7869	  1463.0	  1452.0	 -6379.5	  1326.1
     48.8203	  1405.0	  1450.2	 -6435.7	  1324.3
     48.8537	  1484.0	  1448.4	 -6354.9	  1322.5
     48.8871	  1509.0	  1446.5	 -6328.0	  1320.7
     48.9205	  1443.0	  1444.7	 -6392.2	  1318.9
     48.9540	  1418.0	  1442.9	 -6415.4	  1317.1
     48.9874	  1495.0	  1441.1	 -6336.6	  1315.3
     49.0208	  1518.0	  1439.3	 -6311.8	  1313.5
     49.0542	  1392.0	  1437.4	 -6435.9	  1311.7
     49.0877	  1493.0	  1435.6	 -6333.1	  1309.9
     49.1211	  1481.0	  1433.8	 -6343.3	  1308.1
     49.1545	  1389.0	  1432.0	 -6433.5	  1306.2
     49.1879	  1463.0	  1430.2	 -6357.7	  1304.4
     49.2213	  1503.0	  1428.4	 -6315.9	  1302.6
     49.2548	  1463.0	  1426.6	 -6354.1	  1300.8
     49.2882	  1419.0	  1424.7	 -6396.2	  1299.0
     49.3216	  1498.0	  1422.9	 -6315.4	  1297.2
     49.3550	  1443.0	  1421.1	 -6368.6	  1295.4
     49.3885	  1529.0	  1419.3	 -6280.8	  1293.6
     49.4219	  1441.0	  1418.6	 -6368.1	  1291.8
     49.4553	  1474.0	  1416.8	 -6333.3	  1290.0
     49.4887	  1441.0	  1415.0	 -6364.5	  1288.2
     49.5222	  1478.0	  1413.2	 -6325.7	  1286.4
     49.5556	  1470.0	  1412.0	 -6332.5	  1284.6
     49.5890	  1446.0	  1410.2	 -6354.7	  1282.8
     49.6224	  1370.0	  1408.5	 -6429.0	  1281.0
     49.6558	  1419.0	  1406.7	 -6378.2	  1279.2
     49.6893	  1466.0	  1404.9	 -6329.4	  1277.4
     49.7227	  1469.0	  1403.1	 -6324.6	  1275.6
     49.7561	  1433.0	  1401.4	 -6358.9	  1273.8
     49.7895	  1469.0	  1399.6	 -6321.1	  1272.0
     49.8230	  1426.0	  1397.8	 -6362.3	  1270.2
     49.8564	  1431.0	  1396.0	 -6355.5	  1268.4
     49.8898	  1428.0	  1394.3	 -6356.8	  1266.5
     49.9232	  1369.0	  1392.5	 -6414.0	  1264.7
     49.9566	  1412.0	  1390.7	 -6369.2	  1262.9
     49.9901	  1424.0	  1389.0	 -6355.5	  1261.1
     50.0235	  1402.0	  1387.2	 -6375.7	  1259.3
     50.0569	  1443.0	  1385.4	 -6332.9	  1257.5
     50.0903	  1405.0	  1383.7	 -6369.2	  1255.7
     50.1238	  1371.0	  1381.9	 -6401.4	  1253.9
     50.1572	  1422.0	  1380.2	 -6348.7	  1252.1
     50.1906	  1447.0	  1378.4	 -6321.9	  1250.3
     50.2240	  1356.0	  1376.6	 -6411.1	  1248.5
     50.2574	  1345.0	  1374.9	 -6420.4	  1246.7
     50.2909	  1305.0	  1373.1	 -6458.6	  1244.9
     50.3243	  1402.0	  1371.4	 -6359.9	  1243.1
     50.3577	  1353.0	  1369.6	 -6407.1	  1241.3
     50.3911	  1404.0	  1367.9	 -6354.4	  1239.5
     50.4246	  1311.0	  1366.2	 -6445.7	  1237.7
     50.4580	  1347.0	  1364.4	 -6407.9	  1235.9
     50.4914	  1343.0	  1362.0	 -6409.5	  1233.4
     50.5248	  1367.0	  1359.4	 -6382.9	  1230.7
     50.5583	  1303.0	  1356.7	 -6444.2	  1228.0
     50.5917	  1354.0	  1354.1	 -6390.6	  1225.3
     50.6251	  1366.0	  1351.5	 -6376.0	  1222.6
     50.6585	  1317.0	  1348.8	 -6422.3	  1219.9
     50.6919	  1344.0	  1346.2	 -6392.7	  1217.2
     50.7254	  1316.0	  1343.6	 -6418.1	  1214.5
     50.7588	  1299.0	  1341.0	 -6432.5	  1211.7
     50.7922	  1373.0	  1338.3	 -6355.8	  1209.0
     50.8256	  1415.0	  1335.7	 -6311.2	  1206.3
     50.8591	  1379.0	  1333.1	 -6344.6	  1203.6
     50.8925	  1338.0	  1330.5	 -6383.0	  1200.9
     50.9259	  1329.0	  1327.9	 -6389.4	  1198.2
     50.9593	  1406.0	  1325.3	 -6309.8	  1195.5
     50.9927	  1376.0	  1322.7	 -6337.2	  1192.8
     51.0262	  1396.0	  1320.1	 -6314.6	  1190.1
     51.0596	  1337.0	  1317.6	 -6371.1	  1187.4
     51.0930	  1445.0	  1315.0	 -6260.5	  1184.7
     51.1264	  1331.0	  1312.4	 -6371.9	  1182.0
     51.1599	  1307.0	  1309.8	 -6393.3	  1179.3
     51.1933	  1331.0	  1307.2	 -6366.7	  1176.6
     51.2267	  1282.0	  1304.7	 -6413.2	  1173.9
     51.2601	  1457.0	  1302.1	 -6235.6	  1171.1
     51.2935	  1323.0	  1299.6	 -6367.1	  1168.4
     51.3270	  1357.0	  1297.1	 -6330.6	  1165.7
     51.3604	  1357.0	  1294.5	 -6328.0	  1163.0
     51.3938	  1255.0	  1292.0	 -6427.5	  1160.3
     51.4272	  1324.0	  1289.5	 -6356.0	  1157.6
     51.4607	  1357.0	  1287.0	 -6320.5	  1154.9
     51.4941	  1297.0	  1284.5	 -6378.0	  1152.2
     51.5275	  1376.0	  1282.1	 -6296.6	  1149.5
     51.5609	  1300.0	  1279.6	 -6370.1	  1146.8
     51.5943	  1327.0	  1277.2	 -6340.7	  1144.1
     51.6278	  1279.0	  1274.8	 -6386.3	  1141.4
     51.6612	  1279.0	  1272.3	 -6383.8	  1138.7
     51.6946	  1296.0	  1269.9	 -6364.4	  1136.0
     51.7280	  1253.0	  1267.6	 -6405.1	  1133.3
     51.7615	  1283.0	  1265.2	 -6372.7	  1130.5
     51.7949	  1236.0	  1262.9	 -6417.4	  1127.8
     51.8283	  1334.0	  1260.5	 -6317.0	  1125.1
     51.8617	  1287.0	  1258.3	 -6361.8	  1122.4
     51.8952	  1284.0	  1256.0	 -6362.5	  1119.7
     51.9286	  1221.0	  1253.7	 -6423.2	  1117.0
     51.9620	  1268.0	  1251.5	 -6374.0	  1114.3
     51.9954	  1260.0	  1249.4	 -6379.9	  1111.6
     52.0288	  1324.0	  1247.2	 -6313.7	  1108.9
     52.0623	  1250.0	  1245.1	 -6385.6	  1106.2
     52.0957	  1262.0	  1243.1	 -6371.6	  1103.5
     52.1291	  1290.0	  1241.1	 -6341.6	  1100.8
     52.1625	  1244.0	  1239.1	 -6385.6	  1098.1
     52.1960	  1322.0	  1239.2	 -6307.7	  1097.3
     52.2294	  1252.0	  1239.4	 -6377.9	  1096.7
     52.2628	  1278.0	  1239.7	 -6352.2	  1096.1
     52.2962	  1252.0	  1240.1	 -6378.6	  1095.4
     52.3296	  1316.0	  1240.6	 -6315.1	  1094.8
     52.3631	  1293.0	  1241.2	 -6338.7	  1094.1
     52.3965	  1207.0	  1241.9	 -6425.4	  1093.5
     52.4299	  1268.0	  1242.7	 -6365.2	  1092.9
     52.4633	  1284.0	  1243.6	 -6350.1	  1092.2
     52.4968	  1343.0	  1244.7	 -6292.2	  1091.6
     52.5302	  1273.0	  1246.0	 -6363.5	  1091.0
     52.5636	  1252.0	  1247.5	 -6386.0	  1090.3
     52.5970	  1288.0	  1249.2	 -6351.7	  1089.7
     52.6304	  1199.0	  1251.2	 -6442.7	  1089.1
     52.6639	  1346.0	  1253.5	 -6298.0	  1088.4
     52.6973	  1311.0	  1256.2	 -6335.7	  1087.8
     52.7307	  1309.0	  1259.3	 -6340.8	  1087.1
     52.7641	  1274.0	  1262.8	 -6379.3	  1086.5
     52.7976	  1260.0	  1267.0	 -6397.5	  1085.9
     52.8310	  1308.0	  1271.9	 -6354.4	  1085.2
     52.8644	  1296.0	  1277.6	 -6372.1	  1084.6
     52.8978	  1312.0	  1288.3	 -6366.8	  1084.0
     52.9313	  1291.0	  1296.4	 -6395.9	  1083.3
     52.9647	  1299.0	  1305.9	 -6397.4	  1082.7
     52.9981	  1348.0	  1317.3	 -6359.8	  1082.0
     53.0315	  1349.0	  1332.8	 -6374.3	  1081.4
     53.0649	  1427.0	  1349.1	 -6312.6	  1080.8
     53.0984	  1375.0	  1368.4	 -6383.9	  1080.1
     53.1318	  1366.0	  1391.5	 -6416.0	  1079.5
     53.1652	  1485.0	  1418.8	 -6324.3	  1078.9
     53.1986	  1557.0	  1450.7	 -6284.2	  1078.2
     53.2321	  1448.0	  1487.3	 -6429.8	  1077.6
     53.2655	  1556.0	  1528.3	 -6362.8	  1077.0
     53.2989	  1597.0	  1572.0	 -6365.5	  1076.3
     53.3323	  1665.0	  1615.7	 -6341.2	  1075.7
     53.3657	  1706.0	  1655.1	 -6339.6	  1075.0
     53.3992	  1693.0	  1685.3	 -6382.8	  1074.4
     53.4326	  1732.0	  1702.4	 -6360.9	  1073.8
     53.4660	  1694.0	  1704.9	 -6401.4	  1073.1
     53.4994	  1718.0	  1693.6	 -6366.1	  1072.5
     53.5329	  1581.0	  1670.8	 -6480.3	  1071.9
     53.5663	  1650.0	  1639.0	 -6379.5	  1071.2
     53.5997	  1606.0	  1601.0	 -6385.5	  1070.6
     53.6331	  1562.0	  1559.7	 -6388.2	  1069.9
     53.6665	  1537.0	  1517.9	 -6371.5	  1069.3
     53.7000	  1473.0	  1478.1	 -6395.6	  1068.7
     53.7334	  1408.0	  1441.8	 -6424.3	  1068.0
     53.7668	  1434.0	  1409.7	 -6366.2	  1067.4
     53.8002	  1401.0	  1381.8	 -6371.3	  1066.8
     53.8337	  1305.0	  1358.0	 -6443.5	  1066.1
     53.8671	  1317.0	  1337.7	 -6411.2	  1065.5
     53.9005	  1314.0	  1320.6	 -6397.1	  1064.9
     53.9339	  1244.0	  1306.0	 -6452.5	  1064.2
     53.9674	  1285.0	  1293.7	 -6399.2	  1063.6
     54.0008	  1263.0	  1282.0	 -6409.5	  1061.8
     54.0342	  1351.0	  1271.8	 -6311.3	  1060.0
     54.0676	  1232.0	  1262.8	 -6421.3	  1058.2
     54.1010	  1218.0	  1254.9	 -6427.4	  1056.4
     54.1345	  1327.0	  1247.8	 -6311.3	  1054.6
     54.1679	  1319.0	  1241.5	 -6313.0	  1052.8
     54.2013	  1303.0	  1235.8	 -6323.3	  1051.0
     54.2347	  1262.0	  1230.6	 -6359.1	  1049.1
     54.2682	  1247.0	  1225.8	 -6369.3	  1047.3
     54.3016	  1256.0	  1221.4	 -6355.9	  1045.5
     54.3350	  1312.0	  1217.3	 -6295.8	  1043.7
     54.3684	  1274.0	  1213.5	 -6330.0	  1041.9
     54.4018	  1284.0	  1209.9	 -6316.4	  1040.1
     54.4353	  1307.0	  1206.6	 -6290.1	  1038.3
     54.4687	  1190.0	  1203.4	 -6403.9	  1036.5
     54.5021	  1256.0	  1200.4	 -6334.9	  1034.7
     54.5355	  1226.0	  1197.6	 -6362.1	  1032.9
     54.5690	  1220.0	  1195.0	 -6365.5	  1031.1
     54.6024	  1183.0	  1192.4	 -6399.9	  1029.3
     54.6358	  1145.0	  1190.0	 -6435.5	  1027.5
     54.6692	  1158.0	  1187.7	 -6420.2	  1025.7
     54.7026	  1165.0	  1185.4	 -6410.9	  1023.9
     54.7361	  1226.0	  1183.3	 -6347.8	  1022.1
     54.7695	  1208.0	  1181.3	 -6363.8	  1020.3
     54.8029	  1151.0	  1179.3	 -6418.8	  1018.5
     54.8363	  1129.0	  1177.5	 -6439.0	  1016.7
     54.8698	  1101.0	  1175.7	 -6465.2	  1014.9
     54.9032	  1151.0	  1174.0	 -6413.5	  1013.1
     54.9366	  1137.0	  1172.3	 -6425.8	  1011.3
     54.9700	  1210.0	  1170.8	 -6351.3	  1009.4
     55.0034	  1111.0	  1169.3	 -6448.8	  1007.6
     55.0369	  1127.0	  1167.8	 -6431.3	  1005.8
     55.0703	  1179.0	  1166.5	 -6378.0	  1004.0
     55.1037	  1170.0	  1165.2	 -6385.7	  1002.2
     55.1371	  1149.0	  1164.0	 -6405.5	  1000.4
     55.1706	  1140.0	  1162.9	 -6413.4	   998.6
     55.2040	  1146.0	  1161.8	 -6406.3	   996.8
     55.2374	  1133.0	  1160.8	 -6418.3	   995.0
     55.2708	  1065.0	  1161.2	 -6486.7	   994.4
     55.3042	  1150.0	  1161.7	 -6402.2	   993.9
     55.3377	  1163.0	  1162.3	 -6389.8	   993.4
     55.3711	  1143.0	  1163.0	 -6410.5	   992.9
     55.4045	  1128.0	  1163.8	 -6426.3	   992.4
     55.4379	  1060.0	  1164.7	 -6495.2	   991.9
     55.4714	  1097.0	  1165.8	 -6459.3	   991.4
     55.5048	  1207.0	  1166.9	 -6350.4	   991.0
     55.5382	  1143.0	  1168.2	 -6415.7	   990.5
     55.5716	  1108.0	  1169.7	 -6452.2	   990.0
     55.6051	  1192.0	  1171.3	 -6369.8	   989.5
     55.6385	  1179.0	  1173.1	 -6384.6	   989.0
     55.6719	  1145.0	  1175.1	 -6420.6	   988.5
     55.7053	  1211.0	  1177.3	 -6356.8	   988.0
     55.7387	  1181.0	  1179.7	 -6389.2	   987.5
     55.7722	  1156.0	  1182.4	 -6416.9	   987.0
     55.8056	  1122.0	  1185.3	 -6453.8	   986.5
     55.8390	  1176.0	  1188.6	 -6403.1	   986.0
     55.8724	  1181.0	  1192.2	 -6401.7	   985.5
     55.9059	  1151.0	  1196.1	 -6435.6	   985.0
     55.9393	  1216.0	  1200.5	 -6375.0	   984.6
     55.9727	  1201.0	  1205.4	 -6394.9	   984.1
     56.0061	  1210.0	  1210.8	 -6391.3	   983.6
     56.0395	  1144.0	  1216.9	 -6463.4	   983.1
     56.0730	  1176.0	  1223.6	 -6438.1	   982.6
     56.1064	  1244.0	  1231.1	 -6377.6	   982.1
     56.1398	  1211.0	  1239.4	 -6418.9	   981.6
     56.1732	  1338.0	  1248.9	 -6301.4	   981.1
     56.2067	  1246.0	  1259.5	 -6404.0	   980.6
     56.2401	  1248.0	  1271.5	 -6414.0	   980.1
     56.2735	  1291.0	  1285.1	 -6384.6	   979.6
     56.3069	  1290.0	  1300.7	 -6401.2	   979.1
     56.3403	  1304.0	  1318.5	 -6405.0	   978.7
     56.3738	  1332.0	  1339.1	 -6397.6	   978.2
     56.4072	  1350.0	  1362.9	 -6403.4	   977.7
     56.4406	  1430.0	  1390.6	 -6351.1	   977.2
     56.4740	  1459.0	  1422.9	 -6354.4	   976.7
     56.5075	  1419.0	  1460.9	 -6432.4	   976.2
     56.5409	  1582.0	  1505.5	 -6314.0	   975.7
     56.5743	  1587.0	  1558.0	 -6361.5	   975.2
     56.6077	  1623.0	  1619.8	 -6387.3	   974.7
     56.6412	  1736.0	  1692.3	 -6346.8	   974.2
     56.6746	  1751.0	  1777.1	 -6416.6	   973.7
     56.7080	  1901.0	  1875.2	 -6364.7	   973.2
     56.7414	  1867.0	  1987.0	 -6510.5	   972.7
     56.7748	  2043.0	  2111.3	 -6458.8	   972.3
     56.8083	  2168.0	  2244.6	 -6467.1	   971.8
     56.8417	  2288.0	  2379.6	 -6482.1	   971.3
     56.8751	  2470.0	  2505.8	 -6426.3	   970.8
     56.9085	  2591.0	  2609.8	 -6409.3	   970.3
     56.9420	  2752.0	  2679.7	 -6318.2	   969.8
     56.9754	  2828.0	  2708.6	 -6271.1	   969.3
     57.0088	  2728.0	  2696.3	 -6358.8	   968.8
     57.0422	  2755.0	  2647.6	 -6283.1	   968.3
     57.0756	  2587.0	  2569.0	 -6372.5	   967.8
     57.1091	  2433.0	  2467.4	 -6424.9	   967.3
     57.1425	  2339.0	  2350.1	 -6401.6	   966.8
     57.1759	  2241.0	  2224.8	 -6374.3	   966.3
     57.2093	  2084.0	  2099.3	 -6405.8	   965.9
     57.2428	  2011.0	  1979.7	 -6359.2	   965.4
     57.2762	  1818.0	  1870.0	 -6442.5	   964.9
     57.3096	  1757.0	  1772.3	 -6405.8	   964.4
     57.3430	  1670.0	  1686.8	 -6407.3	   963.9
     57.3764	  1589.0	  1613.0	 -6414.5	   963.4
     57.4099	  1580.0	  1549.6	 -6360.1	   962.9
     57.4433	  1519.0	  1495.5	 -6367.0	   962.4
     57.4767	  1459.0	  1448.1	 -6379.6	   961.9
     57.5101	  1445.0	  1408.6	 -6354.1	   961.4
     57.5436	  1367.0	  1374.7	 -6398.2	   960.9
     57.5770	  1373.0	  1345.4	 -6362.9	   960.4
     57.6104	  1296.0	  1318.5	 -6413.0	   958.8
     57.6438	  1257.0	  1295.5	 -6429.0	   957.3
     57.6772	  1235.0	  1275.3	 -6430.8	   955.7
     57.7107	  1189.0	  1257.4	 -6458.9	   954.2
     57.7441	  1175.0	  1241.5	 -6457.0	   952.6
     57.7775	  1197.0	  1227.2	 -6420.7	   951.1
     57.8109	  1151.0	  1214.3	 -6453.8	   949.5
     57.8444	  1203.0	  1202.7	 -6390.2	   948.0
     57.8778	  1124.0	  1192.1	 -6458.6	   946.4
     57.9112	  1065.0	  1182.4	 -6507.9	   944.9
     57.9446	  1057.0	  1173.5	 -6507.0	   943.3
     57.9781	  1127.0	  1165.2	 -6428.7	   941.8
     58.0115	  1142.0	  1157.6	 -6406.1	   940.2
     58.0449	  1096.0	  1150.6	 -6445.1	   938.7
     58.0783	  1128.0	  1144.0	 -6406.5	   937.2
     58.1117	  1071.0	  1137.8	 -6457.3	   935.6
     58.1452	  1007.0	  1132.0	 -6515.5	   934.1
     58.1786	  1065.0	  1126.6	 -6452.1	   932.5
     58.2120	  1024.0	  1121.4	 -6487.9	   931.0
     58.2454	  1052.0	  1116.6	 -6455.1	   929.4
     58.2789	  1056.0	  1111.9	 -6446.4	   927.9
     58.3123	  1072.0	  1107.5	 -6426.0	   926.3
     58.3457	  1069.0	  1103.3	 -6424.8	   924.8
     58.3791	  1017.0	  1105.3	 -6478.8	   923.2
     58.4125	   979.0	  1101.6	 -6513.1	   921.7
     58.4460	  1047.0	  1098.0	 -6441.5	   920.1
     58.4794	   994.0	  1094.5	 -6491.0	   918.6
     58.5128	  1033.0	  1091.2	 -6448.7	   917.0
     58.5462	  1059.0	  1091.0	 -6422.5	   915.5
     58.5797	   997.0	  1088.0	 -6481.5	   914.0
     58.6131	   981.0	  1085.0	 -6494.5	   912.4
     58.6465	  1048.0	  1082.2	 -6424.7	   910.9
     58.6799	  1092.0	  1079.4	 -6377.9	   909.3
     58.7133	  1062.0	  1076.7	 -6405.2	   907.8
     58.7468	   992.0	  1074.1	 -6472.6	   906.2
     58.7802	  1056.0	  1071.6	 -6406.1	   904.7
     58.8136	  1036.0	  1069.2	 -6423.7	   903.1
     58.8470	  1013.0	  1066.8	 -6444.3	   901.6
     58.8805	  1012.0	  1064.4	 -6442.9	   900.0
     58.9139	   993.0	  1062.1	 -6459.6	   898.5
     58.9473	  1009.0	  1059.9	 -6441.4	   896.9
     58.9807	  1013.0	  1057.7	 -6435.2	   895.4
     59.0142	   999.0	  1055.6	 -6447.1	   893.8
     59.0476	   999.0	  1053.5	 -6445.0	   892.3
     59.0810	  1005.0	  1051.6	 -6437.1	   890.9
     59.1144	   996.0	  1049.8	 -6444.3	   889.5
     59.1478	  1000.0	  1048.0	 -6438.5	   888.2
     59.1813	   965.0	  1046.3	 -6471.8	   886.8
     59.2147	   973.0	  1044.6	 -6462.1	   885.5
     59.2481	  1062.0	  1042.9	 -6371.4	   884.1
     59.2815	   941.0	  1041.3	 -6490.8	   882.8
     59.3150	  1034.0	  1039.7	 -6396.2	   881.4
     59.3484	  1031.0	  1038.2	 -6397.7	   880.1
     59.3818	  1022.0	  1036.6	 -6405.1	   878.7
     59.4152	  1032.0	  1035.1	 -6393.6	   877.3
     59.4486	  1046.0	  1033.6	 -6378.1	   876.0
     59.4821	   995.0	  1032.2	 -6427.7	   874.6
     59.5155	  1030.0	  1030.8	 -6391.3	   873.3
     59.5489	  1081.0	  1029.4	 -6338.9	   871.9
     59.5823	  1052.0	  1028.0	 -6366.5	   870.6
     59.6158	  1080.0	  1026.7	 -6337.2	   869.2
     59.6492	  1069.0	  1025.4	 -6346.9	   867.9
     59.6826	  1026.0	  1024.1	 -6388.6	   866.5
     59.7160	   989.0	  1022.8	 -6424.3	   865.2
     59.7494	  1065.0	  1021.6	 -6347.1	   863.8
     59.7829	  1046.0	  1020.4	 -6364.9	   862.5
     59.8163	  1058.0	  1019.2	 -6351.7	   861.1
     59.8497	  1028.0	  1018.1	 -6380.6	   859.8
     59.8831	  1032.0	  1017.0	 -6375.5	   858.4
     59.9166	  1012.0	  1015.9	 -6394.4	   857.0
     59.9500	  1047.0	  1014.8	 -6358.3	   855.7
     59.9834	   971.0	  1013.8	 -6433.3	   854.3
     60.0168	  1044.0	  1012.8	 -6359.3	   853.0
     60.0503	   960.0	  1011.8	 -6442.3	   851.6
     60.0837	   998.0	  1010.9	 -6403.4	   850.3
     60.1171	   991.0	  1010.0	 -6409.5	   848.9
     60.1505	   982.0	  1009.1	 -6417.6	   847.6
     60.1839	   963.0	  1008.3	 -6435.8	   846.2
     60.2174	   999.0	  1007.5	 -6399.0	   844.9
     60.2508	  1017.0	  1006.8	 -6380.3	   843.5
     60.2842	   946.0	  1006.0	 -6450.5	   842.2
     60.3176	   950.0	  1005.4	 -6445.9	   840.8
     60.3511	   942.0	  1004.7	 -6453.2	   839.5
     60.3845	   966.0	  1004.2	 -6428.7	   838.1
     60.4179	   987.0	  1003.6	 -6407.1	   836.7
     60.4513	   949.0	  1003.1	 -6444.6	   835.4
     60.4847	   964.0	  1002.7	 -6429.2	   834.0
     60.5182	   913.0	  1002.3	 -6479.8	   832.7
     60.5516	   968.0	  1002.0	 -6424.5	   831.3
     60.5850	   956.0	  1001.8	 -6436.3	   830.0
     60.6184	   927.0	  1001.6	 -6465.1	   828.6
     60.6519	   925.0	  1001.5	 -6467.0	   827.3
     60.6853	   991.0	  1001.4	 -6400.9	   825.9
     60.7187	   988.0	  1001.5	 -6404.0	   824.6
     60.7521	  1000.0	  1001.6	 -6392.1	   823.2
     60.7855	   945.0	  1002.5	 -6448.0	   822.5
     60.8190	   962.0	  1003.6	 -6432.1	   822.0
     60.8524	   981.0	  1004.8	 -6414.3	   821.4
     60.8858	   950.0	  1006.1	 -6446.6	   820.8
     60.9192	   971.0	  1007.6	 -6427.1	   820.3
     60.9527	   974.0	  1009.1	 -6425.6	   819.7
     60.9861	   942.0	  1010.9	 -6459.4	   819.1
     61.0195	   967.0	  1008.7	 -6432.2	   818.5
     61.0529	   975.0	  1010.8	 -6426.3	   818.0
     61.0863	   999.0	  1013.1	 -6404.6	   817.4
     61.1198	  1058.0	  1015.6	 -6348.1	   816.8
     61.1532	  1011.0	  1018.3	 -6397.8	   816.3
     61.1866	  1039.0	  1019.2	 -6370.7	   815.7
     61.2200	  1006.0	  1022.4	 -6406.9	   815.1
     61.2535	   978.0	  1025.9	 -6438.4	   814.6
     61.2869	  1016.0	  1029.6	 -6404.1	   814.0
     61.3203	  1022.0	  1033.8	 -6402.3	   813.4
     61.3537	  1024.0	  1038.2	 -6404.7	   812.8
     61.3872	  1008.0	  1043.1	 -6425.6	   812.3
     61.4206	  1046.0	  1048.5	 -6393.0	   811.7
     61.4540	  1044.0	  1054.3	 -6400.8	   811.1
     61.4874	  1082.0	  1060.7	 -6369.2	   810.6
     61.5208	  1059.0	  1067.7	 -6399.2	   810.0
     61.5543	  1112.0	  1075.6	 -6354.1	   809.4
     61.5877	  1057.0	  1084.1	 -6417.6	   808.9
     61.6211	   989.0	  1093.5	 -6495.0	   808.3
     61.6545	  1110.0	  1104.0	 -6384.5	   807.7
     61.6880	  1125.0	  1115.5	 -6381.0	   807.1
     61.7214	  1163.0	  1128.5	 -6356.0	   806.6
     61.7548	  1183.0	  1142.9	 -6350.4	   806.0
     61.7882	  1131.0	  1159.1	 -6418.6	   805.4
     61.8216	  1185.0	  1177.3	 -6382.8	   804.9
     61.8551	  1242.0	  1197.8	 -6346.3	   804.3
     61.8885	  1188.0	  1221.1	 -6423.6	   803.7
     61.9219	  1340.0	  1247.7	 -6298.2	   803.2
     61.9553	  1293.0	  1278.1	 -6375.6	   802.6
     61.9888	  1381.0	  1312.9	 -6322.4	   802.0
     62.0222	  1429.0	  1353.2	 -6314.7	   801.4
     62.0556	  1513.0	  1399.6	 -6277.1	   800.9
     62.0890	  1516.0	  1453.4	 -6327.9	   800.3
     62.1224	  1518.0	  1515.8	 -6388.3	   799.7
     62.1559	  1711.0	  1588.1	 -6267.6	   799.2
     62.1893	  1806.0	  1671.8	 -6256.3	   798.6
     62.2227	  1816.0	  1768.4	 -6342.9	   798.0
     62.2561	  1848.0	  1879.0	 -6421.5	   797.5
     62.2896	  2028.0	  2004.4	 -6366.9	   796.9
     62.3230	  2093.0	  2144.1	 -6441.6	   796.3
     62.3564	  2303.0	  2296.1	 -6383.6	   795.8
     62.3898	  2421.0	  2455.1	 -6424.6	   795.2
     62.4233	  2580.0	  2613.1	 -6423.6	   794.6
     62.4567	  2732.0	  2758.4	 -6416.9	   794.0
     62.4901	  3019.0	  2878.1	 -6249.6	   793.5
     62.5235	  3104.0	  2960.5	 -6247.0	   792.9
     62.5569	  3166.0	  2999.1	 -6223.6	   792.3
     62.5904	  2964.0	  2993.2	 -6419.7	   791.8
     62.6238	  2917.0	  2947.1	 -6420.6	   791.2
     62.6572	  2724.0	  2867.4	 -6533.9	   790.6
     62.6906	  2837.0	  2760.3	 -6313.8	   790.1
     62.7241	  2611.0	  2632.6	 -6412.1	   789.5
     62.7575	  2541.0	  2491.2	 -6340.7	   788.9
     62.7909	  2348.0	  2343.7	 -6386.2	   788.4
     62.8243	  2182.0	  2197.1	 -6405.6	   787.9
     62.8577	  2015.0	  2057.5	 -6433.0	   787.3
     62.8912	  2055.0	  1928.4	 -6263.9	   786.8
     62.9246	  1862.0	  1812.1	 -6340.6	   786.3
     62.9580	  1719.0	  1708.9	 -6380.4	   785.8
     62.9914	  1642.0	  1618.4	 -6366.9	   785.3
     63.0249	  1538.0	  1539.6	 -6392.1	   784.8
     63.0583	  1563.0	  1471.2	 -6298.7	   784.2
     63.0917	  1442.0	  1411.9	 -6360.4	   783.7
     63.1251	  1408.0	  1360.5	 -6343.0	   783.2
     63.1585	  1438.0	  1315.8	 -6268.3	   782.7
     63.1920	  1355.0	  1277.0	 -6312.5	   782.2
     63.2254	  1287.0	  1243.1	 -6346.6	   781.7
     63.2588	  1253.0	  1213.4	 -6350.9	   781.2
     63.2922	  1244.0	  1187.2	 -6333.7	   780.6
     63.3257	  1205.0	  1164.1	 -6349.6	   780.1
     63.3591	  1238.0	  1143.5	 -6296.0	   779.6
     63.3925	  1183.0	  1125.2	 -6332.7	   779.1
     63.4259	  1129.0	  1108.8	 -6370.3	   778.6
     63.4594	  1111.0	  1094.0	 -6373.5	   778.1
     63.4928	  1122.0	  1080.6	 -6349.1	   777.5
     63.5262	   988.0	  1068.5	 -6471.0	   777.0
     63.5596	  1076.0	  1057.5	 -6372.0	   776.5
     63.5930	  1005.0	  1047.5	 -6433.0	   776.0
     63.6265	   995.0	  1038.3	 -6433.8	   775.5
     63.6599	  1004.0	  1029.8	 -6416.3	   775.0
     63.6933	   995.0	  1022.1	 -6417.6	   774.5
     63.7267	   943.0	  1014.9	 -6462.4	   773.9
     63.7602	   987.0	  1008.2	 -6411.7	   773.4
     63.7936	   973.0	  1002.1	 -6419.6	   772.9
     63.8270	   933.0	   996.3	 -6453.8	   772.4
     63.8604	   951.0	   991.0	 -6430.5	   771.9
     63.8938	   942.0	   986.0	 -6434.5	   771.4
     63.9273	   890.0	   981.3	 -6481.8	   770.8
     63.9607	   941.0	   976.9	 -6426.4	   770.3
     63.9941	   894.0	   972.8	 -6469.3	   769.8
     64.0275	   961.0	   969.0	 -6398.5	   769.3
     64.0610	   910.0	   965.3	 -6445.8	   768.8
     64.0944	   935.0	   961.9	 -6417.4	   768.3
     64.1278	   927.0	   958.6	 -6422.1	   767.8
     64.1612	   917.0	   955.5	 -6429.0	   767.2
     64.1946	   811.0	   952.6	 -6532.1	   766.7
     64.2281	   913.0	   949.9	 -6427.4	   766.2
     64.2615	   885.0	   947.2	 -6452.7	   765.7
     64.2949	   875.0	   944.7	 -6460.2	   765.2
     64.3283	   868.0	   942.3	 -6464.8	   764.7
     64.3618	   934.0	   940.1	 -6396.6	   764.1
     64.3952	   888.0	   937.9	 -6440.4	   763.6
     64.4286	   924.0	   935.8	 -6402.3	   763.1
     64.4620	   933.0	   933.9	 -6391.4	   762.6
     64.4954	   846.0	   932.0	 -6476.5	   762.1
     64.5289	   842.0	   930.2	 -6478.7	   761.6
     64.5623	   823.0	   928.4	 -6495.9	   761.0
     64.5957	   882.0	   926.8	 -6435.3	   760.5
     64.6291	   832.0	   925.2	 -6483.7	   760.0
     64.6626	   858.0	   923.7	 -6456.2	   759.5
     64.6960	   837.0	   922.3	 -6475.8	   759.0
     64.7294	   816.0	   920.9	 -6495.4	   758.5
     64.7628	   860.0	   919.6	 -6450.1	   758.0
     64.7962	   818.0	   918.4	 -6490.9	   757.4
     64.8297	   870.0	   917.2	 -6437.7	   756.9
     64.8631	   876.0	   916.1	 -6430.6	   756.4
     64.8965	   829.0	   915.0	 -6476.5	   755.9
     64.9299	   837.0	   914.1	 -6467.6	   755.4
     64.9634	   797.0	   913.2	 -6506.7	   754.9
     64.9968	   830.0	   912.3	 -6472.8	   754.3
     65.0302	   865.0	   911.1	 -6436.6	   753.3
     65.0636	   827.0	   909.8	 -6473.3	   752.2
     65.0971	   816.0	   908.7	 -6483.2	   751.2
     65.1305	   796.0	   907.7	 -6502.2	   750.1
     65.1639	   840.0	   906.8	 -6457.3	   749.0
     65.1973	   825.0	   906.0	 -6471.5	   747.9
     65.2307	   888.0	   905.4	 -6407.9	   746.8
     65.2642	   860.0	   905.0	 -6435.5	   745.7
     65.2976	   821.0	   904.7	 -6474.2	   744.7
     65.3310	   840.0	   904.7	 -6455.2	   743.6
     65.3644	   833.0	   904.9	 -6462.4	   742.5
     65.3979	   869.0	   905.4	 -6426.9	   741.4
     65.4313	   840.0	   906.2	 -6456.7	   740.3
     65.4647	   791.0	   907.3	 -6506.8	   739.2
     65.4981	   800.0	   908.8	 -6499.3	   738.2
     65.5315	   838.0	   910.6	 -6463.1	   737.1
     65.5650	   868.0	   912.6	 -6435.1	   736.0
     65.5984	   878.0	   914.9	 -6427.4	   734.9
     65.6318	   876.0	   917.1	 -6431.6	   733.8
     65.6652	   871.0	   919.0	 -6438.5	   732.7
     65.6987	   836.0	   920.4	 -6474.9	   731.7
     65.7321	   834.0	   921.1	 -6477.6	   730.6
     65.7655	   876.0	   920.8	 -6435.3	   729.5
     65.7989	   868.0	   919.5	 -6442.0	   728.4
     65.8323	   879.0	   917.3	 -6428.8	   727.3
     65.8658	   865.0	   914.4	 -6439.9	   726.2
     65.8992	   858.0	   910.8	 -6443.3	   725.2
     65.9326	   847.0	   906.7	 -6450.2	   724.1
     65.9660	   870.0	   902.3	 -6422.8	   723.0
     65.9995	   860.0	   897.6	 -6428.1	   721.9
     66.0329	   775.0	   892.9	 -6508.4	   720.8
     66.0663	   839.0	   888.2	 -6439.7	   719.8
     66.0997	   819.0	   883.7	 -6455.2	   718.7
     66.1331	   805.0	   879.5	 -6465.0	   717.6
     66.1666	   833.0	   875.6	 -6433.1	   716.5
     66.2000	   810.0	   872.0	 -6452.5	   715.4
     66.2334	   828.0	   868.6	 -6431.1	   714.3
     66.2668	   830.0	   865.5	 -6426.0	   713.3
     66.3003	   802.0	   862.7	 -6451.2	   712.2
     66.3337	   819.0	   860.0	 -6431.5	   711.1
     66.3671	   799.0	   857.5	 -6449.0	   710.0
     66.4005	   855.0	   855.2	 -6390.7	   708.9
     66.4340	   767.0	   853.0	 -6476.5	   707.8
     66.4674	   849.0	   851.0	 -6392.5	   706.8
     66.5008	   752.0	   849.0	 -6487.5	   705.7
     66.5342	   805.0	   847.2	 -6432.7	   704.6
     66.5676	   782.0	   845.4	 -6453.9	   703.5
     66.6011	   828.0	   843.6	 -6406.1	   702.4
     66.6345	   794.0	   842.5	 -6439.0	   701.3
     66.6679	   773.0	   840.8	 -6458.3	   700.3
     66.7013	   783.0	   833.3	 -6440.8	   699.2
     66.7348	   761.0	   831.9	 -6461.4	   698.1
     66.7682	   794.0	   830.5	 -6427.0	   697.0
     66.8016	   799.0	   829.1	 -6420.6	   695.9
     66.8350	   809.0	   828.0	 -6409.5	   694.9
     66.8684	   840.0	   823.7	 -6374.2	   693.8
     66.9019	   793.0	   822.4	 -6419.9	   692.7
     66.9353	   807.0	   821.1	 -6404.6	   691.6
     66.9687	   812.0	   819.9	 -6398.4	   690.5
     67.0021	   791.0	   818.6	 -6418.1	   689.4
     67.0356	   782.0	   817.4	 -6425.9	   688.4
     67.0690	   766.0	   816.2	 -6440.7	   687.3
     67.1024	   759.0	   815.0	 -6446.5	   686.2
     67.1358	   839.0	   814.2	 -6365.7	   685.5
     67.1693	   793.0	   813.9	 -6411.4	   685.2
     67.2027	   725.0	   813.6	 -6479.1	   685.0
     67.2361	   837.0	   813.2	 -6366.7	   684.8
     67.2695	   766.0	   812.9	 -6437.4	   684.6
     67.3029	   790.0	   812.6	 -6413.1	   684.3
     67.3364	   801.0	   812.4	 -6401.9	   684.1
     67.3698	   821.0	   812.1	 -6381.6	   683.9
     67.4032	   772.0	   811.8	 -6430.3	   683.7
     67.4366	   796.0	   811.5	 -6406.0	   683.4
     67.4701	   829.0	   811.3	 -6372.8	   683.2
     67.5035	   799.0	   811.0	 -6402.5	   683.0
     67.5369	   793.0	   810.7	 -6408.2	   682.8
     67.5703	   775.0	   810.5	 -6426.0	   682.5
     67.6037	   765.0	   810.2	 -6435.7	   682.3
     67.6372	   805.0	   810.0	 -6395.5	   682.1
     67.6706	   804.0	   809.7	 -6396.2	   681.9
     67.7040	   822.0	   809.5	 -6378.0	   681.6
     67.7374	   785.0	   809.3	 -6414.8	   681.4
     67.7709	   770.0	   809.0	 -6429.5	   681.2
     67.8043	   754.0	   808.8	 -6445.3	   681.0
     67.8377	   778.0	   808.6	 -6421.1	   680.7
     67.8711	   778.0	   808.3	 -6420.8	   680.5
     67.9045	   782.0	   808.1	 -6416.6	   680.3
     67.9380	   754.0	   807.9	 -6444.4	   680.1
     67.9714	   774.0	   807.7	 -6424.2	   679.8
     68.0048	   784.0	   807.4	 -6413.9	   679.6
     68.0382	   787.0	   807.2	 -6410.7	   679.4
     68.0717	   778.0	   807.0	 -6419.5	   679.2
     68.1051	   739.0	   806.8	 -6458.3	   678.9
     68.1385	   722.0	   806.6	 -6475.1	   678.7
     68.1719	   784.0	   806.4	 -6412.9	   678.5
     68.2053	   752.0	   806.2	 -6444.7	   678.3
     68.2388	   775.0	   806.0	 -6421.5	   678.0
     68.2722	   780.0	   805.8	 -6416.3	   677.8
     68.3056	   789.0	   805.6	 -6407.1	   677.6
     68.3390	   801.0	   805.4	 -6394.9	   677.4
     68.3725	   769.0	   805.2	 -6426.7	   677.1
     68.4059	   836.0	   805.0	 -6359.5	   676.9
     68.4393	   733.0	   804.8	 -6462.3	   676.7
     68.4727	   691.0	   804.6	 -6504.1	   676.4
     68.5061	   822.0	   804.4	 -6372.9	   676.2
     68.5396	   750.0	   804.3	 -6444.8	   676.0
     68.5730	   791.0	   804.1	 -6403.6	   675.8
     68.6064	   750.0	   803.9	 -6444.4	   675.5
     68.6398	   785.0	   803.7	 -6409.2	   675.3
     68.6733	   817.0	   803.6	 -6377.1	   675.1
     68.7067	   756.0	   803.4	 -6437.9	   674.9
     68.7401	   789.0	   803.2	 -6404.7	   674.6
     68.7735	   756.0	   803.1	 -6437.6	   674.4
     68.8070	   779.0	   802.9	 -6414.4	   674.2
     68.8404	   871.0	   802.8	 -6322.3	   674.0
     68.8738	   759.0	   802.6	 -6434.1	   673.7
     68.9072	   747.0	   802.5	 -6446.0	   673.5
     68.9406	   796.0	   802.4	 -6396.9	   673.3
     68.9741	   785.0	   802.2	 -6407.7	   673.1
     69.0075	   788.0	   802.1	 -6404.6	   672.8
     69.0409	   797.0	   802.0	 -6395.5	   672.6
     69.0743	   829.0	   801.9	 -6363.4	   672.4
     69.1078	   777.0	   801.8	 -6415.3	   672.2
     69.1412	   766.0	   801.7	 -6426.2	   671.9
     69.1746	   840.0	   801.6	 -6352.1	   671.7
     69.2080	   786.0	   801.5	 -6406.0	   671.5
     69.2414	   779.0	   801.4	 -6412.9	   671.3
     69.2749	   763.0	   801.4	 -6428.9	   671.0
     69.3083	   753.0	   801.3	 -6438.8	   670.8
     69.3417	   738.0	   801.3	 -6453.8	   670.6
     69.3751	   743.0	   801.2	 -6448.7	   670.4
     69.4086	   806.0	   801.2	 -6385.7	   670.1
     69.4420	   805.0	   801.2	 -6386.7	   669.9
     69.4754	   782.0	   801.2	 -6409.7	   669.7
     69.5088	   757.0	   801.3	 -6434.8	   669.5
     69.5423	   794.0	   801.3	 -6397.8	   669.2
     69.5757	   757.0	   801.4	 -6434.9	   669.0
     69.6091	   778.0	   802.7	 -6415.2	   668.8
     69.6425	   791.0	   802.9	 -6402.4	   668.6
     69.6759	   790.0	   803.0	 -6403.5	   668.3
     69.7094	   810.0	   803.2	 -6383.7	   668.1
     69.7428	   771.0	   803.4	 -6422.9	   667.9
     69.7762	   793.0	   803.6	 -6401.1	   667.7
     69.8096	   772.0	   804.6	 -6423.1	   667.4
     69.8430	   825.0	   804.9	 -6370.4	   667.2
     69.8765	   785.0	   805.3	 -6410.8	   667.0
     69.9099	   796.0	   805.7	 -6400.2	   666.8
     69.9433	   801.0	   806.0	 -6395.5	   666.5
     69.9767	   809.0	   806.5	 -6388.0	   666.3
     70.0102	   786.0	   807.1	 -6411.6	   666.1
     70.0436	   815.0	   807.8	 -6383.3	   665.8
     70.0770	   805.0	   808.6	 -6394.1	   665.6
     70.1104	   832.0	   809.5	 -6368.0	   665.4
     70.1439	   794.0	   810.4	 -6406.9	   665.2
     70.1773	   791.0	   811.5	 -6411.0	   664.9
     70.2107	   774.0	   812.8	 -6429.3	   664.7
     70.2441	   823.0	   814.3	 -6381.8	   664.5
     70.2775	   829.0	   815.9	 -6377.4	   664.3
     70.3110	   863.0	   817.8	 -6345.3	   664.0
     70.3444	   807.0	   820.0	 -6403.5	   663.8
     70.3778	   867.0	   822.4	 -6345.9	   663.6
     70.4112	   802.0	   825.2	 -6413.7	   663.4
     70.4447	   874.0	   828.4	 -6344.9	   663.1
     70.4781	   834.0	   832.1	 -6388.6	   662.9
     70.5115	   868.0	   836.3	 -6358.8	   662.7
     70.5449	   829.0	   841.1	 -6402.6	   662.5
     70.5783	   819.0	   846.6	 -6418.1	   662.2
     70.6118	   860.0	   853.2	 -6383.7	   662.0
     70.6452	   835.0	   860.1	 -6415.6	   661.8
     70.6786	   823.0	   867.8	 -6435.3	   661.6
     70.7120	   876.0	   876.1	 -6390.6	   661.3
     70.7455	   872.0	   885.0	 -6403.5	   661.1
     70.7789	   923.0	   894.2	 -6361.7	   660.9
     70.8123	   866.0	   903.5	 -6428.0	   660.7
     70.8457	   925.0	   911.9	 -6377.4	   660.4
     70.8792	   899.0	   919.0	 -6410.5	   660.2
     70.9126	   865.0	   924.4	 -6449.9	   660.0
     70.9460	   925.0	   927.6	 -6393.1	   659.8
     70.9794	   957.0	   928.5	 -6362.0	   659.5
     71.0128	   870.0	   927.3	 -6447.8	   659.3
     71.0463	   880.0	   924.1	 -6434.6	   659.1
     71.0797	   875.0	   919.3	 -6434.8	   658.9
     71.1131	   936.0	   913.2	 -6367.7	   658.6
     71.1465	   856.0	   906.0	 -6440.5	   658.4
     71.1800	   852.0	   898.0	 -6436.5	   658.2
     71.2134	   859.0	   889.6	 -6421.1	   658.0
     71.2468	   830.0	   880.9	 -6441.4	   657.7
     71.2802	   839.0	   872.5	 -6424.0	   657.5
     71.3136	   837.0	   864.4	 -6417.9	   657.3
     71.3471	   843.0	   856.9	 -6404.4	   657.1
     71.3805	   892.0	   850.0	 -6348.5	   656.8
     71.4139	   856.0	   843.8	 -6378.3	   656.6
     71.4473	   828.0	   838.2	 -6400.7	   656.4
     71.4808	   859.0	   833.3	 -6364.8	   656.1
     71.5142	   836.0	   828.9	 -6383.4	   655.9
     71.5476	   767.0	   825.0	 -6448.5	   655.7
     71.5810	   810.0	   821.6	 -6402.1	   655.5
     71.6144	   803.0	   818.6	 -6406.1	   655.2
     71.6479	   815.0	   816.0	 -6391.5	   655.0
     71.6813	   859.0	   813.6	 -6345.1	   654.8
     71.7147	   838.0	   811.6	 -6364.1	   654.6
     71.7481	   793.0	   809.7	 -6407.2	   654.3
     71.7816	   769.0	   808.1	 -6429.6	   654.1
     71.8150	   802.0	   806.7	 -6395.2	   653.9
     71.8484	   740.0	   805.4	 -6455.9	   653.7
     71.8818	   789.0	   804.3	 -6405.8	   653.4
     71.9153	   821.0	   803.3	 -6372.8	   653.2
     71.9487	   773.0	   802.4	 -6419.9	   653.0
     71.9821	   778.0	   801.6	 -6414.1	   652.8
     72.0155	   780.0	   800.9	 -6411.4	   652.5
     72.0489	   812.0	   800.2	 -6378.7	   652.3
     72.0824	   755.0	   799.7	 -6435.2	   652.1
     72.1158	   798.0	   799.2	 -6391.7	   651.9
     72.1492	   779.0	   798.8	 -6410.3	   651.6
     72.1826	   847.0	   798.5	 -6342.0	   651.4
     72.2160	   740.0	   798.2	 -6448.7	   651.1
     72.2495	   784.0	   797.4	 -6403.9	   650.4
     72.2829	   828.0	   796.8	 -6359.3	   649.7
     72.3163	   798.0	   796.1	 -6388.6	   648.9
     72.3497	   785.0	   795.6	 -6401.1	   648.2
     72.3832	   785.0	   795.1	 -6400.6	   647.5
     72.4166	   798.0	   794.6	 -6387.1	   646.7
     72.4500	   835.0	   794.2	 -6349.7	   646.0
     72.4834	   781.0	   793.9	 -6403.4	   645.2
     72.5169	   759.0	   793.6	 -6425.1	   644.5
     72.5503	   773.0	   793.4	 -6410.9	   643.8
     72.5837	   754.0	   793.2	 -6429.7	   643.0
     72.6171	   802.0	   793.1	 -6381.6	   642.3
     72.6505	   786.0	   793.1	 -6397.6	   641.6
     72.6840	   833.0	   793.1	 -6350.6	   640.8
     72.7174	   738.0	   793.3	 -6445.8	   640.1
     72.7508	   818.0	   793.5	 -6366.0	   639.3
     72.7842	   826.0	   793.8	 -6358.3	   638.6
     72.8177	   812.0	   794.2	 -6372.7	   637.9
     72.8511	   766.0	   794.7	 -6419.2	   637.1
     72.8845	   770.0	   795.3	 -6415.8	   636.4
     72.9179	   795.0	   796.1	 -6391.6	   635.6
     72.9513	   797.0	   797.0	 -6390.5	   634.9
     72.9848	   805.0	   798.0	 -6383.5	   634.2
     73.0182	   762.0	   799.3	 -6427.8	   633.4
     73.0516	   809.0	   800.7	 -6382.2	   632.7
     73.0850	   785.0	   802.4	 -6407.9	   632.0
     73.1185	   837.0	   804.3	 -6357.8	   631.2
     73.1519	   862.0	   806.5	 -6335.0	   630.5
     73.1853	   847.0	   809.0	 -6352.5	   629.7
     73.2187	   825.0	   811.8	 -6377.3	   629.0
     73.2522	   804.0	   815.1	 -6401.6	   628.3
     73.2856	   859.0	   818.9	 -6350.4	   627.5
     73.3190	   804.0	   823.1	 -6409.6	   626.8
     73.3524	   838.0	   828.1	 -6380.6	   626.1
     73.3858	   832.0	   833.7	 -6392.2	   625.3
     73.4193	   829.0	   840.1	 -6401.6	   624.6
     73.4527	   855.0	   847.4	 -6382.9	   623.8
     73.4861	   876.0	   855.7	 -6370.2	   623.1
     73.5195	   890.0	   865.3	 -6365.8	   622.4
     73.5530	   974.0	   876.1	 -6292.6	   621.6
     73.5864	   912.0	   888.4	 -6366.9	   620.9
     73.6198	   898.0	   902.2	 -6394.7	   620.1
     73.6532	   924.0	   917.8	 -6384.3	   619.4
     73.6866	   968.0	   935.1	 -6357.6	   618.7
     73.7201	   947.0	   954.0	 -6397.5	   617.9
     73.7535	  1022.0	   974.3	 -6342.8	   617.2
     73.7869	  1008.0	   995.6	 -6378.1	   616.5
     73.8203	  1038.0	  1017.1	 -6369.6	   615.7
     73.8538	  1086.0	  1037.8	 -6342.3	   615.0
     73.8872	  1087.0	  1056.6	 -6360.1	   614.2
     73.9206	  1094.0	  1072.3	 -6368.8	   613.5
     73.9540	  1129.0	  1083.6	 -6345.1	   612.8
     73.9874	  1106.0	  1090.1	 -6374.6	   612.0
     74.0209	  1094.0	  1091.6	 -6388.1	   611.3
     74.0543	  1114.0	  1088.4	 -6364.9	   610.5
     74.0877	  1074.0	  1081.0	 -6397.5	   609.8
     74.1211	  1069.0	  1070.2	 -6391.7	   609.1
     74.1546	  1056.0	  1056.5	 -6391.0	   608.3
     74.1880	  1047.0	  1040.4	 -6383.9	   607.6
     74.2214	  1068.0	  1022.6	 -6345.1	   606.9
     74.2548	  1029.0	  1003.8	 -6365.3	   606.1
     74.2882	  1016.0	   984.7	 -6359.2	   605.4
     74.3217	   990.0	   965.9	 -6366.4	   604.6
     74.3551	   977.0	   948.0	 -6361.5	   603.9
     74.3885	   948.0	   931.5	 -6374.0	   603.2
     74.4219	  1003.0	   916.6	 -6304.1	   602.4
     74.4554	   939.0	   904.0	 -6355.5	   601.7
     74.4888	   892.0	   892.8	 -6391.3	   601.0
     74.5222	   881.0	   883.3	 -6392.8	   600.2
     74.5556	   907.0	   875.6	 -6359.1	   599.5
     74.5891	   945.0	   869.6	 -6315.1	   598.7
     74.6225	   884.0	   865.2	 -6371.7	   598.0
     74.6559	   909.0	   862.4	 -6343.9	   597.3
     74.6893	   902.0	   861.2	 -6349.7	   596.5
     74.7227	   896.0	   861.0	 -6355.5	   595.8
     74.7562	   909.0	   861.9	 -6343.5	   595.0
     74.7896	   949.0	   863.7	 -6305.2	   594.3
     74.8230	   904.0	   866.1	 -6352.6	   593.6
     74.8564	   907.0	   868.5	 -6352.0	   592.8
     74.8899	   924.0	   870.6	 -6337.1	   592.1
     74.9233	   909.0	   872.0	 -6353.5	   591.4
     74.9567	   967.0	   872.2	 -6295.7	   590.6
     74.9901	   929.0	   871.1	 -6332.6	   589.9
     75.0235	   913.0	   868.4	 -6345.9	   589.1
     75.0570	   910.0	   864.5	 -6345.0	   588.4
     75.0904	   897.0	   859.3	 -6352.8	   587.7
     75.1238	   895.0	   853.1	 -6348.6	   586.9
     75.1572	   953.0	   846.0	 -6283.5	   586.2
     75.1907	   908.0	   838.3	 -6320.8	   585.4
     75.2241	   848.0	   830.1	 -6372.6	   584.7
     75.2575	   859.0	   821.1	 -6352.6	   584.0
     75.2909	   876.0	   812.5	 -6327.0	   583.2
     75.3243	   851.0	   804.0	 -6343.5	   582.5
     75.3578	   843.0	   795.8	 -6343.3	   581.8
     75.3912	   797.0	   788.1	 -6381.6	   581.0
     75.4246	   837.0	   780.8	 -6334.3	   580.3
     75.4580	   807.0	   773.9	 -6357.4	   579.5
     75.4915	   847.0	   767.7	 -6311.2	   578.8
     75.5249	   778.0	   762.1	 -6374.6	   578.1
     75.5583	   818.0	   756.9	 -6329.4	   577.3
     75.5917	   750.0	   752.2	 -6392.7	   576.6
     75.6252	   811.0	   747.9	 -6327.4	   575.9
     75.6586	   817.0	   744.0	 -6317.5	   575.1
     75.6920	   743.0	   740.4	 -6387.9	   574.4
     75.7254	   770.0	   737.1	 -6357.6	   573.6
     75.7588	   753.0	   734.0	 -6371.5	   572.9
     75.7923	   737.0	   731.2	 -6384.7	   572.2
     75.8257	   837.0	   728.6	 -6282.1	   571.4
     75.8591	   775.0	   726.1	 -6341.6	   570.7
     75.8925	   762.0	   723.8	 -6352.3	   569.9
     75.9259	   780.0	   721.7	 -6332.2	   569.2
     75.9594	   724.0	   719.6	 -6386.1	   568.5
     75.9928	   750.0	   717.7	 -6358.2	   567.7
     76.0262	   749.0	   715.9	 -6357.4	   567.0
     76.0596	   753.0	   714.2	 -6351.7	   566.3
     76.0931	   765.0	   712.5	 -6338.0	   565.5
     76.1265	   756.0	   710.9	 -6345.4	   564.8
     76.1599	   753.0	   709.4	 -6346.9	   564.0
     76.1933	   742.0	   707.9	 -6356.4	   563.3
     76.2268	   810.0	   706.5	 -6287.0	   562.6
     76.2602	   771.0	   705.1	 -6324.6	   561.8
     76.2936	   747.0	   703.8	 -6347.3	   561.1
     76.3270	   781.0	   702.5	 -6312.0	   560.4
     76.3604	   768.0	   701.3	 -6323.8	   559.6
     76.3939	   691.0	   700.1	 -6399.6	   558.9
     76.4273	   726.0	   698.9	 -6363.4	   558.1
     76.4607	   719.0	   697.8	 -6369.3	   557.4
     76.4941	   688.0	   696.7	 -6399.2	   556.7
     76.5276	   777.0	   695.6	 -6309.1	   555.9
     76.5610	   707.0	   694.5	 -6378.0	   555.2
     76.5944	   724.0	   693.5	 -6360.0	   554.4
     76.6278	   758.0	   692.5	 -6325.0	   553.7
     76.6612	   734.0	   691.5	 -6348.0	   553.0
     76.6947	   738.0	   690.5	 -6343.0	   552.2
     76.7281	   715.0	   689.5	 -6365.0	   551.5
     76.7615	   721.0	   688.6	 -6358.1	   550.8
     76.7949	   747.0	   687.7	 -6331.2	   550.0
     76.8284	   731.0	   686.8	 -6346.3	   549.3
     76.8618	   713.0	   685.9	 -6363.4	   548.5
     76.8952	   687.0	   685.2	 -6388.7	   547.9
     76.9286	   702.0	   684.7	 -6373.1	   547.6
     76.9621	   700.0	   684.2	 -6374.7	   547.2
     76.9955	   687.0	   683.7	 -6387.2	   546.8
     77.0289	   735.0	   683.2	 -6338.7	   546.4
     77.0623	   741.0	   682.8	 -6332.3	   546.0
     77.0957	   702.0	   682.3	 -6370.8	   545.6
     77.1292	   693.0	   681.9	 -6379.4	   545.2
     77.1626	   750.0	   681.5	 -6322.0	   544.9
     77.1960	   692.0	   681.1	 -6379.6	   544.5
     77.2294	   719.0	   680.8	 -6352.3	   544.1
     77.2629	   713.0	   680.4	 -6357.9	   543.7
     77.2963	   699.0	   680.1	 -6371.6	   543.3
     77.3297	   713.0	   679.9	 -6357.4	   542.9
     77.3631	   646.0	   679.6	 -6424.1	   542.5
     77.3965	   670.0	   679.3	 -6399.8	   542.1
     77.4300	   704.0	   679.0	 -6365.5	   541.8
     77.4634	   758.0	   678.8	 -6311.3	   541.4
     77.4968	   725.0	   678.6	 -6344.1	   541.0
     77.5302	   759.0	   678.3	 -6309.8	   540.6
     77.5637	   684.0	   678.2	 -6384.7	   540.2
     77.5971	   763.0	   678.1	 -6305.6	   539.8
     77.6305	   702.0	   677.9	 -6366.4	   539.4
     77.6639	   755.0	   677.9	 -6313.4	   539.1
     77.6973	   701.0	   677.8	 -6367.3	   538.7
     77.7308	   676.0	   677.8	 -6392.3	   538.3
     77.7642	   728.0	   677.8	 -6340.3	   537.9
     77.7976	   725.0	   677.8	 -6343.3	   537.5
     77.8310	   725.0	   677.9	 -6343.4	   537.1
     77.8645	   722.0	   678.1	 -6346.6	   536.7
     77.8979	   706.0	   678.2	 -6362.7	   536.3
     77.9313	   733.0	   678.5	 -6336.0	   536.0
     77.9647	   722.0	   678.8	 -6347.3	   535.6
     77.9981	   698.0	   679.2	 -6371.7	   535.2
     78.0316	   686.0	   679.7	 -6384.2	   534.8
     78.0650	   686.0	   680.3	 -6384.8	   534.4
     78.0984	   685.0	   680.9	 -6386.4	   534.0
     78.1318	   716.0	   681.7	 -6356.2	   533.6
     78.1653	   704.0	   682.6	 -6369.1	   533.3
     78.1987	   666.0	   683.7	 -6408.2	   532.9
     78.2321	   698.0	   684.9	 -6377.4	   532.5
     78.2655	   718.0	   686.4	 -6358.9	   532.1
     78.2990	   770.0	   688.0	 -6308.5	   531.7
     78.3324	   721.0	   688.6	 -6358.1	   531.3
     78.3658	   728.0	   690.8	 -6353.3	   530.9
     78.3992	   747.0	   693.3	 -6336.8	   530.5
     78.4326	   715.0	   696.1	 -6371.6	   530.2
     78.4661	   707.0	   699.3	 -6382.8	   529.8
     78.4995	   755.0	   703.0	 -6338.5	   529.4
     78.5329	   755.0	   707.1	 -6342.6	   529.0
     78.5663	   763.0	   711.0	 -6338.5	   528.6
     78.5998	   811.0	   716.2	 -6295.7	   528.2
     78.6332	   720.0	   721.8	 -6392.3	   527.8
     78.6666	   781.0	   728.0	 -6337.5	   527.5
     78.7000	   803.0	   734.5	 -6322.0	   527.1
     78.7334	   779.0	   741.3	 -6352.8	   526.7
     78.7669	   772.0	   748.2	 -6366.7	   526.3
     78.8003	   708.0	   754.9	 -6437.4	   525.9
     78.8337	   818.0	   760.9	 -6333.4	   525.5
     78.8671	   766.0	   766.1	 -6390.6	   525.1
     78.9006	   698.0	   770.0	 -6462.5	   524.7
     78.9340	   789.0	   772.4	 -6373.9	   524.4
     78.9674	   806.0	   773.3	 -6357.8	   524.0
     79.0008	   831.0	   772.6	 -6332.1	   523.6
     79.0342	   797.0	   770.6	 -6364.1	   523.2
     79.0677	   831.0	   767.4	 -6326.9	   522.8
     79.1011	   738.0	   763.1	 -6415.6	   522.4
     79.1345	   758.0	   757.9	 -6390.4	   522.0
     79.1679	   804.0	   752.1	 -6338.6	   521.7
     79.2014	   729.0	   745.7	 -6407.2	   521.3
     79.2348	   758.0	   738.9	 -6371.4	   520.9
     79.2682	   811.0	   731.9	 -6311.4	   520.5
     79.3016	   790.0	   724.9	 -6325.4	   520.1
     79.3351	   740.0	   718.1	 -6368.6	   519.7
     79.3685	   741.0	   711.2	 -6360.7	   519.3
     79.4019	   747.0	   705.1	 -6348.6	   518.9
     79.4353	   708.0	   699.4	 -6381.9	   518.6
     79.4687	   761.0	   694.2	 -6323.7	   518.2
     79.5022	   680.0	   689.5	 -6400.0	   517.8
     79.5356	   691.0	   685.1	 -6384.6	   517.4
     79.5690	   692.0	   681.0	 -6379.5	   517.0
     79.6024	   750.0	   677.4	 -6317.9	   516.6
     79.6359	   694.0	   674.2	 -6370.7	   516.2
     79.6693	   673.0	   671.3	 -6388.8	   515.9
     79.7027	   710.0	   668.6	 -6349.1	   515.5
     79.7361	   749.0	   666.2	 -6307.7	   515.1
     79.7695	   699.0	   664.0	 -6355.5	   514.7
     79.8030	   675.0	   662.0	 -6377.5	   514.3
     79.8364	   684.0	   660.1	 -6366.6	   513.9
     79.8698	   733.0	   658.2	 -6315.7	   513.3
     79.9032	   694.0	   656.2	 -6352.7	   512.5
     79.9367	   741.0	   654.3	 -6303.8	   511.7
     79.9701	   671.0	   652.5	 -6372.0	   510.9
     80.0035	   708.0	   650.8	 -6333.3	   510.1
     80.0369	   670.0	   649.2	 -6369.7	   509.3
     80.0703	   719.0	   647.6	 -6319.1	   508.5
     80.1038	   625.0	   646.1	 -6411.6	   507.7
     80.1372	   664.0	   644.7	 -6371.2	   506.9
     80.1706	   650.0	   643.4	 -6383.9	   506.1
     80.2040	   677.0	   642.0	 -6355.5	   505.3
     80.2375	   689.0	   640.8	 -6342.3	   504.5
     80.2709	   683.0	   639.5	 -6347.0	   503.7
     80.3043	   655.0	   638.3	 -6373.8	   502.9
     80.3377	   684.0	   637.2	 -6343.7	   502.1
     80.3711	   633.0	   636.0	 -6393.5	   501.3
     80.4046	   654.0	   634.9	 -6371.4	   500.5
     80.4380	   678.0	   633.8	 -6346.3	   499.7
     80.4714	   665.0	   632.8	 -6358.3	   498.9
     80.5048	   638.0	   631.7	 -6384.2	   498.1
     80.5383	   668.0	   630.7	 -6353.2	   497.3
     80.5717	   714.0	   629.7	 -6306.2	   496.5
     80.6051	   692.0	   628.8	 -6327.3	   495.7
     80.6385	   673.0	   627.8	 -6345.3	   494.9
     80.6720	   675.0	   626.9	 -6342.4	   494.1
     80.7054	   725.0	   626.0	 -6291.5	   493.3
     80.7388	   669.0	   625.1	 -6346.6	   492.5
     80.7722	   685.0	   624.2	 -6329.7	   491.7
     80.8056	   713.0	   623.4	 -6300.9	   490.9
     80.8391	   703.0	   622.6	 -6310.1	   490.0
     80.8725	   664.0	   621.7	 -6348.2	   489.2
     80.9059	   657.0	   621.0	 -6354.5	   488.4
     80.9393	   669.0	   620.2	 -6341.7	   487.6
     80.9728	   646.0	   619.4	 -6363.9	   486.8
     81.0062	   665.0	   618.7	 -6344.2	   486.0
     81.0396	   660.0	   618.0	 -6348.5	   485.2
     81.0730	   686.0	   617.4	 -6321.9	   484.4
     81.1064	   656.0	   616.7	 -6351.2	   483.6
     81.1399	   659.0	   616.1	 -6347.6	   482.8
     81.1733	   637.0	   615.6	 -6369.1	   482.0
     81.2067	   723.0	   615.1	 -6282.6	   481.2
     81.2401	   587.0	   614.6	 -6418.1	   480.4
     81.2736	   655.0	   614.2	 -6349.7	   479.6
     81.3070	   674.0	   613.8	 -6330.3	   478.8
     81.3404	   635.0	   613.5	 -6369.0	   478.0
     81.3738	   651.0	   613.3	 -6352.8	   477.2
     81.4072	   680.0	   613.1	 -6323.6	   476.4
     81.4407	   600.0	   613.0	 -6403.5	   475.6
     81.4741	   652.0	   613.1	 -6351.6	   474.8
     81.5075	   649.0	   613.2	 -6354.7	   474.0
     81.5409	   662.0	   613.4	 -6341.9	   473.2
     81.5744	   668.0	   613.6	 -6336.1	   472.4
     81.6078	   645.0	   614.0	 -6359.5	   471.6
     81.6412	   643.0	   614.4	 -6361.9	   470.8
     81.6746	   684.0	   614.9	 -6321.4	   470.0
     81.7081	   601.0	   615.3	 -6404.8	   469.2
     81.7415	   715.0	   615.7	 -6291.2	   468.4
     81.7749	   604.0	   616.0	 -6402.5	   467.6
     81.8083	   676.0	   616.1	 -6330.6	   466.8
     81.8417	   638.0	   615.9	 -6368.4	   466.0
     81.8752	   667.0	   615.5	 -6339.0	   465.2
     81.9086	   655.0	   614.8	 -6350.3	   464.4
     81.9420	   638.0	   613.9	 -6366.4	   463.6
     81.9754	   682.0	   612.8	 -6321.3	   462.8
     82.0089	   699.0	   611.4	 -6302.9	   462.0
     82.0423	   703.0	   610.5	 -6298.0	   461.2
     82.0757	   655.0	   608.8	 -6344.3	   460.4
     82.1091	   656.0	   607.0	 -6341.5	   459.6
     82.1425	   640.0	   605.1	 -6355.6	   458.8
     82.1760	   621.0	   603.2	 -6372.7	   458.0
     82.2094	   687.0	   601.2	 -6304.7	   457.2
     82.2428	   657.0	   599.1	 -6332.6	   456.4
     82.2762	   699.0	   597.2	 -6288.7	   455.6
     82.3097	   626.0	   595.5	 -6360.0	   454.8
     82.3431	   631.0	   593.7	 -6353.2	   454.0
     82.3765	   639.0	   591.9	 -6343.4	   453.2
     82.4099	   664.0	   590.1	 -6316.6	   452.4
     82.4433	   645.0	   588.5	 -6334.0	   451.6
     82.4768	   654.0	   586.9	 -6323.4	   450.8
     82.5102	   631.0	   585.4	 -6344.9	   449.9
     82.5436	   649.0	   584.0	 -6325.5	   449.1
     82.5770	   667.0	   582.6	 -6306.1	   448.3
     82.6105	   617.0	   581.3	 -6354.8	   447.5
     82.6439	   634.0	   580.1	 -6336.6	   446.7
     82.6773	   639.0	   578.9	 -6330.4	   445.9
     82.7107	   606.0	   577.7	 -6362.2	   445.1
     82.7441	   610.0	   577.2	 -6357.7	   445.0
     82.7776	   638.0	   576.9	 -6329.4	   445.0
     82.8110	   615.0	   576.7	 -6352.2	   445.0
     82.8444	   619.0	   576.4	 -6347.9	   445.0
     82.8778	   625.0	   576.2	 -6341.7	   445.0
     82.9113	   655.0	   576.0	 -6311.5	   445.0
     82.9447	   670.0	   575.8	 -6296.3	   445.0
     82.9781	   604.0	   575.7	 -6362.2	   445.0
     83.0115	   675.0	   575.5	 -6291.0	   445.0
     83.0450	   616.0	   575.4	 -6349.9	   445.0
     83.0784	   675.0	   575.3	 -6290.8	   445.0
     83.1118	   641.0	   575.1	 -6324.6	   445.0
     83.1452	   675.0	   575.0	 -6290.5	   445.0
     83.1786	   631.0	   575.0	 -6334.5	   445.0
     83.2121	   638.0	   574.9	 -6327.4	   445.0
     83.2455	   656.0	   574.8	 -6309.3	   445.0
     83.2789	   660.0	   574.7	 -6305.2	   445.0
     83.3123	   639.0	   574.7	 -6326.2	   445.0
     83.3458	   629.0	   574.6	 -6336.1	   445.0
     83.3792	   677.0	   574.6	 -6288.1	   445.0
     83.4126	   666.0	   574.0	 -6298.5	   445.0
     83.4460	   625.0	   574.0	 -6339.5	   445.0
     83.4794	   641.0	   574.0	 -6323.5	   445.0
     83.5129	   638.0	   573.9	 -6326.4	   445.0
     83.5463	   639.0	   573.9	 -6325.4	   445.0
     83.5797	   605.0	   573.9	 -6359.4	   445.0
     83.6131	   639.0	   573.9	 -6325.4	   445.0
     83.6466	   645.0	   573.7	 -6319.2	   445.0
     83.6800	   611.0	   573.7	 -6353.2	   445.0
     83.7134	   627.0	   573.7	 -6337.2	   445.0
     83.7468	   651.0	   573.7	 -6313.2	   445.0
     83.7803	   626.0	   573.7	 -6338.2	   445.0
     83.8137	   585.0	   573.7	 -6379.2	   445.0
     83.8471	   632.0	   573.7	 -6332.2	   445.0
     83.8805	   651.0	   573.8	 -6313.3	   445.0
     83.9139	   673.0	   573.8	 -6291.3	   445.0
     83.9474	   674.0	   573.8	 -6290.3	   445.0
     83.9808	   607.0	   573.9	 -6357.4	   445.0
     84.0142	   649.0	   573.9	 -6315.4	   445.0
     84.0476	   585.0	   573.9	 -6379.4	   445.0
     84.0810	   606.0	   574.0	 -6358.5	   445.0
     84.1145	   633.0	   574.0	 -6331.5	   445.0
     84.1479	   652.0	   574.1	 -6312.6	   445.0
     84.1813	   577.0	   574.1	 -6387.6	   445.0
     84.2147	   585.0	   574.2	 -6379.7	   445.0
     84.2482	   642.0	   574.3	 -6322.8	   445.0
     84.2816	   572.0	   574.3	 -6392.8	   445.0
     84.3150	   607.0	   574.4	 -6357.9	   445.0
     84.3484	   641.0	   574.5	 -6324.0	   445.0
     84.3819	   604.0	   574.6	 -6361.1	   445.0
     84.4153	   632.0	   574.7	 -6333.2	   445.0
     84.4487	   644.0	   574.7	 -6321.2	   445.0
     84.4821	   631.0	   574.8	 -6334.3	   445.0
     84.5155	   607.0	   574.9	 -6358.4	   445.0
     84.5490	   657.0	   575.0	 -6308.5	   445.0
     84.5824	   609.0	   575.2	 -6356.7	   445.0
     84.6158	   658.0	   575.3	 -6307.8	   445.0
     84.6492	   637.0	   575.4	 -6328.9	   445.0
     84.6827	   677.0	   575.5	 -6289.0	   445.0
     84.7161	   623.0	   575.7	 -6343.2	   445.0
     84.7495	   627.0	   575.8	 -6339.3	   445.0
     84.7829	   648.0	   576.0	 -6318.5	   445.0
     84.8163	   601.0	   576.1	 -6365.6	   445.0
     84.8498	   635.0	   578.6	 -6334.1	   445.0
     84.8832	   654.0	   578.9	 -6315.4	   445.0
     84.9166	   621.0	   579.1	 -6348.6	   445.0
     84.9500	   678.0	   579.3	 -6291.8	   445.0
     84.9835	   613.0	   579.6	 -6357.1	   445.0
     85.0169	   644.0	   579.8	 -6326.3	   445.0
     85.0503	   634.0	   580.1	 -6336.6	   445.0
     85.0837	   626.0	   580.4	 -6344.9	   445.0
     85.1171	   604.0	   581.9	 -6368.4	   445.0
     85.1506	   626.0	   582.2	 -6346.7	   445.0
     85.1840	   646.0	   582.5	 -6327.0	   445.0
     85.2174	   594.0	   582.9	 -6379.4	   445.0
     85.2508	   633.0	   583.3	 -6340.8	   445.0
     85.2843	   625.0	   583.7	 -6349.2	   445.0
     85.3177	   650.0	   584.2	 -6324.7	   445.0
     85.3511	   599.0	   584.7	 -6376.2	   445.0
     85.3845	   619.0	   585.2	 -6356.7	   445.0
     85.4180	   591.0	   585.7	 -6385.2	   445.0
     85.4514	   586.0	   586.3	 -6390.8	   445.0
     85.4848	   675.0	   586.9	 -6302.4	   445.0
     85.5182	   688.0	   587.5	 -6290.0	   445.0
     85.5516	   645.0	   588.2	 -6333.7	   445.0
     85.5851	   628.0	   589.0	 -6351.5	   445.0
     85.6185	   654.0	   589.7	 -6326.2	   445.0
     85.6519	   685.0	   590.6	 -6296.1	   445.0
     85.6853	   568.0	   591.5	 -6414.0	   445.0
     85.7188	   640.0	   592.5	 -6343.0	   445.0
     85.7522	   608.0	   593.6	 -6376.1	   445.0
     85.7856	   639.0	   594.8	 -6346.3	   445.0
     85.8190	   659.0	   596.0	 -6327.5	   445.0
     85.8524	   631.0	   597.4	 -6356.9	   445.0
     85.8859	   596.0	   598.9	 -6393.4	   445.0
     85.9193	   651.0	   600.5	 -6340.0	   445.0
     85.9527	   628.0	   602.3	 -6364.8	   445.0
     85.9861	   656.0	   604.3	 -6338.8	   445.0
     86.0196	   646.0	   606.5	 -6351.0	   445.0
     86.0530	   660.0	   608.8	 -6339.3	   445.0
     86.0864	   643.0	   611.4	 -6358.9	   445.0
     86.1198	   615.0	   614.3	 -6389.8	   445.0
     86.1533	   619.0	   617.5	 -6389.0	   445.0
     86.1867	   688.0	   621.0	 -6323.5	   445.0
     86.2201	   664.0	   624.8	 -6351.3	   445.0
     86.2535	   703.0	   629.0	 -6316.5	   445.0
     86.2869	   649.0	   633.6	 -6375.1	   445.0
     86.3204	   665.0	   638.7	 -6364.2	   445.0
     86.3538	   638.0	   644.1	 -6396.6	   445.0
     86.3872	   678.0	   650.0	 -6362.5	   445.0
     86.4206	   682.0	   656.2	 -6364.7	   445.0
     86.4540	   642.0	   662.7	 -6411.2	   445.0
     86.4875	   674.0	   669.5	 -6386.0	   445.0
     86.5209	   677.0	   676.4	 -6389.9	   445.0
     86.5543	   722.0	   683.0	 -6351.5	   445.0
     86.5877	   693.0	   689.3	 -6386.8	   445.0
     86.6212	   713.0	   695.0	 -6372.5	   445.0
     86.6546	   719.0	   699.6	 -6371.1	   445.0
     86.6880	   719.0	   703.3	 -6374.8	   445.0
     86.7214	   769.0	   705.7	 -6327.2	   445.0
     86.7549	   791.0	   706.9	 -6306.4	   445.0
     86.7883	   742.0	   706.8	 -6355.3	   445.0
     86.8217	   699.0	   705.6	 -6397.1	   445.0
     86.8551	   665.0	   703.5	 -6429.0	   445.0
     86.8885	   758.0	   700.5	 -6333.0	   445.0
     86.9220	   748.0	   696.7	 -6339.2	   445.0
     86.9554	   724.0	   692.4	 -6358.9	   445.0
     86.9888	   705.0	   687.5	 -6373.0	   445.0
     87.0222	   700.0	   682.2	 -6372.7	   445.0
     87.0557	   702.0	   676.6	 -6365.1	   445.0
     87.0891	   665.0	   670.9	 -6396.4	   445.0
     87.1225	   657.0	   665.2	 -6398.7	   445.0
     87.1559	   637.0	   659.6	 -6413.1	   445.0
     87.1893	   645.0	   654.2	 -6399.7	   445.0
     87.2228	   601.0	   649.1	 -6438.6	   445.0
     87.2562	   616.0	   644.3	 -6418.8	   445.0
     87.2896	   636.0	   640.0	 -6394.5	   445.0
     87.3230	   634.0	   636.0	 -6392.5	   445.0
     87.3565	   627.0	   632.3	 -6395.8	   445.0
     87.3899	   646.0	   629.1	 -6373.6	   445.0
     87.4233	   673.0	   626.2	 -6343.7	   445.0
     87.4567	   660.0	   623.6	 -6354.1	   445.0
     87.4902	   616.0	   621.3	 -6395.8	   445.0
     87.5236	   656.0	   619.3	 -6353.8	   445.0
     87.5570	   632.0	   617.6	 -6376.1	   445.0
     87.5904	   576.0	   616.0	 -6430.5	   445.0
     87.6238	   627.0	   614.7	 -6378.2	   445.0
     87.6573	   668.0	   613.6	 -6336.1	   445.0
     87.6907	   633.0	   612.7	 -6370.2	   445.0
     87.7241	   648.0	   611.9	 -6354.4	   445.0
     87.7575	   611.0	   611.3	 -6390.8	   445.0
     87.7910	   655.0	   610.8	 -6346.3	   445.0
     87.8244	   610.0	   610.5	 -6391.0	   445.0
     87.8578	   628.0	   610.3	 -6372.8	   445.0
     87.8912	   574.0	   610.2	 -6426.7	   445.0
     87.9246	   585.0	   610.3	 -6415.8	   445.0
     87.9581	   680.0	   610.4	 -6320.9	   445.0
     87.9915	   634.0	   610.7	 -6367.2	   445.0
     88.0249	   626.0	   611.0	 -6375.5	   445.0
     88.0583	   628.0	   611.5	 -6374.0	   445.0
     88.0918	   636.0	   612.1	 -6366.6	   445.0
     88.1252	   642.0	   612.8	 -6361.3	   445.0
     88.1586	   611.0	   613.6	 -6393.1	   445.0
     88.1920	   636.0	   614.5	 -6369.0	   445.0
     88.2254	   662.0	   615.5	 -6344.0	   445.0
     88.2589	   640.0	   616.7	 -6367.2	   445.0
     88.2923	   589.0	   618.0	 -6419.5	   445.0
     88.3257	   623.0	   619.4	 -6386.9	   445.0
     88.3591	   589.0	   621.0	 -6422.5	   445.0
     88.3926	   654.0	   622.7	 -6359.2	   445.0
     88.4260	   660.0	   624.6	 -6355.1	   445.0
     88.4594	   660.0	   626.7	 -6357.2	   445.0
     88.4928	   676.0	   629.0	 -6343.5	   445.0
     88.5262	   604.0	   631.5	 -6418.0	   445.0
     88.5597	   645.0	   634.2	 -6379.7	   445.0
     88.5931	   591.0	   637.2	 -6436.7	   445.0
     88.6265	   652.0	   640.5	 -6379.0	   445.0
     88.6599	   676.0	   644.1	 -6358.6	   445.0
     88.6934	   675.0	   648.0	 -6363.5	   445.0
     88.7268	   625.0	   652.3	 -6417.8	   445.0
     88.7602	   629.0	   657.0	 -6418.5	   445.0
     88.7936	   686.0	   662.2	 -6366.7	   445.0
     88.8270	   708.0	   667.8	 -6350.3	   445.0
     88.8605	   722.0	   674.1	 -6342.6	   445.0
     88.8939	   709.0	   680.9	 -6362.4	   445.0
     88.9273	   717.0	   688.5	 -6362.0	   445.0
     88.9607	   684.0	   696.8	 -6403.3	   445.0
     88.9942	   737.0	   706.0	 -6359.5	   445.0
     89.0276	   749.0	   716.1	 -6357.6	   445.0
     89.0610	   738.0	   727.2	 -6379.7	   445.0
     89.0944	   747.0	   739.5	 -6383.0	   445.0
     89.1279	   796.0	   752.9	 -6347.4	   445.0
     89.1613	   799.0	   767.5	 -6359.0	   445.0
     89.1947	   813.0	   783.5	 -6361.0	   445.0
     89.2281	   798.0	   800.8	 -6393.3	   445.0
     89.2615	   860.0	   819.4	 -6349.9	   445.0
     89.2950	   795.0	   839.3	 -6434.8	   445.0
     89.3284	   854.0	   860.1	 -6396.6	   445.0
     89.3618	   907.0	   881.7	 -6365.2	   445.0
     89.3952	   880.0	   903.5	 -6414.0	   445.0
     89.4287	   891.0	   925.1	 -6424.6	   445.0
     89.4621	   902.0	   945.7	 -6434.2	   445.0
     89.4955	   934.0	   965.6	 -6422.1	   445.0
     89.5289	   978.0	   982.0	 -6394.5	   445.0
     89.5623	   973.0	   995.2	 -6412.7	   445.0
     89.5958	  1015.0	  1004.7	 -6380.2	   445.0
     89.6292	  1003.0	  1010.3	 -6397.8	   445.0
     89.6626	   991.0	  1011.9	 -6411.4	   445.0
     89.6960	  1040.0	  1009.8	 -6360.3	   445.0
     89.7295	   994.0	  1004.3	 -6400.8	   445.0
     89.7629	  1001.0	   995.8	 -6385.3	   445.0
     89.7963	   946.0	   985.3	 -6429.8	   445.0
     89.8297	   966.0	   971.9	 -6396.4	   445.0
     89.8632	   964.0	   956.6	 -6383.1	   445.0
     89.8966	   913.0	   939.7	 -6417.2	   445.0
     89.9300	   916.0	   921.5	 -6396.0	   445.0
     89.9634	   924.0	   902.3	 -6368.8	   445.0
     89.9968	   856.0	   882.6	 -6417.1	   445.0
     90.0303	   863.0	   862.8	 -6390.3	   445.0
     90.0637	   807.0	   843.3	 -6426.8	   445.0
     90.0971	   825.0	   824.4	 -6389.9	   445.0
     90.1305	   804.0	   806.2	 -6392.7	   445.0
     90.1640	   815.0	   789.1	 -6364.6	   445.0
     90.1974	   753.0	   773.1	 -6410.6	   445.0
     90.2308	   766.0	   758.2	 -6382.7	   445.0
     90.2642	   740.0	   744.5	 -6395.0	   445.0
     90.2976	   724.0	   731.8	 -6398.3	   445.0
     90.3311	   750.0	   720.3	 -6360.8	   445.0
     90.3645	   697.0	   709.7	 -6403.2	   445.0
     90.3979	   728.0	   700.1	 -6362.6	   445.0
     90.4313	   686.0	   691.3	 -6395.8	   445.0
     90.4648	   693.0	   683.4	 -6380.9	   445.0
     90.4982	   703.0	   676.1	 -6363.6	   445.0
     90.5316	   726.0	   669.4	 -6333.9	   445.0
     90.5650	   682.0	   663.4	 -6371.9	   445.0
     90.5984	   626.0	   657.8	 -6422.3	   445.0
     90.6319	   646.0	   652.8	 -6397.3	   445.0
     90.6653	   618.0	   648.1	 -6420.6	   445.0
     90.6987	   646.0	   643.9	 -6388.4	   445.0
     90.7321	   648.0	   640.0	 -6382.5	   445.0
     90.7656	   658.0	   636.4	 -6368.9	   445.0
     90.7990	   624.0	   633.1	 -6399.6	   445.0
     90.8324	   639.0	   630.0	 -6381.5	   445.0
     90.8658	   623.0	   627.2	 -6394.7	   445.0
     90.8992	   576.0	   624.6	 -6439.1	   445.0
     90.9327	   655.0	   622.2	 -6357.7	   445.0
     90.9661	   627.0	   619.9	 -6383.4	   445.0
     90.9995	   596.0	   617.9	 -6412.4	   445.0
     91.0329	   540.0	   615.9	 -6466.4	   445.0
     91.0664	   555.0	   614.1	 -6449.6	   445.0
     91.0998	   597.0	   612.4	 -6405.9	   445.0
     91.1332	   568.0	   610.9	 -6433.4	   445.0
     91.1666	   558.0	   609.4	 -6441.9	   445.0
     91.2001	   642.0	   608.0	 -6356.5	   445.0
     91.2335	   579.0	   606.7	 -6418.2	   445.0
     91.2669	   590.0	   605.5	 -6406.0	   445.0
     91.3003	   613.0	   604.4	 -6381.9	   445.0
     91.3337	   565.0	   603.3	 -6428.8	   445.0
     91.3672	   554.0	   602.3	 -6438.8	   445.0
     91.4006	   577.0	   600.8	 -6414.3	   445.0
     91.4340	   593.0	   599.9	 -6397.4	   445.0
     91.4674	   559.0	   599.1	 -6430.6	   445.0
     91.5009	   578.0	   598.3	 -6410.8	   445.0
     91.5343	   545.0	   597.6	 -6443.1	   445.0
     91.5677	   581.0	   596.9	 -6406.4	   445.0
     91.6011	   543.0	   596.3	 -6443.8	   445.0
     91.6345	   558.0	   595.7	 -6428.2	   445.0
     91.6680	   527.0	   594.8	 -6458.3	   445.0
     91.7014	   591.0	   594.3	 -6393.8	   445.0
     91.7348	   592.0	   593.8	 -6392.3	   445.0
     91.7682	   571.0	   593.3	 -6412.8	   445.0
     91.8017	   558.0	   592.9	 -6425.4	   445.0
     91.8351	   570.0	   592.5	 -6413.0	   445.0
     91.8685	   565.0	   592.2	 -6417.7	   445.0
     91.9019	   541.0	   591.8	 -6441.3	   445.0
     91.9353	   519.0	   591.5	 -6463.0	   445.0
     91.9688	   589.0	   591.2	 -6392.7	   445.0
     92.0022	   570.0	   590.9	 -6411.4	   445.0
     92.0356	   551.0	   590.7	 -6430.2	   445.0
     92.0690	   542.0	   590.5	 -6439.0	   445.0
     92.1025	   520.0	   590.3	 -6460.8	   445.0
     92.1359	   552.0	   590.1	 -6428.6	   445.0
     92.1693	   577.0	   589.8	 -6403.3	   444.9
     92.2027	   574.0	   589.4	 -6405.9	   444.6
     92.2362	   576.0	   588.9	 -6403.4	   444.2
     92.2696	   571.0	   588.5	 -6408.0	   443.9
     92.3030	   602.0	   588.1	 -6376.6	   443.6
     92.3364	   567.0	   587.7	 -6411.2	   443.3
     92.3698	   544.0	   587.3	 -6433.8	   442.9
     92.4033	   563.0	   587.0	 -6414.5	   442.6
     92.4367	   514.0	   586.7	 -6463.2	   442.3
     92.4701	   542.0	   586.4	 -6434.9	   441.9
     92.5035	   540.0	   586.1	 -6436.6	   441.6
     92.5369	   559.0	   585.9	 -6417.4	   441.3
     92.5704	   540.0	   585.6	 -6436.1	   441.0
     92.6038	   558.0	   585.4	 -6417.9	   440.6
     92.6372	   548.0	   585.2	 -6427.7	   440.3
     92.6706	   527.0	   585.1	 -6448.6	   440.0
     92.7041	   591.0	   584.9	 -6384.4	   439.6
     92.7375	   541.0	   584.8	 -6434.3	   439.3
     92.7709	   572.0	   584.7	 -6403.2	   439.0
     92.8043	   552.0	   584.7	 -6423.2	   438.7
     92.8378	   573.0	   584.7	 -6402.2	   438.3
     92.8712	   545.0	   584.7	 -6430.2	   438.0
     92.9046	   578.0	   584.7	 -6397.2	   437.7
     92.9380	   567.0	   584.8	 -6408.3	   437.4
     92.9714	   522.0	   584.9	 -6453.4	   437.0
     93.0049	   540.0	   585.1	 -6435.6	   436.7
     93.0383	   545.0	   585.3	 -6430.8	   436.4
     93.0717	   574.0	   585.6	 -6402.1	   436.0
     93.1051	   544.0	   585.9	 -6432.4	   435.7
     93.1386	   555.0	   586.2	 -6421.7	   435.4
     93.1720	   575.0	   586.6	 -6402.1	   435.1
     93.2054	   539.0	   587.1	 -6438.6	   434.7
     93.2388	   581.0	   587.7	 -6397.2	   434.4
     93.2722	   565.0	   588.3	 -6413.8	   434.1
     93.3057	   530.0	   589.0	 -6449.5	   433.7
     93.3391	   562.0	   589.8	 -6418.3	   433.4
     93.3725	   528.0	   590.7	 -6453.2	   433.1
     93.4059	   559.0	   591.7	 -6423.2	   432.8
     93.4394	   600.0	   592.8	 -6383.3	   432.4
     93.4728	   584.0	   594.1	 -6400.6	   432.1
     93.5062	   563.0	   595.5	 -6423.0	   431.8
     93.5396	   583.0	   597.0	 -6404.5	   431.4
     93.5731	   525.0	   598.8	 -6464.3	   431.1
     93.6065	   594.0	   600.7	 -6397.2	   430.8
     93.6399	   554.0	   602.8	 -6439.3	   430.5
     93.6733	   550.0	   605.1	 -6445.6	   430.1
     93.7067	   550.0	   607.7	 -6448.2	   429.8
     93.7402	   534.0	   610.6	 -6467.1	   429.5
     93.7736	   570.0	   613.8	 -6434.3	   429.1
     93.8070	   606.0	   617.3	 -6401.8	   428.8
     93.8404	   577.0	   621.2	 -6434.7	   428.5
     93.8739	   586.0	   625.4	 -6429.9	   428.2
     93.9073	   619.0	   630.1	 -6401.6	   427.8
     93.9407	   587.0	   635.2	 -6438.7	   427.5
     93.9741	   575.0	   640.8	 -6456.3	   427.2
     94.0075	   561.0	   646.8	 -6476.3	   426.9
     94.0410	   627.0	   653.3	 -6416.8	   426.5
     94.0744	   589.0	   660.2	 -6461.7	   426.2
     94.1078	   639.0	   667.6	 -6419.1	   425.9
     94.1412	   613.0	   675.3	 -6452.8	   425.5
     94.1747	   605.0	   683.2	 -6468.7	   425.2
     94.2081	   649.0	   691.1	 -6432.6	   424.9
     94.2415	   686.0	   698.9	 -6403.4	   424.6
     94.2749	   638.0	   706.4	 -6458.9	   424.2
     94.3083	   649.0	   713.3	 -6454.8	   423.9
     94.3418	   645.0	   719.2	 -6464.7	   423.6
     94.3752	   687.0	   721.8	 -6425.3	   423.2
     94.4086	   709.0	   725.5	 -6407.0	   422.9
     94.4420	   689.0	   727.8	 -6429.3	   422.6
     94.4755	   686.0	   728.7	 -6433.2	   422.3
     94.5089	   674.0	   728.3	 -6444.8	   421.9
     94.5423	   617.0	   726.6	 -6500.1	   421.6
     94.5757	   656.0	   723.7	 -6458.2	   421.3
     94.6091	   710.0	   719.9	 -6400.4	   420.9
     94.6426	   649.0	   715.2	 -6456.7	   420.6
     94.6760	   700.0	   708.6	 -6399.1	   420.3
     94.7094	   666.0	   702.4	 -6426.9	   420.0
     94.7428	   705.0	   695.7	 -6381.2	   419.6
     94.7763	   656.0	   688.5	 -6423.0	   419.3
     94.8097	   672.0	   681.0	 -6399.5	   419.0
     94.8431	   655.0	   673.3	 -6408.8	   418.6
     94.8765	   609.0	   665.4	 -6446.9	   418.3
     94.9100	   586.0	   657.6	 -6462.1	   418.0
     94.9434	   616.0	   650.0	 -6424.5	   417.7
     94.9768	   637.0	   642.6	 -6396.1	   417.3
     95.0102	   579.0	   635.5	 -6447.0	   417.0
     95.0436	   602.0	   628.8	 -6417.3	   416.7
     95.0771	   585.0	   622.5	 -6428.0	   416.4
     95.1105	   577.0	   616.6	 -6430.1	   416.0
     95.1439	   606.0	   611.0	 -6395.5	   415.7
     95.1773	   601.0	   605.9	 -6395.4	   415.4
     95.2108	   556.0	   601.1	 -6435.6	   415.0
     95.2442	   617.0	   596.7	 -6370.2	   414.7
     95.2776	   513.0	   592.7	 -6470.2	   414.4
     95.3110	   528.0	   588.9	 -6451.4	   414.1
     95.3444	   554.0	   585.4	 -6421.9	   413.7
     95.3779	   537.0	   582.2	 -6435.7	   413.4
     95.4113	   591.0	   579.2	 -6378.7	   413.1
     95.4447	   583.0	   576.4	 -6383.9	   412.7
     95.4781	   543.0	   573.9	 -6421.4	   412.4
     95.5116	   544.0	   571.5	 -6418.0	   412.1
     95.5450	   560.0	   569.2	 -6399.7	   411.8
     95.5784	   600.0	   567.2	 -6357.7	   411.4
     95.6118	   561.0	   565.2	 -6394.7	   411.1
     95.6452	   565.0	   563.4	 -6388.9	   410.8
     95.6787	   567.0	   561.6	 -6385.1	   410.4
     95.7121	   565.0	   560.0	 -6385.5	   410.1
     95.7455	   514.0	   558.4	 -6434.9	   409.7
     95.7789	   568.0	   556.9	 -6379.4	   409.3
     95.8124	   554.0	   555.5	 -6392.0	   409.0
     95.8458	   546.0	   554.2	 -6398.7	   408.6
     95.8792	   557.0	   552.9	 -6386.4	   408.3
     95.9126	   543.0	   551.7	 -6399.2	   407.9
     95.9461	   538.0	   550.6	 -6403.1	   407.5
     95.9795	   526.0	   549.5	 -6414.0	   407.2
     96.0129	   550.0	   548.4	 -6388.9	   406.8
     96.0463	   512.0	   547.4	 -6425.9	   406.5
     96.0797	   534.0	   546.4	 -6402.9	   406.1
     96.1132	   521.0	   545.5	 -6415.0	   405.7
     96.1466	   511.0	   544.6	 -6424.1	   405.4
     96.1800	   534.0	   543.7	 -6400.2	   405.0
     96.2134	   548.0	   542.8	 -6385.3	   404.7
     96.2469	   535.0	   542.0	 -6397.5	   404.3
     96.2803	   523.0	   541.2	 -6408.7	   403.9
     96.3137	   528.0	   540.5	 -6403.0	   403.6
     96.3471	   530.0	   539.7	 -6400.2	   403.2
     96.3805	   551.0	   539.0	 -6378.5	   402.8
     96.4140	   500.0	   538.2	 -6428.7	   402.5
     96.4474	   532.0	   537.5	 -6396.0	   402.1
     96.4808	   458.0	   536.9	 -6469.4	   401.8
     96.5142	   518.0	   536.2	 -6408.7	   401.4
     96.5477	   518.0	   535.6	 -6408.1	   401.0
     96.5811	   491.0	   534.9	 -6434.4	   400.7
     96.6145	   510.0	   534.3	 -6414.8	   400.3
     96.6479	   569.0	   533.7	 -6355.2	   400.0
     96.6814	   523.0	   533.1	 -6400.6	   399.6
     96.7148	   497.0	   532.5	 -6426.0	   399.2
     96.7482	   542.0	   531.9	 -6380.4	   398.9
     96.7816	   550.0	   531.4	 -6371.9	   398.5
     96.8150	   534.0	   530.8	 -6387.3	   398.2
     96.8485	   514.0	   530.2	 -6406.7	   397.8
     96.8819	   523.0	   529.7	 -6397.2	   397.4
     96.9153	   506.0	   529.2	 -6413.7	   397.1
     96.9487	   552.0	   528.6	 -6367.1	   396.7
     96.9821	   521.0	   528.5	 -6398.0	   396.4
     97.0156	   520.0	   528.0	 -6398.5	   396.0
     97.0490	   502.0	   527.5	 -6416.0	   395.6
     97.0824	   512.0	   527.0	 -6405.5	   395.3
     97.1158	   503.0	   526.5	 -6414.0	   394.9
     97.1493	   528.0	   526.0	 -6388.5	   394.5
     97.1827	   534.0	   525.6	 -6382.1	   394.2
     97.2161	   502.0	   525.1	 -6413.6	   393.8
     97.2495	   514.0	   524.6	 -6401.1	   393.5
     97.2830	   481.0	   524.1	 -6433.6	   393.1
     97.3164	   498.0	   523.9	 -6416.4	   392.7
     97.3498	   499.0	   523.4	 -6414.9	   392.4
     97.3832	   510.0	   522.9	 -6403.4	   392.0
     97.4166	   525.0	   522.5	 -6388.0	   391.7
     97.4501	   470.0	   522.0	 -6442.5	   391.3
     97.4835	   534.0	   521.6	 -6378.1	   390.9
     97.5169	   524.0	   521.1	 -6387.6	   390.6
     97.5503	   513.0	   520.7	 -6398.2	   390.2
     97.5838	   522.0	   520.2	 -6388.7	   389.9
     97.6172	   490.0	   519.8	 -6420.3	   389.5
     97.6506	   471.0	   519.4	 -6438.9	   389.1
     97.6840	   472.0	   518.9	 -6437.4	   388.8
     97.7174	   524.0	   518.5	 -6385.0	   388.4
     97.7509	   487.0	   518.0	 -6421.5	   388.1
     97.7843	   490.0	   517.6	 -6418.1	   387.7
     97.8177	   494.0	   517.2	 -6413.7	   387.3
     97.8511	   478.0	   516.8	 -6429.2	   387.0
     97.8846	   496.0	   516.3	 -6410.8	   386.6
     97.9180	   526.0	   515.9	 -6380.4	   386.2
     97.9514	   499.0	   515.5	 -6407.0	   385.9
     97.9848	   475.0	   515.1	 -6430.6	   385.5
     98.0182	   492.0	   514.6	 -6413.1	   385.2
     98.0517	   504.0	   514.2	 -6400.7	   384.8
     98.0851	   519.0	   513.8	 -6385.3	   384.4
     98.1185	   481.0	   513.4	 -6422.9	   384.1
     98.1519	   502.0	   513.0	 -6401.5	   383.7
     98.1854	   486.0	   512.6	 -6417.1	   383.4
     98.2188	   496.0	   512.2	 -6406.7	   383.0
     98.2522	   497.0	   511.8	 -6405.3	   382.6
     98.2856	   488.0	   511.4	 -6413.9	   382.3
     98.3191	   461.0	   511.0	 -6440.5	   381.9
     98.3525	   511.0	   510.6	 -6390.1	   381.6
     98.3859	   482.0	   510.2	 -6418.7	   381.2
     98.4193	   465.0	   509.8	 -6435.3	   380.8
     98.4527	   509.0	   509.4	 -6390.9	   380.5
     98.4862	   475.0	   509.1	 -6424.6	   380.1
     98.5196	   498.0	   508.7	 -6401.2	   379.8
     98.5530	   506.0	   508.3	 -6392.8	   379.4
     98.5864	   530.0	   507.9	 -6368.4	   379.0
     98.6199	   512.0	   507.5	 -6386.0	   378.7
     98.6533	   529.0	   507.1	 -6368.6	   378.3
     98.6867	   468.0	   506.8	 -6429.3	   377.9
     98.7201	   500.0	   506.4	 -6396.9	   377.6
     98.7535	   488.0	   506.0	 -6408.5	   377.2
     98.7870	   457.0	   505.6	 -6439.1	   376.9
     98.8204	   537.0	   505.3	 -6358.8	   376.5
     98.8538	   494.0	   505.0	 -6401.5	   376.3
     98.8872	   496.0	   505.0	 -6399.5	   376.3
     98.9207	   513.0	   505.0	 -6382.5	   376.3
     98.9541	   532.0	   505.0	 -6363.5	   376.3
     98.9875	   551.0	   505.0	 -6344.5	   376.3
     99.0209	   490.0	   505.0	 -6405.5	   376.3
     99.0543	   505.0	   505.0	 -6390.5	   376.3
     99.0878	   423.0	   505.0	 -6472.5	   376.3
     99.1212	   531.0	   505.0	 -6364.5	   376.3
     99.1546	   492.0	   505.0	 -6403.5	   376.3
     99.1880	   468.0	   505.0	 -6427.5	   376.3
     99.2215	   518.0	   505.0	 -6377.5	   376.3
     99.2549	   468.0	   505.0	 -6427.5	   376.3
     99.2883	   516.0	   505.0	 -6379.5	   376.3
     99.3217	   504.0	   505.0	 -6391.5	   376.3
     99.3551	   479.0	   504.0	 -6415.5	   376.3
     99.3886	   525.0	   504.1	 -6369.6	   376.3
     99.4220	   477.0	   504.1	 -6417.6	   376.3
     99.4554	   499.0	   504.1	 -6395.6	   376.3
     99.4888	   495.0	   504.1	 -6399.6	   376.3
     99.5223	   500.0	   504.2	 -6394.7	   376.3
     99.5557	   519.0	   504.2	 -6375.7	   376.3
     99.5891	   516.0	   504.3	 -6378.8	   376.3
     99.6225	   508.0	   504.3	 -6386.8	   376.3
     99.6560	   506.0	   504.3	 -6388.8	   376.3
     99.6894	   482.0	   503.9	 -6412.4	   376.3
     99.7228	   508.0	   503.9	 -6386.4	   376.3
     99.7562	   498.0	   504.0	 -6396.5	   376.3
     99.7896	   432.0	   505.6	 -6464.1	   376.3
     99.8231	   527.0	   505.7	 -6369.2	   376.3
     99.8565	   509.0	   505.8	 -6387.3	   376.3
     99.8899	   515.0	   505.9	 -6381.4	   376.3
     99.9233	   498.0	   505.9	 -6398.4	   376.3
     99.9568	   525.0	   506.0	 -6371.5	   376.3
     99.9902	   481.0	   508.1	 -6417.6	   376.3
     18.3016	        	        	        	        	       0	(  1  1  1)	  0  1
     18.3470	        	        	        	        	       0	(  1  1  1)	  0  2
     30.0905	        	        	        	        	       0	(  2  2  0)	  0  1
     30.1662	        	        	        	        	       0	(  2  2  0)	  0  2
     35.4385	        	        	        	        	       0	(  3  1  1)	  0  1
     35.5285	        	        	        	        	       0	(  3  1  1)	  0  2
     37.0692	        	        	        	        	       0	(  2  2  2)	  0  1
     37.1637	        	        	        	        	       0	(  2  2  2)	  0  2
     43.0642	        	        	        	        	       0	(  4  0  0)	  0  1
     43.1753	        	        	        	        	       0	(  4  0  0)	  0  2
     47.1482	        	        	        	        	       0	(  3  3  1)	  0  1
     47.2711	        	        	        	        	       0	(  3  3  1)	  0  2
     53.4182	        	        	        	        	       0	(  4  2  2)	  0  1
     53.5600	        	        	        	        	       0	(  4  2  2)	  0  2
     56.9418	        	        	        	        	       0	(  3  3  3)	  0  1
     56.9418	        	        	        	        	       0	(  5  1  1)	  0  1
     57.0946	        	        	        	        	       0	(  3  3  3)	  0  2
     57.0946	        	        	        	        	       0	(  5  1  1)	  0  2
     62.5248	        	        	        	        	       0	(  4  4  0)	  0  1
     62.6960	        	        	        	        	       0	(  4  4  0)	  0  2
     65.7392	        	        	        	        	       0	(  5  3  1)	  0  1
     65.9214	        	        	        	        	       0	(  5  3  1)	  0  2
     66.7923	        	        	        	        	       0	(  4  4  2)	  0  1
     66.9781	        	        	        	        	       0	(  4  4  2)	  0  2
     70.9272	        	        	        	        	       0	(  6  2  0)	  0  1
     71.1280	        	        	        	        	       0	(  6  2  0)	  0  2
     73.9606	        	        	        	        	       0	(  5  3  3)	  0  1
     74.1729	        	        	        	        	       0	(  5  3  3)	  0  2
     74.9610	        	        	        	        	       0	(  6  2  2)	  0  1
     75.1773	        	        	        	        	       0	(  6  2  2)	  0  2
     78.9197	        	        	        	        	       0	(  4  4  4)	  0  1
     79.1519	        	        	        	        	       0	(  4  4  4)	  0  2
     81.8528	        	        	        	        	       0	(  5  5  1)	  0  1
     81.8528	        	        	        	        	       0	(  7  1  1)	  0  1
     82.0974	        	        	        	        	       0	(  5  5  1)	  0  2
     82.0974	        	        	        	        	       0	(  7  1  1)	  0  2
     86.6976	        	        	        	        	       0	(  6  4  2)	  0  1
     86.9640	        	        	        	        	       0	(  6  4  2)	  0  2
     89.5909	        	        	        	        	       0	(  5  5  3)	  0  1
     89.5909	        	        	        	        	       0	(  7  3  1)	  0  1
     89.8711	        	        	        	        	       0	(  5  5  3)	  0  2
     89.8711	        	        	        	        	       0	(  7  3  1)	  0  2
     94.4143	        	        	        	        	       0	(  8  0  0)	  0  1
     94.7191	        	        	        	        	       0	(  8  0  0)	  0  2
     97.3212	        	        	        	        	       0	(  7  3  3)	  0  1
     97.6420	        	        	        	        	       0	(  7  3  3)	  0  2
     98.2940	        	        	        	        	       0	(  6  4  4)	  0  1
     98.6204	        	        	        	        	       0	(  6  4  4)	  0  2
    102.2123	        	        	        	        	       0	(  6  6  0)	  0  1
    102.2123	        	        	        	        	       0	(  8  2  2)	  0  1
    102.5623	        	        	        	        	       0	(  6  6  0)	  0  2
    102.5623	        	        	        	        	       0	(  8  2  2)	  0  2
    105.1886	        	        	        	        	       0	(  7  5  1)	  0  1
    105.1886	        	        	        	        	       0	(  5  5  5)	  0  1
    105.5579	        	        	        	        	       0	(  7  5  1)	  0  2
    105.5579	        	        	        	        	       0	(  5  5  5)	  0  2
    106.1896	        	        	        	        	       0	(  6  6  2)	  0  1
    106.5657	        	        	        	        	       0	(  6  6  2)	  0  2
    110.2488	        	        	        	        	       0	(  8  4  0)	  0  1
    110.6542	        	        	        	        	       0	(  8  4  0)	  0  2
    113.3631	        	        	        	        	       0	(  9  1  1)	  0  1
    113.3631	        	        	        	        	       0	(  7  5  3)	  0  1
    113.7931	        	        	        	        	       0	(  9  1  1)	  0  2
    113.7931	        	        	        	        	       0	(  7  5  3)	  0  2
    114.4171	        	        	        	        	       0	(  8  4  2)	  0  1
    114.8559	        	        	        	        	       0	(  8  4  2)	  0  2
    118.7282	        	        	        	        	       0	(  6  6  4)	  0  1
    119.2057	        	        	        	        	       0	(  6  6  4)	  0  2
    122.0807	        	        	        	        	       0	(  9  3  1)	  0  1
    122.5920	        	        	        	        	       0	(  9  3  1)	  0  2
    127.9671	        	        	        	        	       0	(  8  4  4)	  0  1
    128.5475	        	        	        	        	       0	(  8  4  4)	  0  2
    131.7334	        	        	        	        	       0	(  7  5  5)	  0  1
    131.7335	        	        	        	        	       0	(  7  7  1)	  0  1
    131.7335	        	        	        	        	       0	(  9  3  3)	  0  1
    132.3663	        	        	        	        	       0	(  7  5  5)	  0  2
    132.3664	        	        	        	        	       0	(  7  7  1)	  0  2
    132.3664	        	        	        	        	       0	(  9  3  3)	  0  2
