 Cr2O3   Chi2:  2.1721  CELL:    4.95890   4.95890  13.59472   90.0000   90.0000  120.0000   SPGR: R -3 c                 TEMP:      0.00
  1   2394     1.54060     1.54439     0.00000     0.03567     0.00000    0
    86     0     1
       0.00000      20.00000
 2Theta	Yobs	Ycal	Yobs-Ycal	Backg	Posr	(hkl)	K
     20.0167	   28.00	   18.25	 -308.50	   17.81
     20.0501	   25.00	   18.23	 -311.48	   17.79
     20.0836	   34.00	   18.21	 -302.46	   17.78
     20.1170	   15.00	   18.20	 -321.45	   17.76
     20.1504	   26.00	   18.18	 -310.43	   17.74
     20.1838	   31.00	   18.16	 -305.41	   17.72
     20.2172	   33.00	   18.14	 -303.39	   17.70
     20.2507	   27.00	   18.12	 -309.37	   17.68
     20.2841	   22.00	   18.10	 -314.35	   17.67
     20.3175	   35.00	   18.09	 -301.34	   17.65
     20.3509	   21.00	   18.07	 -315.32	   17.63
     20.3844	   25.00	   18.05	 -311.30	   17.61
     20.4178	   29.00	   18.03	 -307.28	   17.59
     20.4512	   25.00	   18.01	 -311.26	   17.58
     20.4846	   29.00	   18.00	 -307.25	   17.56
     20.5181	   27.00	   17.98	 -309.23	   17.54
     20.5515	   35.00	   17.96	 -301.21	   17.52
     20.5849	   29.00	   17.94	 -307.19	   17.50
     20.6183	   24.00	   17.92	 -312.17	   17.48
     20.6517	   29.00	   17.91	 -307.16	   17.47
     20.6852	   28.00	   17.89	 -308.14	   17.45
     20.7186	   22.00	   17.87	 -314.12	   17.43
     20.7520	   27.00	   17.85	 -309.10	   17.41
     20.7854	   28.00	   17.83	 -308.08	   17.39
     20.8189	   29.00	   17.82	 -307.07	   17.38
     20.8523	   23.00	   17.80	 -313.05	   17.36
     20.8857	   25.00	   17.78	 -311.03	   17.34
     20.9191	   31.00	   17.76	 -305.01	   17.32
     20.9525	   40.00	   17.74	 -295.99	   17.30
     20.9860	   22.00	   17.73	 -313.98	   17.29
     21.0194	   31.00	   17.71	 -304.96	   17.27
     21.0528	   33.00	   17.69	 -302.94	   17.25
     21.0862	   22.00	   17.67	 -313.92	   17.23
     21.1197	   27.00	   17.65	 -308.90	   17.21
     21.1531	   26.00	   17.64	 -309.89	   17.20
     21.1865	   32.00	   17.62	 -303.87	   17.18
     21.2199	   23.00	   17.60	 -312.85	   17.16
     21.2533	   23.00	   17.58	 -312.83	   17.14
     21.2868	   26.00	   17.56	 -309.81	   17.13
     21.3202	   32.00	   17.55	 -303.80	   17.11
     21.3536	   25.00	   17.53	 -310.78	   17.09
     21.3870	   35.00	   17.51	 -300.76	   17.07
     21.4205	   24.00	   17.49	 -311.74	   17.05
     21.4539	   17.00	   17.48	 -318.73	   17.04
     21.4873	   31.00	   17.46	 -304.71	   17.02
     21.5207	   31.00	   17.44	 -304.69	   17.00
     21.5541	   33.00	   17.42	 -302.67	   16.98
     21.5876	   31.00	   17.55	 -304.80	   16.97
     21.6210	   26.00	   17.54	 -309.79	   16.95
     21.6544	   25.00	   17.59	 -310.84	   16.93
     21.6878	   23.00	   17.58	 -312.83	   16.91
     21.7213	   31.00	   17.57	 -304.82	   16.89
     21.7547	   13.00	   17.56	 -322.81	   16.88
     21.7881	   14.00	   17.55	 -321.80	   16.86
     21.8215	   29.00	   17.53	 -306.78	   16.84
     21.8550	   24.00	   17.52	 -311.77	   16.82
     21.8884	   21.00	   17.51	 -314.76	   16.81
     21.9218	   24.00	   17.50	 -311.75	   16.79
     21.9552	   22.00	   17.49	 -313.74	   16.77
     21.9886	   24.00	   17.48	 -311.73	   16.75
     22.0221	   28.00	   17.47	 -307.72	   16.74
     22.0555	   33.00	   17.46	 -302.71	   16.72
     22.0889	   32.00	   17.45	 -303.70	   16.70
     22.1223	   27.00	   17.44	 -308.69	   16.68
     22.1558	   34.00	   17.43	 -301.68	   16.66
     22.1892	   22.00	   17.43	 -313.68	   16.65
     22.2226	   29.00	   17.42	 -306.67	   16.63
     22.2560	   28.00	   17.41	 -307.66	   16.61
     22.2894	   25.00	   17.40	 -310.65	   16.59
     22.3229	   23.00	   17.40	 -312.65	   16.58
     22.3563	   25.00	   17.39	 -310.64	   16.56
     22.3897	   23.00	   17.39	 -312.64	   16.54
     22.4231	   25.00	   17.38	 -310.63	   16.52
     22.4566	   23.00	   17.38	 -312.63	   16.51
     22.4900	   24.00	   17.37	 -311.62	   16.49
     22.5234	   27.00	   17.37	 -308.62	   16.47
     22.5568	   24.00	   17.37	 -311.62	   16.45
     22.5902	   36.00	   17.37	 -299.62	   16.44
     22.6237	   14.00	   17.37	 -321.62	   16.42
     22.6571	   32.00	   17.37	 -303.62	   16.40
     22.6905	   22.00	   17.37	 -313.62	   16.38
     22.7239	   29.00	   17.37	 -306.62	   16.37
     22.7574	   17.00	   17.38	 -318.63	   16.35
     22.7908	   19.00	   17.38	 -316.63	   16.33
     22.8242	   32.00	   17.39	 -303.64	   16.31
     22.8576	   33.00	   17.40	 -302.65	   16.30
     22.8911	   19.00	   17.41	 -316.66	   16.28
     22.9245	   21.00	   17.42	 -314.67	   16.26
     22.9579	   22.00	   17.43	 -313.68	   16.25
     22.9913	   18.00	   17.44	 -317.69	   16.23
     23.0247	   21.00	   17.46	 -314.71	   16.21
     23.0582	   21.00	   17.48	 -314.73	   16.19
     23.0916	   26.00	   17.50	 -309.75	   16.18
     23.1250	   23.00	   17.53	 -312.78	   16.16
     23.1584	   29.00	   17.55	 -306.80	   16.14
     23.1919	   22.00	   17.59	 -313.84	   16.12
     23.2253	   15.00	   17.62	 -320.87	   16.11
     23.2587	   25.00	   17.66	 -310.91	   16.09
     23.2921	   25.00	   17.70	 -310.95	   16.07
     23.3255	   22.00	   17.75	 -314.00	   16.05
     23.3590	   34.00	   17.80	 -302.05	   16.04
     23.3924	   49.00	   17.87	 -287.12	   16.02
     23.4258	   54.00	   17.93	 -282.18	   16.00
     23.4592	   68.00	   18.01	 -268.26	   15.99
     23.4927	   57.00	   18.09	 -279.34	   15.97
     23.5261	   67.00	   18.18	 -269.43	   15.95
     23.5595	   57.00	   18.29	 -279.54	   15.93
     23.5929	   42.00	   18.41	 -294.66	   15.92
     23.6263	   28.00	   18.54	 -308.79	   15.90
     23.6598	   29.00	   18.69	 -307.94	   15.88
     23.6932	   36.00	   18.86	 -301.11	   15.87
     23.7266	   39.00	   19.05	 -298.30	   15.85
     23.7600	   24.00	   19.27	 -313.52	   15.83
     23.7935	   21.00	   19.53	 -316.78	   15.81
     23.8269	   21.00	   19.82	 -317.07	   15.80
     23.8603	   23.00	   20.15	 -315.40	   15.78
     23.8937	   33.00	   20.54	 -305.79	   15.76
     23.9271	   24.00	   20.99	 -315.24	   15.75
     23.9606	   32.00	   21.53	 -307.78	   15.73
     23.9940	   29.00	   22.17	 -311.42	   15.71
     24.0274	   29.00	   22.93	 -312.18	   15.70
     24.0608	   31.00	   23.86	 -311.11	   15.68
     24.0943	   33.00	   25.00	 -310.25	   15.66
     24.1277	   33.00	   26.42	 -311.67	   15.64
     24.1611	   21.00	   28.21	 -325.46	   15.63
     24.1945	   45.00	   30.51	 -303.76	   15.61
     24.2280	   37.00	   33.55	 -314.80	   15.59
     24.2614	   58.00	   37.65	 -297.90	   15.58
     24.2948	   34.00	   43.40	 -327.65	   15.56
     24.3282	   63.00	   52.13	 -307.38	   15.54
     24.3616	   84.00	   68.06	 -302.31	   15.53
     24.3951	   99.00	  105.25	 -324.50	   15.51
     24.4285	  192.00	  197.97	 -324.22	   15.49
     24.4619	  385.00	  392.22	 -325.47	   15.47
     24.4953	  775.00	  688.69	 -231.94	   15.46
     24.5288	 1014.00	  952.15	 -256.40	   15.44
     24.5622	  984.00	  976.01	 -310.26	   15.42
     24.5956	  764.00	  793.58	 -347.83	   15.41
     24.6290	  455.00	  520.60	 -383.85	   15.39
     24.6624	  290.00	  288.41	 -316.66	   15.37
     24.6959	  156.00	  151.29	 -313.54	   15.36
     24.7293	   96.00	   87.09	 -309.34	   15.34
     24.7627	   71.00	   60.05	 -307.30	   15.32
     24.7961	   54.00	   47.49	 -311.74	   15.31
     24.8296	   48.00	   40.19	 -310.44	   15.29
     24.8630	   32.00	   35.24	 -321.49	   15.27
     24.8964	   28.00	   31.65	 -321.90	   15.26
     24.9298	   31.00	   28.96	 -316.21	   15.24
     24.9632	   37.00	   26.88	 -308.13	   15.22
     24.9967	   32.00	   25.25	 -311.50	   15.21
     25.0301	   17.00	   23.94	 -325.19	   15.19
     25.0635	   28.00	   22.88	 -313.13	   15.17
     25.0969	   29.00	   22.00	 -311.25	   15.16
     25.1304	   23.00	   21.26	 -316.51	   15.14
     25.1638	   24.00	   20.64	 -314.89	   15.12
     25.1972	   26.00	   20.12	 -312.37	   15.11
     25.2306	   23.00	   19.66	 -314.91	   15.09
     25.2640	   37.00	   19.26	 -300.51	   15.07
     25.2975	   31.00	   18.92	 -306.17	   15.06
     25.3309	   24.00	   18.61	 -312.86	   15.04
     25.3643	   17.00	   18.35	 -319.60	   15.02
     25.3977	   21.00	   18.11	 -315.36	   15.01
     25.4312	   19.00	   17.89	 -317.14	   14.99
     25.4646	   26.00	   17.70	 -309.95	   14.97
     25.4980	   18.00	   17.52	 -317.77	   14.96
     25.5314	   21.00	   17.36	 -314.61	   14.94
     25.5649	   25.00	   17.22	 -310.47	   14.92
     25.5983	   23.00	   17.08	 -312.33	   14.91
     25.6317	   18.00	   16.96	 -317.21	   14.89
     25.6651	   13.00	   16.85	 -322.10	   14.87
     25.6985	   12.00	   16.74	 -322.99	   14.86
     25.7320	   14.00	   16.65	 -320.90	   14.84
     25.7654	   22.00	   16.55	 -312.80	   14.82
     25.7988	   18.00	   16.47	 -316.72	   14.81
     25.8322	   21.00	   16.39	 -313.64	   14.79
     25.8657	   16.00	   16.32	 -318.57	   14.77
     25.8991	   25.00	   16.24	 -309.49	   14.76
     25.9325	   23.00	   16.18	 -311.43	   14.74
     25.9659	   17.00	   16.11	 -317.36	   14.72
     25.9993	   17.00	   16.06	 -317.31	   14.71
     26.0328	   19.00	   16.00	 -315.25	   14.69
     26.0662	   13.00	   15.94	 -321.19	   14.67
     26.0996	   16.00	   15.89	 -318.14	   14.66
     26.1330	   21.00	   15.84	 -313.09	   14.64
     26.1665	   22.00	   15.79	 -312.04	   14.63
     26.1999	   21.00	   15.75	 -313.00	   14.61
     26.2333	   22.00	   15.70	 -311.95	   14.59
     26.2667	   13.00	   15.66	 -320.91	   14.58
     26.3001	   19.00	   15.62	 -314.87	   14.56
     26.3336	   18.00	   15.58	 -315.83	   14.54
     26.3670	   31.00	   15.54	 -302.79	   14.53
     26.4004	   12.00	   15.51	 -321.76	   14.51
     26.4338	   13.00	   15.47	 -320.72	   14.49
     26.4673	   12.00	   15.44	 -321.69	   14.48
     26.5007	   22.00	   15.40	 -311.65	   14.46
     26.5341	   13.00	   15.37	 -320.62	   14.45
     26.5675	   18.00	   15.34	 -315.59	   14.43
     26.6010	   12.00	   15.31	 -321.56	   14.41
     26.6344	   14.00	   15.27	 -319.52	   14.40
     26.6678	   16.00	   15.24	 -317.49	   14.38
     26.7012	   18.00	   15.22	 -315.47	   14.36
     26.7346	   15.00	   15.19	 -318.44	   14.35
     26.7681	   21.00	   15.16	 -312.41	   14.33
     26.8015	   19.00	   15.13	 -314.38	   14.32
     26.8349	   22.00	   15.10	 -311.35	   14.30
     26.8683	   21.00	   15.08	 -312.33	   14.28
     26.9018	   22.00	   15.05	 -311.30	   14.27
     26.9352	   14.00	   15.03	 -319.28	   14.25
     26.9686	   16.00	   15.00	 -317.25	   14.24
     27.0020	   13.00	   14.98	 -320.23	   14.22
     27.0354	   21.00	   14.95	 -312.20	   14.20
     27.0689	   15.00	   14.93	 -318.18	   14.19
     27.1023	   27.00	   14.90	 -306.15	   14.17
     27.1357	   19.00	   14.88	 -314.13	   14.15
     27.1691	   12.00	   14.86	 -321.11	   14.14
     27.2026	   15.00	   14.83	 -318.08	   14.12
     27.2360	   19.00	   14.81	 -314.06	   14.11
     27.2694	   18.00	   14.79	 -315.04	   14.09
     27.3028	   25.00	   14.76	 -308.01	   14.07
     27.3362	   18.00	   14.74	 -314.99	   14.06
     27.3697	    9.00	   14.72	 -323.97	   14.04
     27.4031	   15.00	   14.70	 -317.95	   14.03
     27.4365	   13.00	   14.68	 -319.93	   14.01
     27.4699	   18.00	   14.66	 -314.91	   13.99
     27.5034	   11.00	   14.64	 -321.89	   13.98
     27.5368	   19.00	   14.47	 -313.72	   13.96
     27.5702	   14.00	   14.39	 -318.64	   13.95
     27.6036	   17.00	   14.37	 -315.62	   13.93
     27.6371	   19.00	   14.35	 -313.60	   13.91
     27.6705	   19.00	   14.34	 -313.59	   13.90
     27.7039	    9.00	   14.32	 -323.57	   13.88
     27.7373	   14.00	   14.31	 -318.56	   13.87
     27.7707	   11.00	   14.29	 -321.54	   13.85
     27.8042	   17.00	   14.27	 -315.52	   13.83
     27.8376	   21.00	   14.26	 -311.51	   13.82
     27.8710	   14.00	   14.24	 -318.49	   13.80
     27.9044	   14.00	   14.23	 -318.48	   13.79
     27.9379	   14.00	   14.21	 -318.46	   13.77
     27.9713	   22.00	   14.19	 -310.44	   13.76
     28.0047	   18.00	   14.18	 -314.43	   13.74
     28.0381	   14.00	   14.16	 -318.41	   13.72
     28.0715	   13.00	   14.15	 -319.40	   13.71
     28.1050	   15.00	   14.13	 -317.38	   13.69
     28.1384	   14.00	   14.12	 -318.37	   13.68
     28.1718	   21.00	   14.10	 -311.35	   13.66
     28.2052	   15.00	   14.08	 -317.33	   13.64
     28.2387	   13.00	   14.07	 -319.32	   13.63
     28.2721	   18.00	   14.05	 -314.30	   13.61
     28.3055	   17.00	   14.04	 -315.29	   13.60
     28.3389	   13.00	   14.02	 -319.27	   13.58
     28.3723	   14.00	   14.01	 -318.26	   13.57
     28.4058	   13.00	   13.99	 -319.24	   13.55
     28.4392	   17.00	   13.97	 -315.22	   13.53
     28.4726	   15.00	   13.96	 -317.21	   13.52
     28.5060	    9.00	   13.94	 -323.19	   13.50
     28.5395	    7.00	   13.93	 -325.18	   13.49
     28.5729	   15.00	   13.91	 -317.16	   13.47
     28.6063	   15.00	   13.90	 -317.15	   13.46
     28.6397	   13.00	   13.88	 -319.13	   13.44
     28.6731	    8.00	   13.86	 -324.11	   13.43
     28.7066	    6.00	   13.85	 -326.10	   13.41
     28.7400	   13.00	   13.83	 -319.08	   13.39
     28.7734	   21.00	   13.82	 -311.07	   13.38
     28.8068	   14.00	   13.80	 -318.05	   13.36
     28.8403	   17.00	   13.79	 -315.04	   13.35
     28.8737	   14.00	   13.77	 -318.02	   13.33
     28.9071	   11.00	   13.75	 -321.00	   13.32
     28.9405	   11.00	   13.74	 -320.99	   13.30
     28.9740	   16.00	   13.72	 -315.97	   13.28
     29.0074	   21.00	   13.71	 -310.96	   13.27
     29.0408	    7.00	   13.69	 -324.94	   13.25
     29.0742	   12.00	   13.68	 -319.93	   13.24
     29.1076	   11.00	   13.66	 -320.91	   13.22
     29.1411	   13.00	   13.65	 -318.90	   13.21
     29.1745	    8.00	   13.63	 -323.88	   13.19
     29.2079	   16.00	   13.62	 -315.87	   13.18
     29.2413	   14.00	   13.60	 -317.85	   13.16
     29.2748	   13.00	   13.58	 -318.83	   13.15
     29.3082	   14.00	   13.57	 -317.82	   13.13
     29.3416	   17.00	   13.55	 -314.80	   13.11
     29.3750	    4.00	   13.54	 -327.79	   13.10
     29.4084	   16.00	   13.52	 -315.77	   13.08
     29.4419	   11.00	   13.51	 -320.76	   13.07
     29.4753	   15.00	   13.49	 -316.74	   13.05
     29.5087	   17.00	   13.48	 -314.73	   13.04
     29.5421	   19.00	   13.46	 -312.71	   13.02
     29.5756	   19.00	   13.45	 -312.70	   13.01
     29.6090	   13.00	   13.43	 -318.68	   12.99
     29.6424	   17.00	   13.42	 -314.67	   12.98
     29.6758	   16.00	   13.40	 -315.65	   12.96
     29.7092	   17.00	   13.38	 -314.63	   12.95
     29.7427	   11.00	   13.37	 -320.62	   12.93
     29.7761	   14.00	   13.35	 -317.60	   12.91
     29.8095	    8.00	   13.34	 -323.59	   12.90
     29.8429	   14.00	   13.32	 -317.57	   12.88
     29.8764	   11.00	   13.31	 -320.56	   12.87
     29.9098	   22.00	   13.29	 -309.54	   12.85
     29.9432	   11.00	   13.28	 -320.53	   12.84
     29.9766	   11.00	   13.26	 -320.51	   12.82
     30.0101	   12.00	   13.25	 -319.50	   12.81
     30.0435	   14.00	   13.23	 -317.48	   12.79
     30.0769	   14.00	   13.22	 -317.47	   12.78
     30.1103	   15.00	   13.20	 -316.45	   12.76
     30.1437	    7.00	   13.19	 -324.44	   12.75
     30.1772	   15.00	   13.17	 -316.42	   12.73
     30.2106	   21.00	   13.16	 -310.41	   12.72
     30.2440	   16.00	   13.14	 -315.39	   12.70
     30.2774	   24.00	   13.13	 -307.38	   12.69
     30.3109	   27.00	   13.11	 -304.36	   12.67
     30.3443	   24.00	   13.10	 -307.35	   12.66
     30.3777	   21.00	   13.08	 -310.33	   12.64
     30.4111	   16.00	   13.07	 -315.32	   12.63
     30.4445	   21.00	   13.05	 -310.30	   12.61
     30.4780	   14.00	   13.03	 -317.28	   12.60
     30.5114	   12.00	   13.02	 -319.27	   12.58
     30.5448	   19.00	   13.00	 -312.25	   12.57
     30.5782	   12.00	   12.99	 -319.24	   12.55
     30.6117	   21.00	   12.97	 -310.22	   12.54
     30.6451	   11.00	   13.20	 -320.45	   12.52
     30.6785	   14.00	   13.19	 -317.44	   12.51
     30.7119	    6.00	   13.18	 -325.43	   12.49
     30.7453	   13.00	   13.29	 -318.54	   12.48
     30.7788	   11.00	   13.28	 -320.53	   12.46
     30.8122	    9.00	   13.27	 -322.52	   12.45
     30.8456	   18.00	   13.27	 -313.52	   12.43
     30.8790	   17.00	   13.26	 -314.51	   12.42
     30.9125	   12.00	   13.26	 -319.51	   12.40
     30.9459	   18.00	   13.25	 -313.50	   12.39
     30.9793	   11.00	   13.25	 -320.50	   12.37
     31.0127	   22.00	   13.24	 -309.49	   12.36
     31.0462	   26.00	   13.24	 -305.49	   12.34
     31.0796	   16.00	   13.24	 -315.49	   12.33
     31.1130	    6.00	   13.24	 -325.49	   12.31
     31.1464	   19.00	   13.23	 -312.48	   12.30
     31.1798	   16.00	   13.23	 -315.48	   12.28
     31.2133	   11.00	   13.23	 -320.48	   12.27
     31.2467	   17.00	   13.23	 -314.48	   12.25
     31.2801	   15.00	   13.23	 -316.48	   12.24
     31.3135	   12.00	   13.23	 -319.48	   12.22
     31.3470	   11.00	   13.23	 -320.48	   12.21
     31.3804	   15.00	   13.24	 -316.49	   12.19
     31.4138	   17.00	   13.24	 -314.49	   12.18
     31.4472	    7.00	   13.24	 -324.49	   12.16
     31.4806	   13.00	   13.25	 -318.50	   12.15
     31.5141	   13.00	   13.26	 -318.51	   12.13
     31.5475	   22.00	   13.26	 -309.51	   12.12
     31.5809	   15.00	   13.27	 -316.52	   12.10
     31.6143	   11.00	   13.28	 -320.53	   12.09
     31.6478	   13.00	   13.29	 -318.54	   12.07
     31.6812	   11.00	   13.30	 -320.55	   12.06
     31.7146	   14.00	   13.32	 -317.57	   12.04
     31.7480	   13.00	   13.33	 -318.58	   12.03
     31.7814	   19.00	   13.35	 -312.60	   12.02
     31.8149	   15.00	   13.36	 -316.61	   12.00
     31.8483	   13.00	   13.38	 -318.63	   11.99
     31.8817	   13.00	   13.40	 -318.65	   11.97
     31.9151	   14.00	   13.43	 -317.68	   11.96
     31.9486	   21.00	   13.45	 -310.70	   11.94
     31.9820	   26.00	   13.48	 -305.73	   11.93
     32.0154	   16.00	   13.51	 -315.76	   11.91
     32.0488	   23.00	   13.55	 -308.80	   11.90
     32.0822	   29.00	   13.59	 -302.84	   11.88
     32.1157	   33.00	   13.63	 -298.88	   11.87
     32.1491	   52.00	   13.67	 -279.92	   11.85
     32.1825	   46.00	   13.72	 -285.97	   11.84
     32.2159	   53.00	   13.77	 -279.02	   11.83
     32.2494	   55.00	   13.83	 -277.08	   11.81
     32.2828	   46.00	   13.89	 -286.14	   11.80
     32.3162	   26.00	   13.96	 -306.21	   11.78
     32.3496	   21.00	   14.04	 -311.29	   11.77
     32.3830	   24.00	   14.12	 -308.37	   11.75
     32.4165	   26.00	   14.21	 -306.46	   11.74
     32.4499	   23.00	   14.31	 -309.56	   11.72
     32.4833	   24.00	   14.42	 -308.67	   11.71
     32.5167	   16.00	   14.54	 -316.79	   11.69
     32.5502	   19.00	   14.67	 -313.92	   11.68
     32.5836	   21.00	   14.81	 -312.06	   11.67
     32.6170	   37.00	   14.97	 -296.22	   11.65
     32.6504	   21.00	   15.15	 -312.40	   11.64
     32.6839	   17.00	   15.35	 -316.60	   11.62
     32.7173	   27.00	   15.58	 -306.83	   11.61
     32.7507	   29.00	   15.82	 -305.07	   11.59
     32.7841	   19.00	   16.10	 -315.35	   11.58
     32.8175	   22.00	   16.42	 -312.67	   11.56
     32.8510	   21.00	   16.78	 -314.03	   11.55
     32.8844	   24.00	   17.18	 -311.43	   11.54
     32.9178	   19.00	   17.64	 -316.89	   11.52
     32.9512	   17.00	   18.17	 -319.42	   11.51
     32.9847	   14.00	   18.79	 -323.04	   11.49
     33.0181	   17.00	   19.50	 -320.75	   11.48
     33.0515	   25.00	   20.34	 -313.59	   11.46
     33.0849	   25.00	   21.33	 -314.58	   11.45
     33.1183	   28.00	   22.50	 -312.75	   11.44
     33.1518	   24.00	   23.92	 -318.17	   11.42
     33.1852	   26.00	   25.65	 -317.90	   11.41
     33.2186	   32.00	   27.78	 -314.03	   11.39
     33.2520	   26.00	   30.68	 -322.93	   11.38
     33.2855	   33.00	   34.10	 -319.35	   11.36
     33.3189	   45.00	   38.54	 -311.79	   11.35
     33.3523	   54.00	   44.59	 -308.84	   11.34
     33.3857	   73.00	   52.81	 -298.06	   11.32
     33.4192	   79.00	   64.99	 -304.24	   11.31
     33.4526	   95.00	   86.08	 -309.33	   11.29
     33.4860	  146.00	  131.24	 -303.49	   11.28
     33.5194	  264.00	  235.91	 -290.16	   11.26
     33.5528	  428.00	  449.36	 -339.61	   11.25
     33.5863	  765.00	  784.10	 -337.35	   11.24
     33.6197	 1249.00	 1126.95	 -196.20	   11.22
     33.6531	 1273.00	 1232.95	 -278.20	   11.21
     33.6865	 1149.00	 1102.07	 -271.32	   11.19
     33.7200	  929.00	  889.38	 -278.63	   11.18
     33.7534	  631.00	  615.77	 -303.02	   11.17
     33.7868	  386.00	  367.75	 -300.00	   11.15
     33.8202	  218.00	  205.30	 -305.55	   11.14
     33.8536	  130.00	  119.57	 -307.82	   11.12
     33.8871	   80.00	   79.69	 -317.94	   11.11
     33.9205	   63.00	   60.51	 -315.76	   11.10
     33.9539	   47.00	   49.52	 -320.77	   11.08
     33.9873	   34.00	   42.13	 -326.38	   11.07
     34.0208	   27.00	   36.78	 -328.03	   11.05
     34.0542	   42.00	   32.74	 -308.99	   11.04
     34.0876	   29.00	   29.62	 -318.87	   11.03
     34.1210	   26.00	   27.16	 -319.41	   11.01
     34.1544	   32.00	   25.18	 -311.43	   11.00
     34.1879	   33.00	   23.58	 -308.83	   10.98
     34.2213	   17.00	   22.25	 -323.50	   10.97
     34.2547	   32.00	   21.15	 -307.40	   10.96
     34.2881	   21.00	   20.22	 -317.47	   10.94
     34.3216	   26.00	   19.44	 -311.69	   10.93
     34.3550	   17.00	   18.77	 -320.02	   10.91
     34.3884	   16.00	   18.19	 -320.44	   10.90
     34.4218	   17.00	   17.69	 -318.94	   10.89
     34.4552	   26.00	   17.25	 -309.50	   10.87
     34.4887	   26.00	   16.88	 -309.13	   10.86
     34.5221	   18.00	   16.55	 -316.80	   10.84
     34.5555	   17.00	   16.26	 -317.51	   10.83
     34.5889	   28.00	   16.00	 -306.25	   10.82
     34.6224	   52.00	   15.78	 -282.03	   10.80
     34.6558	   55.00	   15.59	 -278.84	   10.79
     34.6892	   57.00	   15.42	 -276.67	   10.78
     34.7226	   50.00	   15.27	 -283.52	   10.76
     34.7561	   47.00	   15.14	 -286.39	   10.75
     34.7895	   50.00	   15.04	 -283.29	   10.73
     34.8229	   19.00	   14.95	 -314.20	   10.72
     34.8563	   27.00	   14.87	 -306.12	   10.71
     34.8897	   22.00	   14.81	 -311.06	   10.69
     34.9232	   17.00	   14.77	 -316.02	   10.68
     34.9566	   18.00	   14.74	 -314.99	   10.67
     34.9900	   34.00	   14.73	 -298.98	   10.65
     35.0234	   26.00	   14.73	 -306.98	   10.64
     35.0569	   18.00	   14.74	 -314.99	   10.62
     35.0903	    8.00	   14.77	 -325.02	   10.61
     35.1237	   15.00	   14.82	 -318.07	   10.60
     35.1571	   14.00	   14.88	 -319.13	   10.58
     35.1905	   16.00	   14.96	 -317.21	   10.57
     35.2240	   19.00	   15.06	 -314.31	   10.56
     35.2574	   13.00	   15.18	 -320.43	   10.54
     35.2908	   13.00	   15.32	 -320.57	   10.53
     35.3242	   17.00	   15.49	 -316.74	   10.51
     35.3577	   21.00	   15.68	 -312.93	   10.50
     35.3911	   19.00	   15.91	 -315.16	   10.49
     35.4245	   18.00	   16.18	 -316.43	   10.47
     35.4579	   14.00	   16.48	 -320.73	   10.46
     35.4913	   15.00	   16.84	 -320.09	   10.45
     35.5248	   21.00	   17.26	 -314.51	   10.43
     35.5582	   16.00	   17.74	 -319.99	   10.42
     35.5916	   24.00	   18.31	 -312.56	   10.41
     35.6250	    9.00	   18.98	 -328.23	   10.39
     35.6585	   15.00	   19.77	 -323.02	   10.38
     35.6919	   35.00	   20.71	 -303.96	   10.37
     35.7253	   23.00	   21.84	 -317.09	   10.35
     35.7587	   19.00	   23.21	 -322.46	   10.34
     35.7921	   17.00	   24.89	 -326.14	   10.32
     35.8256	   17.00	   26.98	 -328.23	   10.31
     35.8590	   22.00	   29.61	 -325.86	   10.30
     35.8924	   28.00	   32.99	 -323.24	   10.28
     35.9258	   32.00	   37.41	 -323.66	   10.27
     35.9593	   54.00	   43.37	 -307.62	   10.26
     35.9927	   47.00	   51.72	 -322.97	   10.24
     36.0261	   65.00	   64.52	 -317.77	   10.23
     36.0595	  106.00	   87.97	 -300.22	   10.22
     36.0930	  121.00	  139.50	 -336.75	   10.20
     36.1264	  244.00	  254.47	 -328.72	   10.19
     36.1598	  413.00	  471.50	 -376.75	   10.18
     36.1932	  733.00	  779.45	 -364.70	   10.16
     36.2266	 1018.00	 1041.60	 -341.85	   10.15
     36.2601	  974.00	 1064.17	 -408.42	   10.14
     36.2935	  872.00	  929.68	 -375.93	   10.12
     36.3269	  756.00	  755.08	 -317.33	   10.11
     36.3603	  518.00	  530.78	 -331.03	   10.10
     36.3938	  327.00	  323.28	 -314.53	   10.08
     36.4272	  188.00	  184.06	 -314.31	   10.07
     36.4606	   85.00	  108.73	 -341.98	   10.06
     36.4940	   79.00	   72.86	 -312.11	   10.04
     36.5274	   58.00	   55.36	 -315.61	   10.03
     36.5609	   47.00	   45.30	 -316.55	   10.02
     36.5943	   28.00	   38.53	 -328.78	   10.00
     36.6277	   33.00	   33.37	 -318.62	    9.99
     36.6611	   19.00	   29.65	 -328.90	    9.98
     36.6946	   17.00	   26.77	 -328.02	    9.96
     36.7280	   23.00	   24.37	 -319.62	    9.95
     36.7614	   23.00	   22.53	 -317.78	    9.94
     36.7948	   25.00	   21.05	 -314.30	    9.92
     36.8282	   13.00	   19.80	 -325.05	    9.91
     36.8617	   19.00	   18.76	 -318.01	    9.90
     36.8951	   21.00	   17.89	 -315.14	    9.89
     36.9285	   14.00	   17.13	 -321.38	    9.87
     36.9619	   11.00	   16.48	 -323.73	    9.86
     36.9954	   16.00	   15.92	 -318.17	    9.85
     37.0288	   15.00	   15.43	 -318.68	    9.83
     37.0622	   14.00	   14.99	 -319.24	    9.82
     37.0956	   21.00	   14.61	 -311.86	    9.81
     37.1291	   14.00	   14.27	 -318.52	    9.79
     37.1625	   11.00	   13.96	 -321.21	    9.78
     37.1959	   14.00	   13.69	 -317.94	    9.77
     37.2293	   18.00	   13.44	 -313.69	    9.75
     37.2627	    9.00	   13.22	 -322.47	    9.74
     37.2962	   24.00	   13.01	 -307.26	    9.73
     37.3296	   14.00	   12.83	 -317.08	    9.72
     37.3630	   17.00	   12.66	 -313.91	    9.70
     37.3964	   11.00	   12.50	 -319.75	    9.69
     37.4299	   15.00	   12.36	 -315.61	    9.68
     37.4633	   14.00	   12.22	 -316.47	    9.66
     37.4967	    7.00	   12.10	 -323.35	    9.65
     37.5301	    6.00	   11.99	 -324.24	    9.64
     37.5635	   13.00	   11.88	 -317.13	    9.62
     37.5970	   16.00	   11.78	 -314.03	    9.61
     37.6304	    9.00	   11.69	 -320.94	    9.60
     37.6638	    9.00	   11.60	 -320.85	    9.59
     37.6972	   17.00	   11.52	 -312.77	    9.57
     37.7307	   12.00	   11.44	 -317.69	    9.56
     37.7641	    3.00	   11.37	 -326.62	    9.55
     37.7975	    8.00	   11.30	 -321.55	    9.53
     37.8309	    8.00	   11.23	 -321.48	    9.52
     37.8643	    9.00	   11.17	 -320.42	    9.51
     37.8978	   12.00	   11.12	 -317.37	    9.50
     37.9312	    8.00	   11.06	 -321.31	    9.48
     37.9646	    6.00	   11.01	 -323.26	    9.47
     37.9980	   17.00	   10.96	 -312.21	    9.46
     38.0315	   13.00	   10.91	 -316.16	    9.44
     38.0649	    9.00	   10.86	 -320.11	    9.43
     38.0983	   15.00	   10.82	 -314.07	    9.42
     38.1317	   11.00	   10.78	 -318.03	    9.41
     38.1651	    8.00	   10.74	 -320.99	    9.39
     38.1986	    9.00	   10.70	 -319.95	    9.38
     38.2320	    9.00	   10.67	 -319.92	    9.37
     38.2654	    9.00	   10.63	 -319.88	    9.35
     38.2988	    8.00	   10.60	 -320.85	    9.34
     38.3323	   12.00	   10.57	 -316.82	    9.33
     38.3657	    8.00	   10.54	 -320.79	    9.32
     38.3991	    6.00	   10.51	 -322.76	    9.30
     38.4325	    4.00	   10.48	 -324.73	    9.29
     38.4660	    9.00	   10.45	 -319.70	    9.28
     38.4994	   11.00	   10.51	 -317.76	    9.27
     38.5328	    7.00	   10.49	 -321.74	    9.25
     38.5662	    6.00	   10.47	 -322.72	    9.24
     38.5996	    8.00	   10.49	 -320.74	    9.23
     38.6331	    9.00	   10.47	 -319.72	    9.22
     38.6665	    9.00	   10.46	 -319.71	    9.20
     38.6999	    4.00	   10.44	 -324.69	    9.19
     38.7333	    5.00	   10.43	 -323.68	    9.18
     38.7668	    9.00	   10.42	 -319.67	    9.17
     38.8002	    5.00	   10.41	 -323.66	    9.15
     38.8336	    6.00	   10.41	 -322.66	    9.14
     38.8670	    8.00	   10.40	 -320.65	    9.13
     38.9004	    7.00	   10.40	 -321.65	    9.11
     38.9339	    6.00	   10.40	 -322.65	    9.10
     38.9673	   19.00	   10.40	 -309.65	    9.09
     39.0007	    9.00	   10.41	 -319.66	    9.08
     39.0341	   11.00	   10.42	 -317.67	    9.06
     39.0676	    8.00	   10.44	 -320.69	    9.05
     39.1010	   13.00	   10.46	 -315.71	    9.04
     39.1344	    6.00	   10.48	 -322.73	    9.03
     39.1678	    7.00	   10.52	 -321.77	    9.01
     39.2012	   12.00	   10.56	 -316.81	    9.00
     39.2347	    8.00	   10.61	 -320.86	    8.99
     39.2681	   16.00	   10.46	 -312.71	    8.98
     39.3015	   14.00	   10.55	 -314.80	    8.96
     39.3349	    8.00	   10.55	 -320.80	    8.95
     39.3684	    5.00	   10.69	 -323.94	    8.94
     39.4018	    6.00	   10.87	 -323.12	    8.93
     39.4352	   13.00	   11.09	 -316.34	    8.92
     39.4686	    9.00	   11.38	 -320.63	    8.90
     39.5021	   14.00	   11.78	 -316.03	    8.89
     39.5355	   14.00	   12.33	 -316.58	    8.88
     39.5689	   21.00	   13.15	 -310.40	    8.87
     39.6023	   27.00	   14.60	 -305.85	    8.85
     39.6357	   28.00	   17.67	 -307.92	    8.84
     39.6692	   37.00	   24.41	 -305.66	    8.83
     39.7026	   42.00	   37.28	 -313.53	    8.82
     39.7360	   79.00	   56.39	 -295.64	    8.80
     39.7694	   86.00	   74.78	 -307.03	    8.79
     39.8029	   94.00	   79.18	 -303.43	    8.78
     39.8363	   73.00	   71.30	 -316.55	    8.77
     39.8697	   88.00	   61.96	 -292.21	    8.76
     39.9031	   56.00	   50.41	 -312.66	    8.74
     39.9365	   34.00	   36.66	 -320.91	    8.73
     39.9700	   29.00	   25.53	 -314.78	    8.72
     40.0034	   27.00	   18.60	 -309.85	    8.71
     40.0368	   14.00	   15.00	 -319.25	    8.69
     40.0702	   17.00	   13.28	 -314.53	    8.68
     40.1037	    8.00	   12.37	 -322.62	    8.67
     40.1371	   11.00	   11.82	 -319.07	    8.66
     40.1705	    8.00	   11.44	 -321.69	    8.65
     40.2039	   13.00	   11.16	 -316.41	    8.63
     40.2373	    9.00	   10.95	 -320.20	    8.62
     40.2708	   13.00	   10.79	 -316.04	    8.61
     40.3042	   11.00	   10.67	 -317.92	    8.60
     40.3376	    3.00	   10.59	 -325.84	    8.58
     40.3710	   11.00	   10.52	 -317.77	    8.57
     40.4045	   12.00	   10.48	 -316.73	    8.56
     40.4379	   16.00	   10.45	 -312.70	    8.55
     40.4713	    7.00	   10.44	 -321.69	    8.54
     40.5047	    7.00	   10.44	 -321.69	    8.52
     40.5382	   15.00	   10.46	 -313.71	    8.51
     40.5716	    6.00	   10.48	 -322.73	    8.50
     40.6050	    7.00	   10.52	 -321.77	    8.49
     40.6384	    8.00	   10.58	 -320.83	    8.48
     40.6718	   12.00	   10.64	 -316.89	    8.46
     40.7053	    8.00	   10.73	 -320.98	    8.45
     40.7387	    1.00	   10.83	 -328.08	    8.44
     40.7721	    8.00	   10.95	 -321.20	    8.43
     40.8055	    9.00	   11.09	 -320.34	    8.42
     40.8390	    7.00	   11.26	 -322.51	    8.40
     40.8724	    6.00	   11.45	 -323.70	    8.39
     40.9058	   12.00	   11.69	 -317.94	    8.38
     40.9392	    5.00	   11.97	 -325.22	    8.37
     40.9726	   14.00	   12.31	 -316.56	    8.36
     41.0061	    6.00	   12.71	 -324.96	    8.34
     41.0395	    7.00	   13.20	 -324.45	    8.33
     41.0729	    9.00	   13.81	 -323.06	    8.32
     41.1063	   14.00	   14.56	 -318.81	    8.31
     41.1398	   15.00	   15.51	 -318.76	    8.30
     41.1732	   14.00	   16.73	 -320.98	    8.29
     41.2066	   12.00	   18.34	 -324.59	    8.27
     41.2400	   13.00	   20.49	 -325.74	    8.26
     41.2734	   28.00	   23.51	 -313.76	    8.25
     41.3069	   28.00	   28.20	 -318.45	    8.24
     41.3403	   40.00	   36.82	 -315.07	    8.23
     41.3737	   64.00	   55.31	 -309.56	    8.21
     41.4071	   87.00	   94.60	 -325.85	    8.20
     41.4406	  152.00	  165.31	 -331.56	    8.19
     41.4740	  284.00	  261.92	 -296.17	    8.18
     41.5074	  380.00	  340.67	 -278.92	    8.17
     41.5408	  331.00	  343.01	 -330.26	    8.16
     41.5742	  294.00	  299.55	 -323.80	    8.14
     41.6077	  249.00	  256.65	 -325.90	    8.13
     41.6411	  207.00	  202.52	 -313.77	    8.12
     41.6745	  125.00	  137.62	 -330.87	    8.11
     41.7079	   77.00	   85.07	 -326.32	    8.10
     41.7414	   54.00	   52.24	 -316.49	    8.09
     41.7748	   29.00	   35.06	 -324.31	    8.07
     41.8082	   32.00	   26.65	 -312.90	    8.06
     41.8416	   16.00	   22.18	 -324.43	    8.05
     41.8751	   21.00	   19.37	 -316.62	    8.04
     41.9085	    9.00	   17.39	 -326.64	    8.03
     41.9419	   21.00	   15.91	 -313.16	    8.02
     41.9753	   12.00	   14.77	 -321.02	    8.00
     42.0087	   12.00	   13.87	 -320.12	    7.99
     42.0422	   18.00	   13.15	 -313.40	    7.98
     42.0756	   14.00	   12.56	 -316.81	    7.97
     42.1090	    8.00	   12.07	 -322.32	    7.96
     42.1424	   14.00	   11.66	 -315.91	    7.95
     42.1759	    9.00	   11.32	 -320.57	    7.93
     42.2093	    9.00	   11.02	 -320.27	    7.92
     42.2427	   13.00	   10.77	 -316.02	    7.91
     42.2761	   15.00	   10.55	 -313.80	    7.90
     42.3095	    7.00	   10.35	 -321.60	    7.89
     42.3430	    3.00	   10.18	 -325.43	    7.88
     42.3764	   12.00	   10.03	 -316.28	    7.86
     42.4098	   13.00	    9.90	 -315.15	    7.85
     42.4432	    9.00	    9.77	 -319.02	    7.84
     42.4767	    4.00	    9.66	 -323.91	    7.83
     42.5101	    9.00	    9.57	 -318.82	    7.82
     42.5435	    9.00	    9.48	 -318.73	    7.81
     42.5769	    9.00	    9.39	 -318.64	    7.80
     42.6103	    6.00	    9.32	 -321.57	    7.78
     42.6438	    4.00	    9.25	 -323.50	    7.77
     42.6772	    5.00	    9.19	 -322.44	    7.76
     42.7106	    5.00	    9.13	 -322.38	    7.75
     42.7440	    7.00	    9.08	 -320.33	    7.74
     42.7775	    5.00	    9.03	 -322.28	    7.73
     42.8109	   13.00	    8.97	 -314.22	    7.72
     42.8443	    6.00	    8.92	 -321.17	    7.70
     42.8777	    7.00	    8.88	 -320.13	    7.69
     42.9111	    6.00	    8.84	 -321.09	    7.68
     42.9446	    7.00	    8.81	 -320.06	    7.67
     42.9780	    6.00	    8.77	 -321.02	    7.66
     43.0114	    2.00	    8.74	 -324.99	    7.65
     43.0448	    3.00	    8.72	 -323.97	    7.64
     43.0783	   11.00	    8.69	 -315.94	    7.63
     43.1117	    3.00	    8.67	 -323.92	    7.61
     43.1451	    5.00	    8.65	 -321.90	    7.60
     43.1785	    6.00	    8.63	 -320.88	    7.59
     43.2120	    5.00	    8.62	 -321.87	    7.58
     43.2454	    8.00	    8.60	 -318.85	    7.57
     43.2788	    9.00	    8.59	 -317.84	    7.56
     43.3122	    8.00	    8.58	 -318.83	    7.55
     43.3456	    7.00	    8.57	 -319.82	    7.54
     43.3791	    7.00	    8.57	 -319.82	    7.52
     43.4125	    8.00	    8.57	 -318.82	    7.51
     43.4459	    5.00	    8.57	 -321.82	    7.50
     43.4793	    6.00	    8.58	 -320.83	    7.49
     43.5128	    7.00	    8.59	 -319.84	    7.48
     43.5462	    5.00	    8.60	 -321.85	    7.47
     43.5796	    5.00	    8.62	 -321.87	    7.46
     43.6130	    7.00	    8.65	 -319.90	    7.45
     43.6464	    5.00	    8.69	 -321.94	    7.44
     43.6799	    9.00	    8.73	 -317.98	    7.42
     43.7133	    5.00	    8.79	 -322.04	    7.41
     43.7467	   12.00	    8.87	 -315.12	    7.40
     43.7801	    3.00	    8.96	 -324.21	    7.39
     43.8136	    8.00	    9.09	 -319.34	    7.38
     43.8470	    9.00	    9.24	 -318.49	    7.37
     43.8804	    7.00	    9.45	 -320.70	    7.36
     43.9138	   11.00	    9.72	 -316.97	    7.35
     43.9473	   13.00	   10.08	 -315.33	    7.34
     43.9807	   13.00	   10.59	 -315.84	    7.32
     44.0141	   15.00	   11.37	 -314.62	    7.31
     44.0475	   11.00	   12.74	 -319.99	    7.30
     44.0809	   19.00	   15.57	 -314.82	    7.29
     44.1144	   16.00	   21.59	 -323.84	    7.28
     44.1478	   22.00	   32.81	 -329.06	    7.27
     44.1812	   49.00	   49.25	 -318.50	    7.26
     44.2146	   60.00	   65.23	 -323.48	    7.25
     44.2481	   67.00	   69.33	 -320.58	    7.24
     44.2815	   42.00	   62.18	 -338.43	    7.23
     44.3149	   55.00	   54.60	 -317.85	    7.22
     44.3483	   48.00	   47.41	 -317.66	    7.20
     44.3817	   43.00	   36.98	 -312.23	    7.19
     44.4152	   22.00	   26.34	 -322.59	    7.18
     44.4486	   19.00	   18.63	 -317.88	    7.17
     44.4820	   12.00	   14.13	 -320.38	    7.16
     44.5154	    9.00	   11.83	 -321.08	    7.15
     44.5489	   15.00	   10.58	 -313.83	    7.14
     44.5823	   11.00	    9.91	 -317.16	    7.13
     44.6157	    9.00	    9.45	 -318.70	    7.12
     44.6491	    8.00	    9.12	 -319.37	    7.11
     44.6825	   11.00	    8.83	 -316.08	    7.10
     44.7160	    2.00	    8.63	 -324.88	    7.09
     44.7494	   14.00	    8.47	 -312.72	    7.07
     44.7828	    3.00	    8.33	 -323.58	    7.06
     44.8162	   14.00	    8.22	 -312.47	    7.05
     44.8497	    5.00	    8.13	 -321.38	    7.04
     44.8831	    8.00	    8.05	 -318.30	    7.03
     44.9165	    8.00	    7.98	 -318.23	    7.02
     44.9499	    8.00	    7.92	 -318.17	    7.01
     44.9833	    3.00	    7.86	 -323.11	    7.00
     45.0168	    9.00	    7.82	 -317.07	    6.99
     45.0502	    6.00	    7.77	 -320.02	    6.98
     45.0836	    8.00	    7.73	 -317.98	    6.97
     45.1170	   12.00	    7.70	 -313.95	    6.96
     45.1505	   12.00	    7.66	 -313.91	    6.95
     45.1839	   14.00	    7.63	 -311.88	    6.93
     45.2173	   13.00	    7.60	 -312.85	    6.92
     45.2507	    7.00	    7.58	 -318.83	    6.91
     45.2841	    4.00	    7.55	 -321.80	    6.90
     45.3176	    6.00	    7.53	 -319.78	    6.89
     45.3510	    2.00	    7.51	 -323.76	    6.88
     45.3844	    7.00	    7.48	 -318.73	    6.87
     45.4178	    7.00	    7.46	 -318.71	    6.86
     45.4513	    8.00	    7.44	 -317.69	    6.85
     45.4847	    1.00	    7.43	 -324.68	    6.84
     45.5181	    3.00	    7.41	 -322.66	    6.83
     45.5515	    6.00	    7.39	 -319.64	    6.82
     45.5850	    6.00	    7.37	 -319.62	    6.81
     45.6184	    2.00	    7.36	 -323.61	    6.80
     45.6518	    4.00	    7.34	 -321.59	    6.79
     45.6852	    6.00	    7.32	 -319.57	    6.78
     45.7186	    5.00	    7.31	 -320.56	    6.77
     45.7521	    2.00	    7.29	 -323.54	    6.76
     45.7855	    5.00	    7.28	 -320.53	    6.75
     45.8189	    5.00	    7.26	 -320.51	    6.73
     45.8523	    7.00	    7.25	 -318.50	    6.72
     45.8858	    8.00	    7.24	 -317.49	    6.71
     45.9192	   11.00	    7.22	 -314.47	    6.70
     45.9526	    4.00	    7.21	 -321.46	    6.69
     45.9860	    8.00	    7.19	 -317.44	    6.68
     46.0194	    3.00	    7.18	 -322.43	    6.67
     46.0529	    6.00	    7.17	 -319.42	    6.66
     46.0863	    5.00	    7.16	 -320.41	    6.65
     46.1197	    6.00	    7.14	 -319.39	    6.64
     46.1531	    4.00	    7.13	 -321.38	    6.63
     46.1866	    3.00	    7.12	 -322.37	    6.62
     46.2200	    6.00	    7.11	 -319.36	    6.61
     46.2534	    4.00	    7.09	 -321.34	    6.60
     46.2868	    4.00	    7.08	 -321.33	    6.59
     46.3203	    4.00	    7.07	 -321.32	    6.58
     46.3537	    6.00	    7.06	 -319.31	    6.57
     46.3871	    3.00	    7.05	 -322.30	    6.56
     46.4205	    7.00	    7.03	 -318.28	    6.55
     46.4539	    4.00	    7.02	 -321.27	    6.54
     46.4874	    9.00	    7.01	 -316.26	    6.53
     46.5208	    9.00	    7.00	 -316.25	    6.52
     46.5542	    1.00	    6.99	 -324.24	    6.51
     46.5876	    6.00	    6.98	 -319.23	    6.50
     46.6211	    3.00	    6.96	 -322.21	    6.49
     46.6545	    8.00	    6.95	 -317.20	    6.48
     46.6879	   11.00	    6.94	 -314.19	    6.47
     46.7213	    4.00	    6.93	 -321.18	    6.46
     46.7547	    6.00	    6.92	 -319.17	    6.45
     46.7882	    0.00	    6.91	 -325.16	    6.44
     46.8216	    5.00	    6.90	 -320.15	    6.43
     46.8550	    3.00	    6.89	 -322.14	    6.42
     46.8884	    3.00	    6.88	 -322.13	    6.41
     46.9219	    2.00	    6.86	 -323.11	    6.40
     46.9553	    6.00	    6.85	 -319.10	    6.38
     46.9887	    6.00	    6.84	 -319.09	    6.37
     47.0221	    4.00	    6.83	 -321.08	    6.36
     47.0555	    7.00	    6.82	 -318.07	    6.35
     47.0890	    6.00	    6.81	 -319.06	    6.34
     47.1224	    4.00	    6.80	 -321.05	    6.33
     47.1558	    5.00	    6.79	 -320.04	    6.32
     47.1892	    3.00	    6.89	 -322.14	    6.31
     47.2227	   15.00	    6.88	 -310.13	    6.30
     47.2561	    6.00	    6.87	 -319.12	    6.29
     47.2895	   11.00	    6.85	 -314.10	    6.28
     47.3229	    2.00	    6.90	 -323.15	    6.27
     47.3563	    8.00	    6.89	 -317.14	    6.26
     47.3898	    8.00	    6.88	 -317.13	    6.25
     47.4232	    5.00	    6.87	 -320.12	    6.24
     47.4566	    3.00	    6.86	 -322.11	    6.23
     47.4900	    8.00	    6.86	 -317.11	    6.22
     47.5235	    5.00	    6.85	 -320.10	    6.21
     47.5569	    5.00	    6.85	 -320.10	    6.20
     47.5903	    8.00	    6.84	 -317.09	    6.19
     47.6237	    4.00	    6.84	 -321.09	    6.18
     47.6572	    8.00	    6.84	 -317.09	    6.17
     47.6906	    6.00	    6.83	 -319.08	    6.16
     47.7240	    6.00	    6.83	 -319.08	    6.16
     47.7574	    6.00	    6.82	 -319.07	    6.15
     47.7908	   11.00	    6.82	 -314.07	    6.14
     47.8243	    6.00	    6.82	 -319.07	    6.13
     47.8577	   11.00	    6.81	 -314.06	    6.12
     47.8911	   12.00	    6.81	 -313.06	    6.11
     47.9245	   13.00	    6.81	 -312.06	    6.10
     47.9580	   15.00	    6.81	 -310.06	    6.09
     47.9914	   19.00	    6.81	 -306.06	    6.08
     48.0248	   21.00	    6.80	 -304.05	    6.07
     48.0582	   27.00	    6.80	 -298.05	    6.06
     48.0916	   12.00	    6.80	 -313.05	    6.05
     48.1251	   13.00	    6.80	 -312.05	    6.04
     48.1585	   12.00	    6.80	 -313.05	    6.03
     48.1919	    5.00	    6.81	 -320.06	    6.02
     48.2253	    6.00	    6.81	 -319.06	    6.01
     48.2588	    5.00	    6.81	 -320.06	    6.00
     48.2922	   12.00	    6.81	 -313.06	    5.99
     48.3256	    6.00	    6.82	 -319.07	    5.98
     48.3590	    5.00	    6.82	 -320.07	    5.97
     48.3924	    7.00	    6.82	 -318.07	    5.96
     48.4259	    9.00	    6.83	 -316.08	    5.95
     48.4593	    3.00	    6.84	 -322.09	    5.94
     48.4927	   11.00	    6.84	 -314.09	    5.93
     48.5261	    6.00	    6.85	 -319.10	    5.92
     48.5596	    9.00	    6.86	 -316.11	    5.91
     48.5930	    5.00	    6.87	 -320.12	    5.90
     48.6264	    6.00	    6.89	 -319.14	    5.89
     48.6598	    7.00	    6.90	 -318.15	    5.88
     48.6932	    7.00	    6.91	 -318.16	    5.87
     48.7267	    9.00	    6.93	 -316.18	    5.86
     48.7601	    8.00	    6.95	 -317.20	    5.85
     48.7935	   11.00	    6.97	 -314.22	    5.84
     48.8269	    6.00	    6.99	 -319.24	    5.83
     48.8604	    7.00	    7.02	 -318.27	    5.82
     48.8938	    9.00	    7.04	 -316.29	    5.82
     48.9272	    5.00	    7.07	 -320.32	    5.81
     48.9606	    8.00	    7.10	 -317.35	    5.80
     48.9940	    4.00	    7.14	 -321.39	    5.79
     49.0275	    4.00	    7.18	 -321.43	    5.78
     49.0609	    4.00	    7.22	 -321.47	    5.77
     49.0943	    7.00	    7.27	 -318.52	    5.76
     49.1277	   17.00	    7.32	 -308.57	    5.75
     49.1612	   15.00	    7.38	 -310.63	    5.74
     49.1946	   13.00	    7.45	 -312.70	    5.73
     49.2280	   18.00	    7.52	 -307.77	    5.72
     49.2614	   16.00	    7.60	 -309.85	    5.71
     49.2949	   13.00	    7.69	 -312.94	    5.70
     49.3283	   12.00	    7.79	 -314.04	    5.69
     49.3617	    6.00	    7.91	 -320.16	    5.68
     49.3951	    4.00	    8.03	 -322.28	    5.67
     49.4285	    6.00	    8.17	 -320.42	    5.66
     49.4620	    6.00	    8.34	 -320.59	    5.65
     49.4954	    7.00	    8.52	 -319.77	    5.65
     49.5288	   14.00	    8.73	 -312.98	    5.64
     49.5622	    9.00	    8.97	 -318.22	    5.63
     49.5957	    5.00	    9.25	 -322.50	    5.62
     49.6291	    5.00	    9.57	 -322.82	    5.61
     49.6625	    6.00	    9.95	 -322.20	    5.60
     49.6959	    7.00	   10.39	 -321.64	    5.59
     49.7293	   13.00	   10.92	 -316.17	    5.58
     49.7628	   17.00	   11.56	 -312.81	    5.57
     49.7962	   16.00	   12.33	 -314.58	    5.56
     49.8296	   13.00	   13.28	 -318.53	    5.55
     49.8630	   17.00	   14.47	 -315.72	    5.54
     49.8965	   12.00	   15.97	 -322.22	    5.53
     49.9299	   16.00	   17.92	 -320.17	    5.52
     49.9633	   22.00	   20.51	 -316.76	    5.52
     49.9967	   32.00	   24.10	 -310.35	    5.51
     50.0302	   24.00	   29.51	 -323.76	    5.50
     50.0636	   40.00	   38.94	 -317.19	    5.49
     50.0970	   48.00	   57.80	 -328.05	    5.48
     50.1304	   78.00	   95.99	 -336.24	    5.47
     50.1638	  134.00	  164.16	 -348.41	    5.46
     50.1973	  253.00	  261.66	 -326.91	    5.45
     50.2307	  341.00	  356.07	 -333.32	    5.44
     50.2641	  413.00	  381.06	 -286.31	    5.43
     50.2975	  342.00	  334.71	 -310.96	    5.42
     50.3310	  284.00	  286.39	 -320.64	    5.42
     50.3644	  263.00	  258.13	 -313.38	    5.41
     50.3978	  231.00	  219.13	 -306.38	    5.40
     50.4312	  145.00	  159.03	 -332.28	    5.39
     50.4646	  100.00	  102.91	 -321.16	    5.38
     50.4981	   81.00	   64.03	 -301.28	    5.37
     50.5315	   67.00	   41.67	 -292.92	    5.36
     50.5649	   39.00	   30.04	 -309.29	    5.35
     50.5983	   19.00	   23.82	 -323.07	    5.34
     50.6318	   24.00	   20.05	 -314.30	    5.33
     50.6652	   21.00	   17.44	 -314.69	    5.32
     50.6986	   23.00	   15.51	 -310.76	    5.32
     50.7320	    8.00	   14.02	 -324.27	    5.31
     50.7654	   12.00	   12.85	 -319.10	    5.30
     50.7989	    7.00	   11.91	 -323.16	    5.29
     50.8323	   14.00	   11.14	 -315.39	    5.28
     50.8657	    7.00	   10.50	 -321.75	    5.27
     50.8991	    9.00	    9.97	 -319.22	    5.26
     50.9326	    9.00	    9.52	 -318.77	    5.25
     50.9660	   11.00	    9.13	 -316.38	    5.24
     50.9994	    4.00	    8.80	 -323.05	    5.24
     51.0328	    4.00	    8.51	 -322.76	    5.23
     51.0662	   12.00	    8.26	 -314.51	    5.22
     51.0997	    8.00	    8.04	 -318.29	    5.21
     51.1331	    5.00	    7.84	 -321.09	    5.20
     51.1665	    5.00	    7.67	 -320.92	    5.19
     51.1999	   15.00	    7.51	 -310.76	    5.18
     51.2334	    1.00	    7.37	 -324.62	    5.17
     51.2668	    7.00	    7.24	 -318.49	    5.16
     51.3002	    9.00	    7.12	 -316.37	    5.16
     51.3336	   11.00	    7.02	 -314.27	    5.15
     51.3671	   14.00	    6.92	 -311.17	    5.14
     51.4005	    4.00	    6.83	 -321.08	    5.13
     51.4339	   11.00	    6.75	 -314.00	    5.12
     51.4673	    3.00	    6.67	 -321.92	    5.11
     51.5007	   11.00	    6.60	 -313.85	    5.10
     51.5342	    8.00	    6.54	 -316.79	    5.09
     51.5676	    9.00	    6.48	 -315.73	    5.09
     51.6010	    6.00	    6.42	 -318.67	    5.08
     51.6344	    8.00	    6.37	 -316.62	    5.07
     51.6679	    9.00	    6.32	 -315.57	    5.06
     51.7013	    6.00	    6.27	 -318.52	    5.05
     51.7347	    5.00	    6.22	 -319.47	    5.04
     51.7681	    6.00	    6.45	 -318.70	    5.03
     51.8015	    7.00	    6.42	 -317.67	    5.02
     51.8350	    1.00	    6.39	 -323.64	    5.02
     51.8684	    5.00	    6.36	 -319.61	    5.01
     51.9018	    5.00	    6.33	 -319.58	    5.00
     51.9352	    8.00	    6.44	 -316.69	    4.99
     51.9687	    9.00	    6.42	 -315.67	    4.98
     52.0021	    9.00	    6.40	 -315.65	    4.97
     52.0355	    6.00	    6.38	 -318.63	    4.96
     52.0689	    9.00	    6.36	 -315.61	    4.96
     52.1023	   11.00	    6.35	 -313.60	    4.95
     52.1358	    5.00	    6.33	 -319.58	    4.94
     52.1692	    9.00	    6.32	 -315.57	    4.93
     52.2026	   13.00	    6.31	 -311.56	    4.92
     52.2360	   14.00	    6.30	 -310.55	    4.91
     52.2695	   12.00	    6.29	 -312.54	    4.90
     52.3029	   21.00	    6.28	 -303.53	    4.90
     52.3363	   28.00	    6.28	 -296.53	    4.89
     52.3697	   47.00	    6.27	 -277.52	    4.88
     52.4032	   52.00	    6.27	 -272.52	    4.87
     52.4366	   56.00	    6.27	 -268.52	    4.86
     52.4700	   24.00	    6.27	 -300.52	    4.85
     52.5034	   28.00	    6.26	 -296.51	    4.85
     52.5368	   18.00	    6.27	 -306.52	    4.84
     52.5703	   12.00	    6.27	 -312.52	    4.83
     52.6037	   11.00	    6.27	 -313.52	    4.82
     52.6371	    9.00	    6.28	 -315.53	    4.81
     52.6705	    8.00	    6.28	 -316.53	    4.80
     52.7040	   13.00	    6.29	 -311.54	    4.79
     52.7374	    9.00	    6.30	 -315.55	    4.79
     52.7708	   14.00	    6.31	 -310.56	    4.78
     52.8042	   22.00	    6.32	 -302.57	    4.77
     52.8376	   21.00	    6.33	 -303.58	    4.76
     52.8711	   13.00	    6.35	 -311.60	    4.75
     52.9045	   14.00	    6.37	 -310.62	    4.74
     52.9379	    8.00	    6.38	 -316.63	    4.74
     52.9713	    9.00	    6.40	 -315.65	    4.73
     53.0048	    8.00	    6.43	 -316.68	    4.72
     53.0382	   11.00	    6.45	 -313.70	    4.71
     53.0716	   12.00	    6.48	 -312.73	    4.70
     53.1050	   11.00	    6.51	 -313.76	    4.70
     53.1384	   12.00	    6.54	 -312.79	    4.69
     53.1719	    5.00	    6.57	 -319.82	    4.68
     53.2053	   11.00	    6.61	 -313.86	    4.67
     53.2387	    8.00	    6.65	 -316.90	    4.66
     53.2721	    6.00	    6.70	 -318.95	    4.65
     53.3056	    9.00	    6.74	 -315.99	    4.65
     53.3390	    9.00	    6.69	 -315.94	    4.64
     53.3724	   12.00	    6.75	 -313.00	    4.63
     53.4058	   12.00	    6.81	 -313.06	    4.62
     53.4393	    9.00	    6.88	 -316.13	    4.61
     53.4727	    7.00	    6.90	 -318.15	    4.60
     53.5061	    7.00	    6.98	 -318.23	    4.60
     53.5395	    7.00	    7.07	 -318.32	    4.59
     53.5729	    8.00	    7.16	 -317.41	    4.58
     53.6064	   13.00	    7.26	 -312.51	    4.57
     53.6398	    6.00	    7.37	 -319.62	    4.56
     53.6732	   11.00	    7.49	 -314.74	    4.56
     53.7066	    7.00	    7.63	 -318.88	    4.55
     53.7401	    7.00	    7.77	 -319.02	    4.54
     53.7735	   13.00	    7.93	 -313.18	    4.53
     53.8069	   11.00	    8.10	 -315.35	    4.52
     53.8403	    6.00	    8.29	 -320.54	    4.52
     53.8737	    4.00	    8.50	 -322.75	    4.51
     53.9072	    6.00	    8.73	 -320.98	    4.50
     53.9406	   12.00	    8.98	 -315.23	    4.49
     53.9740	    8.00	    9.27	 -319.52	    4.48
     54.0074	   12.00	    9.59	 -315.84	    4.48
     54.0409	    9.00	    9.94	 -319.19	    4.47
     54.0743	   15.00	   10.34	 -313.59	    4.46
     54.1077	   12.00	   10.79	 -317.04	    4.45
     54.1411	    8.00	   11.30	 -321.55	    4.44
     54.1745	   15.00	   11.88	 -315.13	    4.44
     54.2080	   17.00	   12.55	 -313.80	    4.43
     54.2414	    5.00	   13.33	 -326.58	    4.42
     54.2748	   12.00	   14.22	 -320.47	    4.41
     54.3082	   12.00	   15.27	 -321.52	    4.40
     54.3417	   18.00	   16.51	 -316.76	    4.40
     54.3751	   17.00	   18.00	 -319.25	    4.39
     54.4085	   13.00	   19.78	 -325.03	    4.38
     54.4419	   15.00	   21.96	 -325.21	    4.37
     54.4753	   22.00	   24.66	 -320.91	    4.37
     54.5088	   23.00	   28.05	 -323.30	    4.36
     54.5422	   44.00	   32.39	 -306.64	    4.35
     54.5756	   42.00	   38.09	 -314.34	    4.34
     54.6090	   56.00	   45.84	 -308.09	    4.33
     54.6425	   66.00	   57.10	 -309.35	    4.33
     54.6759	  100.00	   75.65	 -293.90	    4.32
     54.7093	  128.00	  110.67	 -300.92	    4.31
     54.7427	  174.00	  180.19	 -324.44	    4.30
     54.7761	  277.00	  307.48	 -348.73	    4.29
     54.8096	  479.00	  502.50	 -341.75	    4.29
     54.8430	  749.00	  726.77	 -296.02	    4.28
     54.8764	  950.00	  854.73	 -222.98	    4.27
     54.9098	  826.00	  793.40	 -285.65	    4.26
     54.9433	  603.00	  662.41	 -377.66	    4.26
     54.9767	  624.00	  582.37	 -276.62	    4.25
     55.0101	  565.00	  543.36	 -296.61	    4.24
     55.0435	  483.00	  462.59	 -297.84	    4.23
     55.0770	  378.00	  334.45	 -274.70	    4.23
     55.1104	  231.00	  216.48	 -303.73	    4.22
     55.1438	  153.00	  134.48	 -299.73	    4.21
     55.1772	   85.00	   86.58	 -319.83	    4.20
     55.2106	   66.00	   61.01	 -313.26	    4.20
     55.2441	   45.00	   47.00	 -320.25	    4.19
     55.2775	   46.00	   38.35	 -310.60	    4.18
     55.3109	   22.00	   32.37	 -328.62	    4.17
     55.3443	   34.00	   27.89	 -312.14	    4.16
     55.3778	   21.00	   24.43	 -321.68	    4.16
     55.4112	   18.00	   21.70	 -321.95	    4.15
     55.4446	   16.00	   19.50	 -321.75	    4.14
     55.4780	   15.00	   17.71	 -320.96	    4.13
     55.5114	   15.00	   16.21	 -319.46	    4.13
     55.5449	   15.00	   14.96	 -318.21	    4.12
     55.5783	   18.00	   13.90	 -314.15	    4.11
     55.6117	   19.00	   13.00	 -312.25	    4.10
     55.6451	   15.00	   12.22	 -315.47	    4.10
     55.6786	    9.00	   11.54	 -320.79	    4.09
     55.7120	   19.00	   10.95	 -310.20	    4.08
     55.7454	   15.00	   10.43	 -313.68	    4.07
     55.7788	   12.00	    9.97	 -316.22	    4.07
     55.8122	   15.00	    9.56	 -312.81	    4.06
     55.8457	    9.00	    9.19	 -318.44	    4.05
     55.8791	    6.00	    8.87	 -321.12	    4.04
     55.9125	    6.00	    8.57	 -320.82	    4.04
     55.9459	    6.00	    8.31	 -320.56	    4.03
     55.9794	   12.00	    8.06	 -314.31	    4.02
     56.0128	    9.00	    7.84	 -317.09	    4.02
     56.0462	    4.00	    7.64	 -321.89	    4.01
     56.0796	    6.00	    7.46	 -319.71	    4.00
     56.1131	    8.00	    7.29	 -317.54	    3.99
     56.1465	   11.00	    7.14	 -314.39	    3.99
     56.1799	    3.00	    7.00	 -322.25	    3.98
     56.2133	    6.00	    6.87	 -319.12	    3.97
     56.2467	    8.00	    6.75	 -317.00	    3.96
     56.2802	    7.00	    6.63	 -317.88	    3.96
     56.3136	    7.00	    6.53	 -317.78	    3.95
     56.3470	    5.00	    6.44	 -319.69	    3.94
     56.3804	    3.00	    6.35	 -321.60	    3.93
     56.4139	    9.00	    6.26	 -315.51	    3.93
     56.4473	    7.00	    6.19	 -317.44	    3.92
     56.4807	    7.00	    6.12	 -317.37	    3.91
     56.5141	    6.00	    6.05	 -318.30	    3.91
     56.5475	    8.00	    5.99	 -316.24	    3.90
     56.5810	    9.00	    5.94	 -315.19	    3.89
     56.6144	    6.00	    5.89	 -318.14	    3.88
     56.6478	   11.00	    5.85	 -313.10	    3.88
     56.6812	    5.00	    5.81	 -319.06	    3.87
     56.7147	    5.00	    5.78	 -319.03	    3.86
     56.7481	    7.00	    5.76	 -317.01	    3.86
     56.7815	   14.00	    5.75	 -310.00	    3.85
     56.8149	    7.00	    5.74	 -316.99	    3.84
     56.8483	    7.00	    5.76	 -317.01	    3.83
     56.8818	    5.00	    5.80	 -319.05	    3.83
     56.9152	   11.00	    5.88	 -313.13	    3.82
     56.9486	    4.00	    6.05	 -320.30	    3.81
     56.9820	   12.00	    6.41	 -312.66	    3.81
     57.0155	    7.00	    7.14	 -318.39	    3.80
     57.0489	    8.00	    8.37	 -318.62	    3.79
     57.0823	   13.00	   10.03	 -315.28	    3.78
     57.1157	   16.00	   11.51	 -313.76	    3.78
     57.1492	   15.00	   11.73	 -314.98	    3.77
     57.1826	   13.00	   10.78	 -316.03	    3.76
     57.2160	    9.00	    9.85	 -319.10	    3.76
     57.2494	   14.00	    9.43	 -313.68	    3.75
     57.2828	    6.00	    9.16	 -321.41	    3.74
     57.3163	    3.00	    8.43	 -323.68	    3.74
     57.3497	    9.00	    7.43	 -316.68	    3.73
     57.3831	    8.00	    6.58	 -316.83	    3.72
     57.4165	    5.00	    6.01	 -319.26	    3.71
     57.4500	   13.00	    5.68	 -310.93	    3.71
     57.4834	    5.00	    5.51	 -318.76	    3.70
     57.5168	    7.00	    5.41	 -316.66	    3.69
     57.5502	   11.00	    5.36	 -312.61	    3.69
     57.5836	    7.00	    5.32	 -316.57	    3.68
     57.6171	    6.00	    5.31	 -317.56	    3.67
     57.6505	    8.00	    5.30	 -315.55	    3.67
     57.6839	    8.00	    5.30	 -315.55	    3.66
     57.7173	    3.00	    5.32	 -320.57	    3.65
     57.7508	    7.00	    5.35	 -316.60	    3.65
     57.7842	    4.00	    5.38	 -319.63	    3.64
     57.8176	    5.00	    5.43	 -318.68	    3.63
     57.8510	    5.00	    5.50	 -318.75	    3.62
     57.8844	    3.00	    5.58	 -320.83	    3.62
     57.9179	    9.00	    5.69	 -314.94	    3.61
     57.9513	    4.00	    5.82	 -320.07	    3.60
     57.9847	    6.00	    5.99	 -318.24	    3.60
     58.0181	    9.00	    5.93	 -315.18	    3.59
     58.0516	    5.00	    6.21	 -319.46	    3.58
     58.0850	    8.00	    6.57	 -316.82	    3.58
     58.1184	   11.00	    7.04	 -314.29	    3.57
     58.1518	    9.00	    7.57	 -316.82	    3.56
     58.1852	   11.00	    8.55	 -315.80	    3.56
     58.2187	    8.00	   10.18	 -320.43	    3.55
     58.2521	   22.00	   13.17	 -309.42	    3.54
     58.2855	   21.00	   18.73	 -315.98	    3.54
     58.3189	   27.00	   28.30	 -319.55	    3.53
     58.3524	   39.00	   42.34	 -321.59	    3.52
     58.3858	   43.00	   58.19	 -333.44	    3.52
     58.4192	   87.00	   69.68	 -300.93	    3.51
     58.4526	   67.00	   69.84	 -321.09	    3.50
     58.4861	   48.00	   60.75	 -331.00	    3.50
     58.5195	   54.00	   52.27	 -316.52	    3.49
     58.5529	   47.00	   47.82	 -319.07	    3.48
     58.5863	   48.00	   44.31	 -314.56	    3.48
     58.6197	   60.00	   37.21	 -295.46	    3.47
     58.6532	   19.00	   27.59	 -326.84	    3.46
     58.6866	   26.00	   19.23	 -311.48	    3.46
     58.7200	   22.00	   13.53	 -309.78	    3.45
     58.7534	    8.00	   10.17	 -320.42	    3.44
     58.7869	   14.00	    8.33	 -312.58	    3.44
     58.8203	   18.00	    7.27	 -307.52	    3.43
     58.8537	    4.00	    6.60	 -320.85	    3.42
     58.8871	    6.00	    6.13	 -318.38	    3.42
     58.9205	    8.00	    5.77	 -316.02	    3.41
     58.9540	    4.00	    5.49	 -319.74	    3.40
     58.9874	    5.00	    5.26	 -318.51	    3.40
     59.0208	    3.00	    5.08	 -320.33	    3.39
     59.0542	    3.00	    4.93	 -320.18	    3.39
     59.0877	   13.00	    4.80	 -310.05	    3.38
     59.1211	    5.00	    4.69	 -317.94	    3.37
     59.1545	    6.00	    4.60	 -316.85	    3.37
     59.1879	    6.00	    4.52	 -316.77	    3.36
     59.2213	    1.00	    4.45	 -321.70	    3.35
     59.2548	    4.00	    4.38	 -318.63	    3.35
     59.2882	    7.00	    4.33	 -315.58	    3.34
     59.3216	    6.00	    4.28	 -316.53	    3.33
     59.3550	    3.00	    4.24	 -319.49	    3.33
     59.3885	    2.00	    4.19	 -320.44	    3.32
     59.4219	    9.00	    4.16	 -313.41	    3.32
     59.4553	    4.00	    4.12	 -318.37	    3.31
     59.4887	    3.00	    4.09	 -319.34	    3.30
     59.5222	    5.00	    4.06	 -317.31	    3.30
     59.5556	    5.00	    4.04	 -317.29	    3.29
     59.5890	    6.00	    4.01	 -316.26	    3.28
     59.6224	    8.00	    3.99	 -314.24	    3.28
     59.6558	    5.00	    3.97	 -317.22	    3.27
     59.6893	    9.00	    3.95	 -313.20	    3.26
     59.7227	    4.00	    3.93	 -318.18	    3.26
     59.7561	    7.00	    3.91	 -315.16	    3.25
     59.7895	    5.00	    3.89	 -317.14	    3.25
     59.8230	    5.00	    3.88	 -317.13	    3.24
     59.8564	    2.00	    3.86	 -320.11	    3.23
     59.8898	    4.00	    3.85	 -318.10	    3.23
     59.9232	    3.00	    3.83	 -319.08	    3.22
     59.9566	    5.00	    3.82	 -317.07	    3.21
     59.9901	    4.00	    3.81	 -318.06	    3.21
     60.0235	    3.00	    3.79	 -319.04	    3.20
     60.0569	   12.00	    3.78	 -310.03	    3.20
     60.0903	    1.00	    3.77	 -321.02	    3.19
     60.1238	    5.00	    3.76	 -317.01	    3.18
     60.1572	    5.00	    3.74	 -316.99	    3.18
     60.1906	    5.00	    3.73	 -316.98	    3.17
     60.2240	    4.00	    3.72	 -317.97	    3.17
     60.2574	    9.00	    3.71	 -312.96	    3.16
     60.2909	    7.00	    3.70	 -314.95	    3.15
     60.3243	    9.00	    3.79	 -313.04	    3.15
     60.3577	    5.00	    3.78	 -317.03	    3.14
     60.3911	    8.00	    3.77	 -314.02	    3.14
     60.4246	    4.00	    3.76	 -318.01	    3.13
     60.4580	    8.00	    3.76	 -314.01	    3.12
     60.4914	   13.00	    3.80	 -309.05	    3.12
     60.5248	   16.00	    3.79	 -306.04	    3.11
     60.5583	   13.00	    3.79	 -309.04	    3.11
     60.5917	   18.00	    3.78	 -304.03	    3.10
     60.6251	    8.00	    3.78	 -314.03	    3.09
     60.6585	   15.00	    3.78	 -307.03	    3.09
     60.6919	   13.00	    3.77	 -309.02	    3.08
     60.7254	    8.00	    3.77	 -314.02	    3.08
     60.7588	    6.00	    3.76	 -316.01	    3.07
     60.7922	   11.00	    3.76	 -311.01	    3.06
     60.8256	    7.00	    3.76	 -315.01	    3.06
     60.8591	    9.00	    3.75	 -313.00	    3.05
     60.8925	    3.00	    3.75	 -319.00	    3.05
     60.9259	    9.00	    3.75	 -313.00	    3.04
     60.9593	    8.00	    3.75	 -314.00	    3.03
     60.9927	    4.00	    3.75	 -318.00	    3.03
     61.0262	    6.00	    3.75	 -316.00	    3.02
     61.0596	    7.00	    3.74	 -314.99	    3.02
     61.0930	   13.00	    3.74	 -308.99	    3.01
     61.1264	    7.00	    3.74	 -314.99	    3.00
     61.1599	    5.00	    3.74	 -316.99	    3.00
     61.1933	    7.00	    3.74	 -314.99	    2.99
     61.2267	   12.00	    3.74	 -309.99	    2.99
     61.2601	    6.00	    3.75	 -316.00	    2.98
     61.2935	    1.00	    3.75	 -321.00	    2.98
     61.3270	    3.00	    3.75	 -319.00	    2.97
     61.3604	    7.00	    3.75	 -315.00	    2.96
     61.3938	    3.00	    3.75	 -319.00	    2.96
     61.4272	    4.00	    3.76	 -318.01	    2.95
     61.4607	   12.00	    3.76	 -310.01	    2.95
     61.4941	    1.00	    3.77	 -321.02	    2.94
     61.5275	    4.00	    3.77	 -318.02	    2.94
     61.5609	   12.00	    3.77	 -310.02	    2.93
     61.5943	    9.00	    3.76	 -313.01	    2.92
     61.6278	    5.00	    3.77	 -317.02	    2.92
     61.6612	   11.00	    3.78	 -311.03	    2.91
     61.6946	    6.00	    3.78	 -316.03	    2.91
     61.7280	   13.00	    3.79	 -309.04	    2.90
     61.7615	    2.00	    3.79	 -320.04	    2.90
     61.7949	   11.00	    3.81	 -311.06	    2.89
     61.8283	   12.00	    3.82	 -310.07	    2.88
     61.8617	   12.00	    3.83	 -310.08	    2.88
     61.8952	    6.00	    3.85	 -316.10	    2.87
     61.9286	    3.00	    3.87	 -319.12	    2.87
     61.9620	    8.00	    4.02	 -314.27	    2.86
     61.9954	    9.00	    4.04	 -313.29	    2.86
     62.0288	   16.00	    4.06	 -306.31	    2.85
     62.0623	   11.00	    4.09	 -311.34	    2.84
     62.0957	   16.00	    4.12	 -306.37	    2.84
     62.1291	   24.00	    4.22	 -298.47	    2.83
     62.1625	   19.00	    4.25	 -303.50	    2.83
     62.1960	   19.00	    4.29	 -303.54	    2.82
     62.2294	   11.00	    4.33	 -311.58	    2.82
     62.2628	    6.00	    4.37	 -316.62	    2.81
     62.2962	    9.00	    4.42	 -313.67	    2.81
     62.3296	    5.00	    4.48	 -317.73	    2.80
     62.3631	   11.00	    4.53	 -311.78	    2.80
     62.3965	    6.00	    4.60	 -316.85	    2.79
     62.4299	    7.00	    4.67	 -315.92	    2.78
     62.4633	    8.00	    4.74	 -314.99	    2.78
     62.4968	    9.00	    4.82	 -314.07	    2.77
     62.5302	   11.00	    4.92	 -312.17	    2.77
     62.5636	   11.00	    5.02	 -312.27	    2.76
     62.5970	    4.00	    5.13	 -319.38	    2.76
     62.6304	    6.00	    5.26	 -317.51	    2.75
     62.6639	   11.00	    5.40	 -312.65	    2.75
     62.6973	   13.00	    5.55	 -310.80	    2.74
     62.7307	    6.00	    5.73	 -317.98	    2.74
     62.7641	   11.00	    5.93	 -313.18	    2.73
     62.7976	    8.00	    6.16	 -316.41	    2.73
     62.8310	    6.00	    6.43	 -318.68	    2.72
     62.8644	    4.00	    6.73	 -320.98	    2.71
     62.8978	    6.00	    7.08	 -319.33	    2.71
     62.9313	   11.00	    7.49	 -314.74	    2.70
     62.9647	    5.00	    7.98	 -321.23	    2.70
     62.9981	    5.00	    8.56	 -321.81	    2.69
     63.0315	    8.00	    9.26	 -319.51	    2.69
     63.0649	   17.00	   10.11	 -311.36	    2.68
     63.0984	   15.00	   11.17	 -314.42	    2.68
     63.1318	   14.00	   12.50	 -316.75	    2.67
     63.1652	   13.00	   14.22	 -319.47	    2.67
     63.1986	   28.00	   16.49	 -306.74	    2.66
     63.2321	   21.00	   19.65	 -316.90	    2.66
     63.2655	   25.00	   24.47	 -317.72	    2.65
     63.2989	   52.00	   32.76	 -299.01	    2.65
     63.3323	   46.00	   48.22	 -320.47	    2.64
     63.3657	   80.00	   76.48	 -314.73	    2.64
     63.3992	  121.00	  122.59	 -319.84	    2.63
     63.4326	  213.00	  184.97	 -290.22	    2.63
     63.4660	  246.00	  244.82	 -317.07	    2.62
     63.4994	  310.00	  262.93	 -271.18	    2.62
     63.5329	  202.00	  230.20	 -346.45	    2.61
     63.5663	  174.00	  187.91	 -332.16	    2.61
     63.5997	  138.00	  165.12	 -345.37	    2.60
     63.6331	  160.00	  161.57	 -319.82	    2.60
     63.6665	  178.00	  155.06	 -295.31	    2.59
     63.7000	  139.00	  127.98	 -307.23	    2.59
     63.7334	   76.00	   91.89	 -334.14	    2.58
     63.7668	   65.00	   61.34	 -314.59	    2.57
     63.8002	   40.00	   40.61	 -318.86	    2.57
     63.8337	   33.00	   28.36	 -313.61	    2.56
     63.8671	   18.00	   21.53	 -321.78	    2.56
     63.9005	   15.00	   17.60	 -320.85	    2.55
     63.9339	   17.00	   15.09	 -316.34	    2.55
     63.9674	   26.00	   13.33	 -305.58	    2.54
     64.0008	   12.00	   12.02	 -318.27	    2.54
     64.0342	    8.00	   11.02	 -321.27	    2.53
     64.0676	    5.00	   10.24	 -323.49	    2.53
     64.1010	    9.00	    9.63	 -318.88	    2.53
     64.1345	    8.00	    9.15	 -319.40	    2.52
     64.1679	    9.00	    8.78	 -318.03	    2.52
     64.2013	   12.00	    8.50	 -314.75	    2.51
     64.2347	    6.00	    8.30	 -320.55	    2.51
     64.2682	    8.00	    8.15	 -318.40	    2.50
     64.3016	   12.00	    8.07	 -314.32	    2.50
     64.3350	    9.00	    8.04	 -317.29	    2.49
     64.3684	   17.00	    8.06	 -309.31	    2.49
     64.4018	   11.00	    8.14	 -315.39	    2.48
     64.4353	   11.00	    8.27	 -315.52	    2.48
     64.4687	    4.00	    8.46	 -322.71	    2.47
     64.5021	    5.00	    8.71	 -321.96	    2.47
     64.5355	    9.00	    9.04	 -318.29	    2.46
     64.5690	   15.00	    9.45	 -312.70	    2.46
     64.6024	   14.00	    9.96	 -314.21	    2.45
     64.6358	   11.00	   10.60	 -317.85	    2.45
     64.6692	    9.00	   11.39	 -320.64	    2.44
     64.7026	   12.00	   12.37	 -318.62	    2.44
     64.7361	   21.00	   13.60	 -310.85	    2.43
     64.7695	   19.00	   15.17	 -314.42	    2.43
     64.8029	   26.00	   17.19	 -309.44	    2.42
     64.8363	   21.00	   19.86	 -317.11	    2.42
     64.8698	   35.00	   23.53	 -306.78	    2.41
     64.9032	   46.00	   28.96	 -301.21	    2.41
     64.9366	   48.00	   37.93	 -308.18	    2.40
     64.9700	   63.00	   54.29	 -309.54	    2.40
     65.0034	   88.00	   84.48	 -314.73	    2.40
     65.0369	  111.00	  135.68	 -342.93	    2.39
     65.0703	  191.00	  209.89	 -337.14	    2.39
     65.1037	  273.00	  292.90	 -338.15	    2.38
     65.1371	  327.00	  341.49	 -332.74	    2.38
     65.1706	  295.00	  319.01	 -342.26	    2.37
     65.2040	  221.00	  261.32	 -358.57	    2.37
     65.2374	  180.00	  218.64	 -356.89	    2.36
     65.2708	  186.00	  205.71	 -337.96	    2.36
     65.3042	  212.00	  205.88	 -312.13	    2.35
     65.3377	  191.00	  186.94	 -314.19	    2.35
     65.3711	  137.00	  144.27	 -325.52	    2.34
     65.4045	   96.00	   99.52	 -321.77	    2.34
     65.4379	   62.00	   65.39	 -321.64	    2.34
     65.4714	   48.00	   43.51	 -313.76	    2.33
     65.5048	   39.00	   30.87	 -310.12	    2.33
     65.5382	   29.00	   23.71	 -312.96	    2.32
     65.5716	   21.00	   19.37	 -316.62	    2.32
     65.6051	   13.00	   16.44	 -321.69	    2.31
     65.6385	   14.00	   14.29	 -318.54	    2.31
     65.6719	   13.00	   12.63	 -317.88	    2.30
     65.7053	   14.00	   11.31	 -315.56	    2.30
     65.7387	   11.00	   10.25	 -317.50	    2.30
     65.7722	   11.00	    9.38	 -316.63	    2.29
     65.8056	    6.00	    8.65	 -320.90	    2.29
     65.8390	    7.00	    8.05	 -319.30	    2.28
     65.8724	    7.00	    7.53	 -318.78	    2.28
     65.9059	    7.00	    7.08	 -318.33	    2.27
     65.9393	   19.00	    6.70	 -305.95	    2.27
     65.9727	    7.00	    6.37	 -317.62	    2.26
     66.0061	    6.00	    6.07	 -318.32	    2.26
     66.0396	    8.00	    5.81	 -316.06	    2.26
     66.0730	    8.00	    5.58	 -315.83	    2.25
     66.1064	    7.00	    5.38	 -316.63	    2.25
     66.1398	    4.00	    5.20	 -319.45	    2.24
     66.1732	    9.00	    5.03	 -314.28	    2.24
     66.2067	    3.00	    4.88	 -320.13	    2.23
     66.2401	    7.00	    4.75	 -316.00	    2.23
     66.2735	    4.00	    4.62	 -318.87	    2.23
     66.3069	   11.00	    4.51	 -311.76	    2.22
     66.3403	   14.00	    4.41	 -308.66	    2.22
     66.3738	    5.00	    4.31	 -317.56	    2.21
     66.4072	    6.00	    4.23	 -316.48	    2.21
     66.4406	    3.00	    4.15	 -319.40	    2.20
     66.4740	    3.00	    4.08	 -319.33	    2.20
     66.5075	    4.00	    4.01	 -318.26	    2.20
     66.5409	    3.00	    3.95	 -319.20	    2.19
     66.5743	    2.00	    3.89	 -320.14	    2.19
     66.6077	    3.00	    3.84	 -319.09	    2.18
     66.6412	    7.00	    3.79	 -315.04	    2.18
     66.6746	    6.00	    3.75	 -316.00	    2.17
     66.7080	    9.00	    3.62	 -312.87	    2.17
     66.7414	    6.00	    3.59	 -315.84	    2.17
     66.7748	    9.00	    3.56	 -312.81	    2.16
     66.8083	    1.00	    3.54	 -320.79	    2.16
     66.8417	    3.00	    3.54	 -318.79	    2.15
     66.8751	    3.00	    3.49	 -318.74	    2.15
     66.9085	    4.00	    3.52	 -317.77	    2.15
     66.9420	    5.00	    3.59	 -316.84	    2.14
     66.9754	    6.00	    3.74	 -315.99	    2.14
     67.0088	    4.00	    4.03	 -318.28	    2.13
     67.0422	    6.00	    4.52	 -316.77	    2.13
     67.0756	    4.00	    5.18	 -319.43	    2.13
     67.1091	    3.00	    5.82	 -321.07	    2.12
     67.1425	    7.00	    6.03	 -317.28	    2.12
     67.1759	    6.00	    5.65	 -317.90	    2.11
     67.2093	   14.00	    5.13	 -309.38	    2.11
     67.2428	   11.00	    4.80	 -312.05	    2.11
     67.2762	    5.00	    4.73	 -317.98	    2.10
     67.3096	    8.00	    4.72	 -314.97	    2.10
     67.3430	    3.00	    4.53	 -319.78	    2.09
     67.3764	    7.00	    4.14	 -315.39	    2.09
     67.4099	    6.00	    3.75	 -316.00	    2.09
     67.4433	    6.00	    3.45	 -315.70	    2.08
     67.4767	    4.00	    3.25	 -317.50	    2.08
     67.5101	    2.00	    3.13	 -319.38	    2.07
     67.5436	    5.00	    3.05	 -316.30	    2.07
     67.5770	    3.00	    3.00	 -318.25	    2.07
     67.6104	    2.00	    2.96	 -319.21	    2.06
     67.6438	    4.00	    2.93	 -317.18	    2.06
     67.6772	    5.00	    2.90	 -316.15	    2.05
     67.7107	    2.00	    2.88	 -319.13	    2.05
     67.7441	    3.00	    2.86	 -318.11	    2.05
     67.7775	    6.00	    2.84	 -315.09	    2.04
     67.8109	    4.00	    2.82	 -317.07	    2.04
     67.8444	    3.00	    2.80	 -318.05	    2.04
     67.8778	    6.00	    2.79	 -315.04	    2.03
     67.9112	    7.00	    2.77	 -314.02	    2.03
     67.9446	    6.00	    2.76	 -315.01	    2.02
     67.9781	    5.00	    2.75	 -316.00	    2.02
     68.0115	    6.00	    2.74	 -314.99	    2.02
     68.0449	    4.00	    2.72	 -316.97	    2.01
     68.0783	    5.00	    2.71	 -315.96	    2.01
     68.1117	    6.00	    2.70	 -314.95	    2.01
     68.1452	    4.00	    2.69	 -316.94	    2.00
     68.1786	    9.00	    2.68	 -311.93	    2.00
     68.2120	    5.00	    2.67	 -315.92	    1.99
     68.2454	    3.00	    2.66	 -317.91	    1.99
     68.2789	    3.00	    2.65	 -317.90	    1.99
     68.3123	    7.00	    2.64	 -313.89	    1.98
     68.3457	    4.00	    2.63	 -316.88	    1.98
     68.3791	    8.00	    2.50	 -312.75	    1.98
     68.4125	    2.00	    2.49	 -318.74	    1.97
     68.4460	    3.00	    2.49	 -317.74	    1.97
     68.4794	    3.00	    2.48	 -317.73	    1.96
     68.5128	    8.00	    2.48	 -312.73	    1.96
     68.5462	    6.00	    2.41	 -314.66	    1.96
     68.5797	    9.00	    2.41	 -311.66	    1.95
     68.6131	    2.00	    2.40	 -318.65	    1.95
     68.6465	    3.00	    2.40	 -317.65	    1.95
     68.6799	    1.00	    2.39	 -319.64	    1.94
     68.7133	    3.00	    2.39	 -317.64	    1.94
     68.7468	    3.00	    2.39	 -317.64	    1.94
     68.7802	    4.00	    2.38	 -316.63	    1.93
     68.8136	    3.00	    2.38	 -317.63	    1.93
     68.8470	    3.00	    2.38	 -317.63	    1.93
     68.8805	    5.00	    2.37	 -315.62	    1.92
     68.9139	    5.00	    2.37	 -315.62	    1.92
     68.9473	    4.00	    2.36	 -316.61	    1.92
     68.9807	    5.00	    2.36	 -315.61	    1.91
     69.0142	    2.00	    2.36	 -318.61	    1.91
     69.0476	    5.00	    2.35	 -315.60	    1.90
     69.0810	    5.00	    2.35	 -315.60	    1.90
     69.1144	    9.00	    2.35	 -311.60	    1.90
     69.1478	    6.00	    2.34	 -314.59	    1.89
     69.1813	    3.00	    2.34	 -317.59	    1.89
     69.2147	   12.00	    2.34	 -308.59	    1.89
     69.2481	   13.00	    2.33	 -307.58	    1.88
     69.2815	    3.00	    2.33	 -317.58	    1.88
     69.3150	    8.00	    2.33	 -312.58	    1.88
     69.3484	    8.00	    2.32	 -312.57	    1.87
     69.3818	    9.00	    2.32	 -311.57	    1.87
     69.4152	    5.00	    2.32	 -315.57	    1.87
     69.4486	   12.00	    2.31	 -308.56	    1.86
     69.4821	    5.00	    2.31	 -315.56	    1.86
     69.5155	    8.00	    2.31	 -312.56	    1.86
     69.5489	    7.00	    2.31	 -313.56	    1.85
     69.5823	    6.00	    2.30	 -314.55	    1.85
     69.6158	    8.00	    2.30	 -312.55	    1.85
     69.6492	    4.00	    2.30	 -316.55	    1.84
     69.6826	    6.00	    2.35	 -314.60	    1.84
     69.7160	    3.00	    2.35	 -317.60	    1.84
     69.7495	    7.00	    2.34	 -313.59	    1.83
     69.7829	    5.00	    2.34	 -315.59	    1.83
     69.8163	    1.00	    2.34	 -319.59	    1.83
     69.8497	    4.00	    2.34	 -316.59	    1.83
     69.8831	    8.00	    2.37	 -312.62	    1.82
     69.9166	    1.00	    2.37	 -319.62	    1.82
     69.9500	    7.00	    2.37	 -313.62	    1.82
     69.9834	    4.00	    2.37	 -316.62	    1.81
     70.0168	    5.00	    2.37	 -315.62	    1.81
     70.0502	    5.00	    2.37	 -315.62	    1.81
     70.0837	    7.00	    2.38	 -313.63	    1.80
     70.1171	    4.00	    2.39	 -316.64	    1.80
     70.1505	    6.00	    2.39	 -314.64	    1.80
     70.1839	    5.00	    2.39	 -315.64	    1.79
     70.2174	    5.00	    2.40	 -315.65	    1.79
     70.2508	    4.00	    2.41	 -316.66	    1.79
     70.2842	    2.00	    2.42	 -318.67	    1.78
     70.3176	    3.00	    2.43	 -317.68	    1.78
     70.3511	    9.00	    2.45	 -311.70	    1.78
     70.3845	    5.00	    2.47	 -315.72	    1.78
     70.4179	    2.00	    2.50	 -318.75	    1.77
     70.4513	    2.00	    2.56	 -318.81	    1.77
     70.4847	    8.00	    2.65	 -312.90	    1.77
     70.5182	    6.00	    2.82	 -315.07	    1.76
     70.5516	    5.00	    3.09	 -316.34	    1.76
     70.5850	    3.00	    3.48	 -318.73	    1.76
     70.6184	    5.00	    3.92	 -317.17	    1.75
     70.6519	    6.00	    4.22	 -316.47	    1.75
     70.6853	    7.00	    4.15	 -315.40	    1.75
     70.7187	    2.00	    3.84	 -320.09	    1.75
     70.7521	    6.00	    3.56	 -315.81	    1.74
     70.7855	    5.00	    3.43	 -316.68	    1.74
     70.8190	   11.00	    3.45	 -310.70	    1.74
     70.8524	    4.00	    3.47	 -317.72	    1.73
     70.8858	    3.00	    3.34	 -318.59	    1.73
     70.9192	    0.00	    3.11	 -321.36	    1.73
     70.9527	    2.00	    2.89	 -319.14	    1.73
     70.9861	    5.00	    2.72	 -315.97	    1.72
     71.0195	    5.00	    2.62	 -315.87	    1.72
     71.0529	    3.00	    2.56	 -317.81	    1.72
     71.0863	    6.00	    2.52	 -314.77	    1.71
     71.1198	    1.00	    2.51	 -319.76	    1.71
     71.1532	    3.00	    2.50	 -317.75	    1.71
     71.1866	    3.00	    2.49	 -317.74	    1.71
     71.2200	    3.00	    2.49	 -317.74	    1.70
     71.2535	    9.00	    2.49	 -311.74	    1.70
     71.2869	    4.00	    2.49	 -316.74	    1.70
     71.3203	    2.00	    2.50	 -318.75	    1.69
     71.3537	    3.00	    2.50	 -317.75	    1.69
     71.3872	    4.00	    2.51	 -316.76	    1.69
     71.4206	    5.00	    2.52	 -315.77	    1.69
     71.4540	    1.00	    2.53	 -319.78	    1.68
     71.4874	    5.00	    2.54	 -315.79	    1.68
     71.5208	    3.00	    2.55	 -317.80	    1.68
     71.5543	    2.00	    2.57	 -318.82	    1.68
     71.5877	    5.00	    2.59	 -315.84	    1.67
     71.6211	    3.00	    2.60	 -317.85	    1.67
     71.6545	    4.00	    2.62	 -316.87	    1.67
     71.6880	    5.00	    2.64	 -315.89	    1.66
     71.7214	    4.00	    2.67	 -316.92	    1.66
     71.7548	    6.00	    2.69	 -314.94	    1.66
     71.7882	    4.00	    2.72	 -316.97	    1.66
     71.8216	   12.00	    2.75	 -309.00	    1.65
     71.8551	    4.00	    2.78	 -317.03	    1.65
     71.8885	    2.00	    2.82	 -319.07	    1.65
     71.9219	    3.00	    2.86	 -318.11	    1.65
     71.9553	    6.00	    2.91	 -315.16	    1.64
     71.9888	    5.00	    2.96	 -316.21	    1.64
     72.0222	    3.00	    3.01	 -318.26	    1.64
     72.0556	    4.00	    3.07	 -317.32	    1.64
     72.0890	    3.00	    3.14	 -318.39	    1.63
     72.1225	    2.00	    3.22	 -319.47	    1.63
     72.1559	    7.00	    3.31	 -314.56	    1.63
     72.1893	    4.00	    3.40	 -317.65	    1.63
     72.2227	    4.00	    3.51	 -317.76	    1.62
     72.2561	    4.00	    3.64	 -317.89	    1.62
     72.2896	    8.00	    3.78	 -314.03	    1.62
     72.3230	    7.00	    3.94	 -315.19	    1.62
     72.3564	    5.00	    4.13	 -317.38	    1.61
     72.3898	    3.00	    4.36	 -319.61	    1.61
     72.4232	    3.00	    4.62	 -319.87	    1.61
     72.4567	    5.00	    4.93	 -318.18	    1.61
     72.4901	    5.00	    5.30	 -318.55	    1.60
     72.5235	    4.00	    5.75	 -320.00	    1.60
     72.5569	   11.00	    6.31	 -313.56	    1.60
     72.5904	   13.00	    7.01	 -312.26	    1.60
     72.6238	    8.00	    7.89	 -318.14	    1.59
     72.6572	    9.00	    9.06	 -318.31	    1.59
     72.6906	   18.00	   10.66	 -310.91	    1.59
     72.7241	   22.00	   13.07	 -309.32	    1.59
     72.7575	   19.00	   17.06	 -316.31	    1.58
     72.7909	   29.00	   24.05	 -313.30	    1.58
     72.8243	   35.00	   36.11	 -319.36	    1.58
     72.8577	   71.00	   55.16	 -302.41	    1.58
     72.8912	   83.00	   81.09	 -316.34	    1.58
     72.9246	  111.00	  108.32	 -315.57	    1.57
     72.9580	  129.00	  122.56	 -311.81	    1.57
     72.9914	  117.00	  113.51	 -314.76	    1.57
     73.0249	   81.00	   92.73	 -329.98	    1.57
     73.0583	   98.00	   75.98	 -296.23	    1.56
     73.0917	   78.00	   69.44	 -309.69	    1.56
     73.1251	   66.00	   71.44	 -323.69	    1.56
     73.1585	   93.00	   74.00	 -299.25	    1.56
     73.1920	   83.00	   68.34	 -303.59	    1.56
     73.2254	   83.00	   56.30	 -291.55	    1.55
     73.2588	   50.00	   45.33	 -313.58	    1.55
     73.2922	   43.00	   38.96	 -314.21	    1.55
     73.3257	   55.00	   36.56	 -299.81	    1.55
     73.3591	   38.00	   34.63	 -314.88	    1.54
     73.3925	   36.00	   30.25	 -312.50	    1.54
     73.4259	   29.00	   24.74	 -313.99	    1.54
     73.4594	   25.00	   20.52	 -313.77	    1.54
     73.4928	   11.00	   18.45	 -325.70	    1.54
     73.5262	   16.00	   18.15	 -320.40	    1.53
     73.5596	   18.00	   18.03	 -318.28	    1.53
     73.5930	   23.00	   16.40	 -311.65	    1.53
     73.6265	   14.00	   13.47	 -317.72	    1.53
     73.6599	   12.00	   10.51	 -316.76	    1.53
     73.6933	    8.00	    8.20	 -318.45	    1.52
     73.7267	    9.00	    6.64	 -315.89	    1.52
     73.7601	    8.00	    5.63	 -315.88	    1.52
     73.7936	    3.00	    4.98	 -320.23	    1.52
     73.8270	    9.00	    4.55	 -313.80	    1.52
     73.8604	    4.00	    4.23	 -318.48	    1.51
     73.8938	    4.00	    3.98	 -318.23	    1.51
     73.9273	    5.00	    3.78	 -317.03	    1.51
     73.9607	    3.00	    3.61	 -318.86	    1.51
     73.9941	    2.00	    3.46	 -319.71	    1.51
     74.0275	    6.00	    3.34	 -315.59	    1.50
     74.0610	    5.00	    3.23	 -316.48	    1.50
     74.0944	    3.00	    3.13	 -318.38	    1.50
     74.1278	    4.00	    3.05	 -317.30	    1.50
     74.1612	    5.00	    2.98	 -316.23	    1.50
     74.1946	    4.00	    2.91	 -317.16	    1.49
     74.2281	    3.00	    2.85	 -318.10	    1.49
     74.2615	    5.00	    2.80	 -316.05	    1.49
     74.2949	    3.00	    2.75	 -318.00	    1.49
     74.3283	    2.00	    2.71	 -318.96	    1.49
     74.3618	    5.00	    2.67	 -315.92	    1.48
     74.3952	    5.00	    2.63	 -315.88	    1.48
     74.4286	    4.00	    2.60	 -316.85	    1.48
     74.4620	    6.00	    2.57	 -314.82	    1.48
     74.4955	    1.00	    2.54	 -319.79	    1.48
     74.5289	    5.00	    2.51	 -315.76	    1.48
     74.5623	    2.00	    2.49	 -318.74	    1.47
     74.5957	    3.00	    2.47	 -317.72	    1.47
     74.6291	   11.00	    2.45	 -309.70	    1.47
     74.6626	    5.00	    2.43	 -315.68	    1.47
     74.6960	    3.00	    2.41	 -317.66	    1.47
     74.7294	    8.00	    2.40	 -312.65	    1.47
     74.7628	    5.00	    2.38	 -315.63	    1.46
     74.7962	    1.00	    2.37	 -319.62	    1.46
     74.8297	    9.00	    2.36	 -311.61	    1.46
     74.8631	    3.00	    2.35	 -317.60	    1.46
     74.8965	    3.00	    2.34	 -317.59	    1.46
     74.9299	    3.00	    2.33	 -317.58	    1.46
     74.9634	    6.00	    2.32	 -314.57	    1.45
     74.9968	    3.00	    2.31	 -317.56	    1.45
     75.0302	    4.00	    2.31	 -316.56	    1.45
     75.0636	   11.00	    2.30	 -309.55	    1.45
     75.0971	    9.00	    2.30	 -311.55	    1.45
     75.1305	    7.00	    2.29	 -313.54	    1.45
     75.1639	    6.00	    2.29	 -314.54	    1.44
     75.1973	    3.00	    2.29	 -317.54	    1.44
     75.2307	    6.00	    2.28	 -314.53	    1.44
     75.2642	    5.00	    2.28	 -315.53	    1.44
     75.2976	    5.00	    2.28	 -315.53	    1.44
     75.3310	    3.00	    2.28	 -317.53	    1.44
     75.3644	    2.00	    2.29	 -318.54	    1.43
     75.3979	    4.00	    2.29	 -316.54	    1.43
     75.4313	    4.00	    2.29	 -316.54	    1.43
     75.4647	   12.00	    2.30	 -308.55	    1.43
     75.4981	    0.00	    2.30	 -320.55	    1.43
     75.5315	    4.00	    2.31	 -316.56	    1.43
     75.5650	    2.00	    2.31	 -318.56	    1.43
     75.5984	    4.00	    2.32	 -316.57	    1.42
     75.6318	    5.00	    2.33	 -315.58	    1.42
     75.6652	    3.00	    2.35	 -317.60	    1.42
     75.6987	    4.00	    2.36	 -316.61	    1.42
     75.7321	    4.00	    2.40	 -316.65	    1.42
     75.7655	    8.00	    2.42	 -312.67	    1.42
     75.7989	    4.00	    2.44	 -316.69	    1.42
     75.8324	    9.00	    2.46	 -311.71	    1.41
     75.8658	    7.00	    2.49	 -313.74	    1.41
     75.8992	   11.00	    2.52	 -309.77	    1.41
     75.9326	    3.00	    2.56	 -317.81	    1.41
     75.9660	    4.00	    2.60	 -316.85	    1.41
     75.9995	    2.00	    2.64	 -318.89	    1.41
     76.0329	    4.00	    2.69	 -316.94	    1.41
     76.0663	    1.00	    2.75	 -320.00	    1.40
     76.0997	    6.00	    2.82	 -315.07	    1.40
     76.1331	    5.00	    2.89	 -316.14	    1.40
     76.1666	    7.00	    2.99	 -314.24	    1.40
     76.2000	    2.00	    3.10	 -319.35	    1.40
     76.2334	    3.00	    3.25	 -318.50	    1.40
     76.2668	    7.00	    3.40	 -314.65	    1.40
     76.3003	    5.00	    3.68	 -316.93	    1.40
     76.3337	    4.00	    4.07	 -318.32	    1.39
     76.3671	    4.00	    4.57	 -318.82	    1.39
     76.4005	    3.00	    5.14	 -320.39	    1.39
     76.4340	    5.00	    5.63	 -318.88	    1.39
     76.4674	   13.00	    5.90	 -311.15	    1.39
     76.5008	    8.00	    6.04	 -316.29	    1.39
     76.5342	    8.00	    6.36	 -316.61	    1.39
     76.5676	    8.00	    6.98	 -317.23	    1.39
     76.6011	    8.00	    8.05	 -318.30	    1.38
     76.6345	   13.00	    9.77	 -315.02	    1.38
     76.6679	   14.00	   12.58	 -316.83	    1.38
     76.7013	   22.00	   17.30	 -313.55	    1.38
     76.7348	   26.00	   25.06	 -317.31	    1.38
     76.7682	   27.00	   36.56	 -327.81	    1.38
     76.8016	   38.00	   50.89	 -331.14	    1.38
     76.8350	   65.00	   63.53	 -316.78	    1.38
     76.8684	   49.00	   66.55	 -335.80	    1.38
     76.9019	   37.00	   58.36	 -339.61	    1.37
     76.9353	   33.00	   46.91	 -332.16	    1.37
     76.9687	   31.00	   38.78	 -326.03	    1.37
     77.0021	   29.00	   36.03	 -325.28	    1.37
     77.0356	   39.00	   37.48	 -316.73	    1.37
     77.0690	   32.00	   39.16	 -325.41	    1.37
     77.1024	   39.00	   36.35	 -315.60	    1.37
     77.1358	   29.00	   29.25	 -318.50	    1.37
     77.1693	   24.00	   21.51	 -315.76	    1.37
     77.2027	   14.00	   15.27	 -319.52	    1.36
     77.2361	    9.00	   10.97	 -320.22	    1.36
     77.2695	    7.00	    8.29	 -319.54	    1.36
     77.3029	    6.00	    6.67	 -318.92	    1.36
     77.3364	    6.00	    5.67	 -317.92	    1.36
     77.3698	    6.00	    5.01	 -317.26	    1.36
     77.4032	    4.00	    4.53	 -318.78	    1.36
     77.4366	    4.00	    4.16	 -318.41	    1.36
     77.4701	    6.00	    3.87	 -316.12	    1.36
     77.5035	    4.00	    3.64	 -317.89	    1.36
     77.5369	    8.00	    3.45	 -313.70	    1.36
     77.5703	    7.00	    3.29	 -314.54	    1.35
     77.6037	    2.00	    3.16	 -319.41	    1.35
     77.6372	    9.00	    3.05	 -312.30	    1.35
     77.6706	    4.00	    2.96	 -317.21	    1.35
     77.7040	    5.00	    2.88	 -316.13	    1.35
     77.7374	    3.00	    2.81	 -318.06	    1.35
     77.7709	    1.00	    2.76	 -320.01	    1.35
     77.8043	    7.00	    2.71	 -313.96	    1.35
     77.8377	    4.00	    2.67	 -316.92	    1.35
     77.8711	    5.00	    2.63	 -315.88	    1.35
     77.9045	    7.00	    2.61	 -313.86	    1.35
     77.9380	    4.00	    2.58	 -316.83	    1.35
     77.9714	    6.00	    2.56	 -314.81	    1.35
     78.0048	    7.00	    2.55	 -313.80	    1.34
     78.0382	    3.00	    2.54	 -317.79	    1.34
     78.0717	    6.00	    2.54	 -314.79	    1.34
     78.1051	    6.00	    2.53	 -314.78	    1.34
     78.1385	    4.00	    2.54	 -316.79	    1.34
     78.1719	    9.00	    2.55	 -311.80	    1.34
     78.2054	    0.00	    2.56	 -320.81	    1.34
     78.2388	    2.00	    2.57	 -318.82	    1.34
     78.2722	    0.00	    2.60	 -320.85	    1.34
     78.3056	    0.00	    2.62	 -320.87	    1.34
     78.3390	    4.00	    2.66	 -316.91	    1.34
     78.3725	    5.00	    2.70	 -315.95	    1.34
     78.4059	    4.00	    2.75	 -317.00	    1.34
     78.4393	    5.00	    2.80	 -316.05	    1.34
     78.4727	    6.00	    2.87	 -315.12	    1.33
     78.5061	    7.00	    2.96	 -314.21	    1.33
     78.5396	    5.00	    3.06	 -316.31	    1.33
     78.5730	    3.00	    3.18	 -318.43	    1.33
     78.6064	    7.00	    3.32	 -314.57	    1.33
     78.6398	    4.00	    3.50	 -317.75	    1.33
     78.6733	    4.00	    3.73	 -317.98	    1.33
     78.7067	    7.00	    4.01	 -315.26	    1.33
     78.7401	    3.00	    4.36	 -319.61	    1.33
     78.7735	    7.00	    4.81	 -316.06	    1.33
     78.8070	    8.00	    5.43	 -315.68	    1.33
     78.8404	   11.00	    6.34	 -313.59	    1.33
     78.8738	    9.00	    7.78	 -317.03	    1.33
     78.9072	   13.00	   10.22	 -315.47	    1.33
     78.9406	   15.00	   14.32	 -317.57	    1.33
     78.9741	   18.00	   20.81	 -321.06	    1.33
     79.0075	   38.00	   29.95	 -310.20	    1.33
     79.0409	   43.00	   40.65	 -315.90	    1.33
     79.0743	   64.00	   49.01	 -303.26	    1.33
     79.1078	   54.00	   49.52	 -313.77	    1.33
     79.1412	   43.00	   42.57	 -317.82	    1.32
     79.1746	   31.00	   34.18	 -321.43	    1.32
     79.2080	   25.00	   28.54	 -321.79	    1.32
     79.2414	   23.00	   26.78	 -322.03	    1.32
     79.2749	   34.00	   28.04	 -312.29	    1.32
     79.3083	   33.00	   29.59	 -314.84	    1.32
     79.3417	   31.00	   28.00	 -315.25	    1.32
     79.3751	   23.00	   23.06	 -318.31	    1.32
     79.4086	   19.00	   17.35	 -316.60	    1.32
     79.4420	    7.00	   12.61	 -323.86	    1.32
     79.4754	    9.00	    9.25	 -318.50	    1.32
     79.5088	   12.00	    7.11	 -313.36	    1.32
     79.5423	    7.00	    5.81	 -317.06	    1.32
     79.5757	    9.00	    5.01	 -314.26	    1.32
     79.6091	    4.00	    4.49	 -318.74	    1.32
     79.6425	    9.00	    4.13	 -313.38	    1.32
     79.6759	    7.00	    3.86	 -315.11	    1.32
     79.7094	    6.00	    3.66	 -315.91	    1.32
     79.7428	    4.00	    3.51	 -317.76	    1.32
     79.7762	    3.00	    3.40	 -318.65	    1.32
     79.8096	    6.00	    3.33	 -315.58	    1.32
     79.8430	    5.00	    3.28	 -316.53	    1.32
     79.8765	    7.00	    3.28	 -314.53	    1.32
     79.9099	    5.00	    3.31	 -316.56	    1.32
     79.9433	    7.00	    3.38	 -314.63	    1.32
     79.9767	   11.00	    3.53	 -310.78	    1.32
     80.0102	    5.00	    3.80	 -317.05	    1.32
     80.0436	    9.00	    4.29	 -313.54	    1.32
     80.0770	    7.00	    5.15	 -316.40	    1.32
     80.1104	    7.00	    6.56	 -317.81	    1.32
     80.1439	    6.00	    8.61	 -320.86	    1.32
     80.1773	   15.00	   11.16	 -314.41	    1.32
     80.2107	   22.00	   13.47	 -309.72	    1.32
     80.2441	   17.00	   14.13	 -315.38	    1.32
     80.2775	   14.00	   12.77	 -317.02	    1.32
     80.3110	    7.00	   10.65	 -321.90	    1.32
     80.3444	   12.00	    8.98	 -315.23	    1.32
     80.3778	    4.00	    8.22	 -322.47	    1.32
     80.4112	   13.00	    8.33	 -313.58	    1.32
     80.4447	   19.00	    8.79	 -308.04	    1.32
     80.4781	   16.00	    8.79	 -311.04	    1.32
     80.5115	   14.00	    7.86	 -312.11	    1.32
     80.5449	   11.00	    6.47	 -313.72	    1.32
     80.5784	    7.00	    5.17	 -316.42	    1.32
     80.6118	    1.00	    4.20	 -321.45	    1.32
     80.6452	    6.00	    3.55	 -315.80	    1.32
     80.6786	    6.00	    3.15	 -315.40	    1.32
     80.7120	    3.00	    2.90	 -318.15	    1.32
     80.7455	    5.00	    2.75	 -316.00	    1.32
     80.7789	    5.00	    2.66	 -315.91	    1.32
     80.8123	    4.00	    2.64	 -316.89	    1.32
     80.8457	    9.00	    2.64	 -311.89	    1.32
     80.8792	    2.00	    2.67	 -318.92	    1.32
     80.9126	    5.00	    2.75	 -316.00	    1.32
     80.9460	    7.00	    2.85	 -314.10	    1.32
     80.9794	    5.00	    2.91	 -316.16	    1.32
     81.0128	    0.00	    2.88	 -321.13	    1.32
     81.0463	    3.00	    2.79	 -318.04	    1.32
     81.0797	    3.00	    2.68	 -317.93	    1.32
     81.1131	    2.00	    2.61	 -318.86	    1.32
     81.1465	    6.00	    2.59	 -314.84	    1.32
     81.1800	    5.00	    2.61	 -315.86	    1.32
     81.2134	    4.00	    2.64	 -316.89	    1.32
     81.2468	    7.00	    2.63	 -313.88	    1.32
     81.2802	    5.00	    2.59	 -315.84	    1.32
     81.3136	    6.00	    2.54	 -314.79	    1.32
     81.3471	    4.00	    2.50	 -316.75	    1.32
     81.3805	    4.00	    2.49	 -316.74	    1.32
     81.4139	    1.00	    2.49	 -319.74	    1.32
     81.4473	    3.00	    2.51	 -317.76	    1.32
     81.4808	    7.00	    2.54	 -313.79	    1.32
     81.5142	    5.00	    2.59	 -315.84	    1.32
     81.5476	    6.00	    2.65	 -314.90	    1.32
     81.5810	    3.00	    2.72	 -317.97	    1.32
     81.6144	    9.00	    2.81	 -312.06	    1.32
     81.6479	    7.00	    2.92	 -314.17	    1.32
     81.6813	    6.00	    3.05	 -315.30	    1.32
     81.7147	    5.00	    3.22	 -316.47	    1.32
     81.7481	    5.00	    3.44	 -316.69	    1.32
     81.7816	    1.00	    3.73	 -320.98	    1.33
     81.8150	    5.00	    4.12	 -317.37	    1.33
     81.8484	   15.00	    4.71	 -307.96	    1.33
     81.8818	    4.00	    5.64	 -319.89	    1.33
     81.9153	   14.00	    7.17	 -311.42	    1.33
     81.9487	    8.00	    9.67	 -319.92	    1.33
     81.9821	   17.00	   13.47	 -314.72	    1.33
     82.0155	   21.00	   18.62	 -315.87	    1.33
     82.0489	   27.00	   24.42	 -315.67	    1.33
     82.0824	   19.00	   28.90	 -328.15	    1.33
     82.1158	   34.00	   29.45	 -313.70	    1.33
     82.1492	   34.00	   25.92	 -310.17	    1.33
     82.1826	   24.00	   21.17	 -315.42	    1.33
     82.2160	   26.00	   17.66	 -309.91	    1.33
     82.2495	   13.00	   16.20	 -321.45	    1.33
     82.2829	   12.00	   16.53	 -322.78	    1.33
     82.3163	   14.00	   17.54	 -321.79	    1.33
     82.3497	   17.00	   17.57	 -318.82	    1.33
     82.3832	   12.00	   15.61	 -321.86	    1.33
     82.4166	   18.00	   12.51	 -312.76	    1.33
     82.4500	   11.00	    9.52	 -316.77	    1.34
     82.4834	    7.00	    7.20	 -318.45	    1.34
     82.5169	    8.00	    5.63	 -315.88	    1.34
     82.5503	    9.00	    4.63	 -313.88	    1.34
     82.5837	    6.00	    4.01	 -316.26	    1.34
     82.6171	    4.00	    3.62	 -317.87	    1.34
     82.6505	    9.00	    3.35	 -312.60	    1.34
     82.6840	    5.00	    3.15	 -316.40	    1.34
     82.7174	    2.00	    2.99	 -319.24	    1.34
     82.7508	    5.00	    2.88	 -316.13	    1.34
     82.7842	    4.00	    2.78	 -317.03	    1.34
     82.8177	    6.00	    2.71	 -314.96	    1.34
     82.8511	    3.00	    2.65	 -317.90	    1.34
     82.8845	    4.00	    2.60	 -316.85	    1.34
     82.9179	    5.00	    2.56	 -315.81	    1.34
     82.9514	    2.00	    2.53	 -318.78	    1.35
     82.9848	    1.00	    2.51	 -319.76	    1.35
     83.0182	    5.00	    2.49	 -315.74	    1.35
     83.0516	    2.00	    2.51	 -318.76	    1.35
     83.0850	    6.00	    2.50	 -314.75	    1.35
     83.1185	   11.00	    2.50	 -309.75	    1.35
     83.1519	    4.00	    2.50	 -316.75	    1.35
     83.1853	    5.00	    2.51	 -315.76	    1.35
     83.2187	    7.00	    2.52	 -313.77	    1.35
     83.2522	    4.00	    2.53	 -316.78	    1.35
     83.2856	    7.00	    2.56	 -313.81	    1.35
     83.3190	    2.00	    2.58	 -318.83	    1.35
     83.3524	    9.00	    2.61	 -311.86	    1.36
     83.3858	    5.00	    2.64	 -315.89	    1.36
     83.4193	    4.00	    2.68	 -316.93	    1.36
     83.4527	    3.00	    2.72	 -317.97	    1.36
     83.4861	    3.00	    2.77	 -318.02	    1.36
     83.5195	    6.00	    2.83	 -315.08	    1.36
     83.5530	    5.00	    2.90	 -316.15	    1.36
     83.5864	    9.00	    2.98	 -312.23	    1.36
     83.6198	    4.00	    3.07	 -317.32	    1.36
     83.6532	    7.00	    3.17	 -314.42	    1.36
     83.6866	    6.00	    3.29	 -315.54	    1.36
     83.7201	    3.00	    3.44	 -318.69	    1.37
     83.7535	   12.00	    3.61	 -309.86	    1.37
     83.7869	    6.00	    3.82	 -316.07	    1.37
     83.8203	    7.00	    4.08	 -315.33	    1.37
     83.8538	   11.00	    4.39	 -311.64	    1.37
     83.8872	   11.00	    4.78	 -312.03	    1.37
     83.9206	    2.00	    5.29	 -321.54	    1.37
     83.9540	    9.00	    5.96	 -315.21	    1.37
     83.9874	   11.00	    6.90	 -314.15	    1.37
     84.0209	   19.00	    8.32	 -307.57	    1.37
     84.0543	   16.00	   10.61	 -312.86	    1.38
     84.0877	   16.00	   14.40	 -316.65	    1.38
     84.1211	   18.00	   20.40	 -320.65	    1.38
     84.1546	   29.00	   29.17	 -318.42	    1.38
     84.1880	   52.00	   40.44	 -306.69	    1.38
     84.2214	   42.00	   51.87	 -328.12	    1.38
     84.2548	   56.00	   58.09	 -320.34	    1.38
     84.2883	   54.00	   54.87	 -319.12	    1.38
     84.3217	   33.00	   45.63	 -330.88	    1.38
     84.3551	   47.00	   36.53	 -307.78	    1.39
     84.3885	   27.00	   30.83	 -322.08	    1.39
     84.4219	   39.00	   29.25	 -308.50	    1.39
     84.4554	   32.00	   30.94	 -317.19	    1.39
     84.4888	   35.00	   33.41	 -316.66	    1.39
     84.5222	   28.00	   33.08	 -323.33	    1.39
     84.5556	   37.00	   28.61	 -309.86	    1.39
     84.5891	   24.00	   22.33	 -316.58	    1.39
     84.6225	   28.00	   16.57	 -306.82	    1.40
     84.6559	    7.00	   12.20	 -323.45	    1.40
     84.6893	   15.00	    9.23	 -312.48	    1.40
     84.7227	    5.00	    7.35	 -320.60	    1.40
     84.7562	    6.00	    6.17	 -318.42	    1.40
     84.7896	    9.00	    5.41	 -314.66	    1.40
     84.8230	    3.00	    4.89	 -320.14	    1.40
     84.8564	    6.00	    4.51	 -316.76	    1.40
     84.8899	    7.00	    4.22	 -315.47	    1.41
     84.9233	   11.00	    3.99	 -311.24	    1.41
     84.9567	   13.00	    3.81	 -309.06	    1.41
     84.9901	    5.00	    3.67	 -316.92	    1.41
     85.0235	   11.00	    3.56	 -310.81	    1.41
     85.0570	    6.00	    3.47	 -315.72	    1.41
     85.0904	    3.00	    3.41	 -318.66	    1.41
     85.1238	    5.00	    3.36	 -316.61	    1.42
     85.1572	    5.00	    3.33	 -316.58	    1.42
     85.1907	    4.00	    3.32	 -317.57	    1.42
     85.2241	    2.00	    3.33	 -319.58	    1.42
     85.2575	    6.00	    3.36	 -315.61	    1.42
     85.2909	    4.00	    3.40	 -317.65	    1.42
     85.3244	    6.00	    3.47	 -315.72	    1.42
     85.3578	    8.00	    3.58	 -313.83	    1.43
     85.3912	    9.00	    3.72	 -312.97	    1.43
     85.4246	    6.00	    3.94	 -316.19	    1.43
     85.4580	   15.00	    4.26	 -307.51	    1.43
     85.4915	   13.00	    4.79	 -310.04	    1.43
     85.5249	   18.00	    5.65	 -305.90	    1.43
     85.5583	   11.00	    7.02	 -314.27	    1.43
     85.5917	   27.00	    9.06	 -300.31	    1.44
     85.6252	   21.00	   11.77	 -309.02	    1.44
     85.6586	   15.00	   14.72	 -317.97	    1.44
     85.6920	   16.00	   16.78	 -319.03	    1.44
     85.7254	   13.00	   16.64	 -321.89	    1.44
     85.7589	   15.00	   14.62	 -317.87	    1.44
     85.7923	   17.00	   12.25	 -313.50	    1.45
     85.8257	   16.00	   10.56	 -312.81	    1.45
     85.8591	    7.00	    9.89	 -321.14	    1.45
     85.8925	   14.00	   10.15	 -314.40	    1.45
     85.9259	   11.00	   10.91	 -318.16	    1.45
     85.9594	   15.00	   11.39	 -314.64	    1.45
     85.9928	   14.00	   10.88	 -315.13	    1.46
     86.0262	   16.00	    9.61	 -311.86	    1.46
     86.0596	   11.00	    8.27	 -315.52	    1.46
     86.0931	   11.00	    7.24	 -314.49	    1.46
     86.1265	    7.00	    6.64	 -317.89	    1.46
     86.1599	    5.00	    6.41	 -319.66	    1.46
     86.1933	    8.00	    6.52	 -316.77	    1.47
     86.2268	   11.00	    6.92	 -314.17	    1.47
     86.2602	    6.00	    7.64	 -319.89	    1.47
     86.2936	   15.00	    8.83	 -312.08	    1.47
     86.3270	   12.00	   10.82	 -317.07	    1.47
     86.3604	   26.00	   14.12	 -306.37	    1.47
     86.3939	   24.00	   19.44	 -313.69	    1.48
     86.4273	   40.00	   27.36	 -305.61	    1.48
     86.4607	   37.00	   37.91	 -319.16	    1.48
     86.4941	   55.00	   49.59	 -312.84	    1.48
     86.5276	   57.00	   58.05	 -319.30	    1.48
     86.5610	   67.00	   57.95	 -309.20	    1.49
     86.5944	   49.00	   50.04	 -319.29	    1.49
     86.6278	   48.00	   40.30	 -310.55	    1.49
     86.6613	   35.00	   32.91	 -316.16	    1.49
     86.6947	   34.00	   29.43	 -313.68	    1.49
     86.7281	   46.00	   29.72	 -301.97	    1.49
     86.7615	   27.00	   32.29	 -323.54	    1.50
     86.7949	   36.00	   34.24	 -316.49	    1.50
     86.8284	   37.00	   32.44	 -313.69	    1.50
     86.8618	   28.00	   27.09	 -317.34	    1.50
     86.8952	   19.00	   20.85	 -320.10	    1.50
     86.9286	   17.00	   15.52	 -316.77	    1.51
     86.9621	   13.00	   11.57	 -316.82	    1.51
     86.9955	   13.00	    8.91	 -314.16	    1.51
     87.0289	    5.00	    7.21	 -320.46	    1.51
     87.0623	    2.00	    6.13	 -322.38	    1.51
     87.0957	   14.00	    5.41	 -309.66	    1.52
     87.1292	    5.00	    4.90	 -318.15	    1.52
     87.1626	    5.00	    4.51	 -317.76	    1.52
     87.1960	    9.00	    4.21	 -313.46	    1.52
     87.2294	    6.00	    3.97	 -316.22	    1.52
     87.2629	    5.00	    3.76	 -317.01	    1.53
     87.2963	    7.00	    3.60	 -314.85	    1.53
     87.3297	    3.00	    3.46	 -318.71	    1.53
     87.3631	   12.00	    3.34	 -309.59	    1.53
     87.3965	    3.00	    3.24	 -318.49	    1.53
     87.4300	    4.00	    3.15	 -317.40	    1.54
     87.4634	    2.00	    3.07	 -319.32	    1.54
     87.4968	    3.00	    3.01	 -318.26	    1.54
     87.5302	    4.00	    2.95	 -317.20	    1.54
     87.5637	    3.00	    2.90	 -318.15	    1.55
     87.5971	    6.00	    2.86	 -315.11	    1.55
     87.6305	    6.00	    2.82	 -315.07	    1.55
     87.6639	    2.00	    2.78	 -319.03	    1.55
     87.6974	    5.00	    2.75	 -316.00	    1.55
     87.7308	    3.00	    2.72	 -317.97	    1.56
     87.7642	    2.00	    2.67	 -318.92	    1.56
     87.7976	    8.00	    2.65	 -312.90	    1.56
     87.8310	    3.00	    2.63	 -317.88	    1.56
     87.8645	    2.00	    2.62	 -318.87	    1.56
     87.8979	    4.00	    2.60	 -316.85	    1.57
     87.9313	    4.00	    2.59	 -316.84	    1.57
     87.9647	    4.00	    2.58	 -316.83	    1.57
     87.9982	    3.00	    2.56	 -317.81	    1.57
     88.0316	    1.00	    2.55	 -319.80	    1.58
     88.0650	    4.00	    2.55	 -316.80	    1.58
     88.0984	    3.00	    2.54	 -317.79	    1.58
     88.1318	    6.00	    2.54	 -314.79	    1.58
     88.1653	    3.00	    2.54	 -317.79	    1.59
     88.1987	    1.00	    2.54	 -319.79	    1.59
     88.2321	    3.00	    2.54	 -317.79	    1.59
     88.2655	    4.00	    2.54	 -316.79	    1.59
     88.2990	    6.00	    2.54	 -314.79	    1.59
     88.3324	    3.00	    2.55	 -317.80	    1.60
     88.3658	    2.00	    2.55	 -318.80	    1.60
     88.3992	    2.00	    2.56	 -318.81	    1.60
     88.4326	    5.00	    2.56	 -315.81	    1.60
     88.4661	    2.00	    2.57	 -318.82	    1.61
     88.4995	    6.00	    2.58	 -314.83	    1.61
     88.5329	    2.00	    2.59	 -318.84	    1.61
     88.5663	    3.00	    2.60	 -317.85	    1.61
     88.5998	    5.00	    2.61	 -315.86	    1.62
     88.6332	    2.00	    2.63	 -318.88	    1.62
     88.6666	    7.00	    2.64	 -313.89	    1.62
     88.7000	    5.00	    2.66	 -315.91	    1.62
     88.7334	    2.00	    2.67	 -318.92	    1.63
     88.7669	    7.00	    2.69	 -313.94	    1.63
     88.8003	    4.00	    2.71	 -316.96	    1.63
     88.8337	    7.00	    2.74	 -313.99	    1.63
     88.8671	    1.00	    2.76	 -320.01	    1.64
     88.9006	    2.00	    2.79	 -319.04	    1.64
     88.9340	    8.00	    2.82	 -313.07	    1.64
     88.9674	    4.00	    2.85	 -317.10	    1.64
     89.0008	    4.00	    2.88	 -317.13	    1.65
     89.0343	    0.00	    2.92	 -321.17	    1.65
     89.0677	    6.00	    2.96	 -315.21	    1.65
     89.1011	    1.00	    3.00	 -320.25	    1.65
     89.1345	    3.00	    3.05	 -318.30	    1.66
     89.1679	    7.00	    3.10	 -314.35	    1.66
     89.2014	    3.00	    3.16	 -318.41	    1.66
     89.2348	    4.00	    3.21	 -317.46	    1.67
     89.2682	    4.00	    3.28	 -317.53	    1.67
     89.3016	    7.00	    3.36	 -314.61	    1.67
     89.3351	    5.00	    3.44	 -316.69	    1.67
     89.3685	    5.00	    3.54	 -316.79	    1.68
     89.4019	    1.00	    3.65	 -320.90	    1.68
     89.4353	    5.00	    3.76	 -317.01	    1.68
     89.4688	    5.00	    3.90	 -317.15	    1.68
     89.5022	    3.00	    4.05	 -319.30	    1.69
     89.5356	    6.00	    4.23	 -316.48	    1.69
     89.5690	    6.00	    4.43	 -316.68	    1.69
     89.6024	    8.00	    4.67	 -314.92	    1.69
     89.6359	    6.00	    4.94	 -317.19	    1.70
     89.6693	    3.00	    5.27	 -320.52	    1.70
     89.7027	    6.00	    5.67	 -317.92	    1.70
     89.7361	    4.00	    6.16	 -320.41	    1.71
     89.7695	    5.00	    6.75	 -320.00	    1.71
     89.8030	   12.00	    7.46	 -313.71	    1.71
     89.8364	   12.00	    8.32	 -314.57	    1.71
     89.8698	    4.00	    9.34	 -323.59	    1.72
     89.9032	    8.00	   10.65	 -320.90	    1.72
     89.9367	   16.00	   12.47	 -314.72	    1.72
     89.9701	   17.00	   15.24	 -316.49	    1.73
     90.0035	   25.00	   19.65	 -312.90	    1.73
     90.0369	   15.00	   26.68	 -329.93	    1.73
     90.0703	   40.00	   37.47	 -315.72	    1.73
     90.1038	   64.00	   52.93	 -307.18	    1.74
     90.1372	   69.00	   72.64	 -321.89	    1.74
     90.1706	  101.00	   93.31	 -310.56	    1.74
     90.2040	  121.00	  106.74	 -303.99	    1.75
     90.2375	   89.00	  104.62	 -333.87	    1.75
     90.2709	   79.00	   89.59	 -328.84	    1.75
     90.3043	   76.00	   71.80	 -314.05	    1.75
     90.3377	   67.00	   58.17	 -309.42	    1.76
     90.3712	   55.00	   51.21	 -314.46	    1.76
     90.4046	   31.00	   50.86	 -338.11	    1.76
     90.4380	   56.00	   55.26	 -317.51	    1.77
     90.4714	   55.00	   60.37	 -323.62	    1.77
     90.5048	   67.00	   60.51	 -311.76	    1.77
     90.5383	   48.00	   53.32	 -323.57	    1.78
     90.5717	   54.00	   42.39	 -306.64	    1.78
     90.6051	   24.00	   31.82	 -326.07	    1.78
     90.6385	   24.00	   23.41	 -317.66	    1.79
     90.6720	   23.00	   17.42	 -312.67	    1.79
     90.7054	   12.00	   13.42	 -319.67	    1.79
     90.7388	    6.00	   10.83	 -323.08	    1.79
     90.7722	   14.00	    9.14	 -313.39	    1.80
     90.8056	    6.00	    7.97	 -320.22	    1.80
     90.8391	    8.00	    7.12	 -317.37	    1.80
     90.8725	    9.00	    6.47	 -315.72	    1.81
     90.9059	   12.00	    5.94	 -312.19	    1.81
     90.9393	   11.00	    5.52	 -312.77	    1.81
     90.9728	    8.00	    5.17	 -315.42	    1.82
     91.0062	    8.00	    4.87	 -315.12	    1.82
     91.0396	   11.00	    4.62	 -311.87	    1.82
     91.0730	    6.00	    4.41	 -316.66	    1.83
     91.1064	    9.00	    4.22	 -313.47	    1.83
     91.1399	    4.00	    4.06	 -318.31	    1.83
     91.1733	    4.00	    3.93	 -318.18	    1.84
     91.2067	    8.00	    3.80	 -314.05	    1.84
     91.2401	   11.00	    3.70	 -310.95	    1.84
     91.2736	    6.00	    3.60	 -315.85	    1.85
     91.3070	    5.00	    3.52	 -316.77	    1.85
     91.3404	    5.00	    3.44	 -316.69	    1.85
     91.3738	    1.00	    3.37	 -320.62	    1.86
     91.4073	    4.00	    3.31	 -317.56	    1.86
     91.4407	    8.00	    3.26	 -313.51	    1.86
     91.4741	    2.00	    3.21	 -319.46	    1.87
     91.5075	    5.00	    3.16	 -316.41	    1.87
     91.5409	    2.00	    3.12	 -319.37	    1.87
     91.5744	    7.00	    3.09	 -314.34	    1.88
     91.6078	    5.00	    3.05	 -316.30	    1.88
     91.6412	    6.00	    3.07	 -315.32	    1.88
     91.6746	    3.00	    3.04	 -318.29	    1.89
     91.7081	    6.00	    3.02	 -315.27	    1.89
     91.7415	    6.00	    3.00	 -315.25	    1.89
     91.7749	    4.00	    2.98	 -317.23	    1.90
     91.8083	    1.00	    2.96	 -320.21	    1.90
     91.8418	    7.00	    2.95	 -314.20	    1.90
     91.8752	    4.00	    2.93	 -317.18	    1.91
     91.9086	    5.00	    2.92	 -316.17	    1.91
     91.9420	    2.00	    2.93	 -319.18	    1.91
     91.9754	    1.00	    2.93	 -320.18	    1.92
     92.0089	    3.00	    2.92	 -318.17	    1.92
     92.0423	    3.00	    2.91	 -318.16	    1.92
     92.0757	    3.00	    2.91	 -318.16	    1.93
     92.1091	    4.00	    2.90	 -317.15	    1.93
     92.1425	    3.00	    2.90	 -318.15	    1.93
     92.1760	    2.00	    2.90	 -319.15	    1.94
     92.2094	    4.00	    2.90	 -317.15	    1.94
     92.2428	    4.00	    2.90	 -317.15	    1.94
     92.2762	    4.00	    2.91	 -317.16	    1.95
     92.3097	    4.00	    2.91	 -317.16	    1.95
     92.3431	    3.00	    2.92	 -318.17	    1.96
     92.3765	    3.00	    2.92	 -318.17	    1.96
     92.4099	    2.00	    2.93	 -319.18	    1.96
     92.4433	    1.00	    2.95	 -320.20	    1.97
     92.4768	    4.00	    2.96	 -317.21	    1.97
     92.5102	    3.00	    2.98	 -318.23	    1.97
     92.5436	    3.00	    3.00	 -318.25	    1.98
     92.5770	    1.00	    3.02	 -320.27	    1.98
     92.6105	    4.00	    3.05	 -317.30	    1.98
     92.6439	    7.00	    3.08	 -314.33	    1.99
     92.6773	    4.00	    3.12	 -317.37	    1.99
     92.7107	    1.00	    3.17	 -320.42	    2.00
     92.7442	    2.00	    3.22	 -319.47	    2.00
     92.7776	    6.00	    3.29	 -315.54	    2.00
     92.8110	    8.00	    3.38	 -313.63	    2.01
     92.8444	    3.00	    3.49	 -318.74	    2.01
     92.8778	    3.00	    3.64	 -318.89	    2.01
     92.9113	   12.00	    3.84	 -310.09	    2.02
     92.9447	    4.00	    4.15	 -318.40	    2.02
     92.9781	   12.00	    4.62	 -310.87	    2.03
     93.0115	    4.00	    5.35	 -319.60	    2.03
     93.0450	    4.00	    6.46	 -320.71	    2.03
     93.0784	   11.00	    8.00	 -315.25	    2.04
     93.1118	    8.00	    9.92	 -320.17	    2.04
     93.1452	   12.00	   11.91	 -318.16	    2.04
     93.1786	   14.00	   13.20	 -317.45	    2.05
     93.2121	   18.00	   13.03	 -313.28	    2.05
     93.2455	    9.00	   11.61	 -320.86	    2.06
     93.2789	   13.00	    9.87	 -315.12	    2.06
     93.3123	    3.00	    8.48	 -323.73	    2.06
     93.3458	    9.00	    7.69	 -316.94	    2.07
     93.3792	    6.00	    7.53	 -319.78	    2.07
     93.4126	   15.00	    7.87	 -311.12	    2.08
     93.4460	    9.00	    8.44	 -317.69	    2.08
     93.4794	    9.00	    8.76	 -318.01	    2.08
     93.5129	    6.00	    8.41	 -320.66	    2.09
     93.5463	    9.00	    7.49	 -316.74	    2.09
     93.5797	    7.00	    6.43	 -317.68	    2.09
     93.6131	    6.00	    5.51	 -317.76	    2.10
     93.6466	    5.00	    4.81	 -318.06	    2.10
     93.6800	    4.00	    4.33	 -318.58	    2.11
     93.7134	    4.00	    4.01	 -318.26	    2.11
     93.7468	    7.00	    3.81	 -315.06	    2.11
     93.7803	    3.00	    3.68	 -318.93	    2.12
     93.8137	    3.00	    3.53	 -318.78	    2.12
     93.8471	    9.00	    3.48	 -312.73	    2.13
     93.8805	    4.00	    3.45	 -317.70	    2.13
     93.9139	    6.00	    3.42	 -315.67	    2.13
     93.9474	    0.00	    3.40	 -321.65	    2.14
     93.9808	    3.00	    3.39	 -318.64	    2.14
     94.0142	    3.00	    3.39	 -318.64	    2.15
     94.0476	    5.00	    3.40	 -316.65	    2.15
     94.0811	    5.00	    3.41	 -316.66	    2.16
     94.1145	    3.00	    3.39	 -318.64	    2.16
     94.1479	    2.00	    3.41	 -319.66	    2.16
     94.1813	    4.00	    3.44	 -317.69	    2.17
     94.2148	    6.00	    3.47	 -315.72	    2.17
     94.2482	    3.00	    3.50	 -318.75	    2.18
     94.2816	    5.00	    3.54	 -316.79	    2.18
     94.3150	    7.00	    3.58	 -314.83	    2.18
     94.3484	    6.00	    3.63	 -315.88	    2.19
     94.3819	    7.00	    3.69	 -314.94	    2.19
     94.4153	    4.00	    3.75	 -318.00	    2.20
     94.4487	    4.00	    3.82	 -318.07	    2.20
     94.4821	    5.00	    3.89	 -317.14	    2.21
     94.5155	    3.00	    3.98	 -319.23	    2.21
     94.5490	    6.00	    4.08	 -316.33	    2.21
     94.5824	    6.00	    4.19	 -316.44	    2.22
     94.6158	    0.00	    4.31	 -322.56	    2.22
     94.6492	    4.00	    4.46	 -318.71	    2.23
     94.6827	    8.00	    4.62	 -314.87	    2.23
     94.7161	    6.00	    4.81	 -317.06	    2.24
     94.7495	    4.00	    5.03	 -319.28	    2.24
     94.7829	    8.00	    5.28	 -315.53	    2.24
     94.8163	    9.00	    5.58	 -314.83	    2.25
     94.8498	    8.00	    5.94	 -316.19	    2.25
     94.8832	   11.00	    6.37	 -313.62	    2.26
     94.9166	   17.00	    6.90	 -308.15	    2.26
     94.9500	    8.00	    7.55	 -317.80	    2.27
     94.9835	   14.00	    8.39	 -312.64	    2.27
     95.0169	    8.00	    9.49	 -319.74	    2.27
     95.0503	   14.00	   11.04	 -315.29	    2.28
     95.0837	   13.00	   13.32	 -318.57	    2.28
     95.1172	   16.00	   16.82	 -319.07	    2.29
     95.1506	   17.00	   22.21	 -323.46	    2.29
     95.1840	   36.00	   30.23	 -312.48	    2.30
     95.2174	   42.00	   41.38	 -317.63	    2.30
     95.2508	   64.00	   55.41	 -309.66	    2.31
     95.2843	   76.00	   70.25	 -312.50	    2.31
     95.3177	   95.00	   80.69	 -303.94	    2.31
     95.3511	   81.00	   80.88	 -318.13	    2.32
     95.3845	   89.00	   71.27	 -300.52	    2.32
     95.4180	   69.00	   58.23	 -307.48	    2.33
     95.4514	   55.00	   47.00	 -310.25	    2.33
     95.4848	   33.00	   39.87	 -325.12	    2.34
     95.5182	   40.00	   37.31	 -315.56	    2.34
     95.5517	   38.00	   38.77	 -319.02	    2.35
     95.5851	   52.00	   42.79	 -309.04	    2.35
     95.6185	   55.00	   46.56	 -309.81	    2.36
     95.6519	   48.00	   46.47	 -316.72	    2.36
     95.6853	   36.00	   41.33	 -323.58	    2.36
     95.7188	   29.00	   33.59	 -322.84	    2.37
     95.7522	   31.00	   26.02	 -313.27	    2.37
     95.7856	   17.00	   19.84	 -321.09	    2.38
     95.8190	   16.00	   15.30	 -317.55	    2.38
     95.8524	   13.00	   12.17	 -317.42	    2.39
     95.8859	    7.00	   10.09	 -321.34	    2.39
     95.9193	    5.00	    8.71	 -321.96	    2.40
     95.9527	    6.00	    7.76	 -320.01	    2.40
     95.9861	    5.00	    7.08	 -320.33	    2.41
     96.0196	    9.00	    6.56	 -315.81	    2.41
     96.0530	    3.00	    6.15	 -321.40	    2.42
     96.0864	    9.00	    5.82	 -315.07	    2.42
     96.1198	    2.00	    5.56	 -321.81	    2.42
     96.1533	    6.00	    5.34	 -317.59	    2.43
     96.1867	    4.00	    5.17	 -319.42	    2.43
     96.2201	    7.00	    5.03	 -316.28	    2.44
     96.2535	    9.00	    4.92	 -314.17	    2.44
     96.2869	    7.00	    4.83	 -316.08	    2.45
     96.3204	    3.00	    4.77	 -320.02	    2.45
     96.3538	    6.00	    4.74	 -316.99	    2.46
     96.3872	    6.00	    4.73	 -316.98	    2.46
     96.4206	    5.00	    4.75	 -318.00	    2.47
     96.4541	    1.00	    4.80	 -322.05	    2.47
     96.4875	    6.00	    4.91	 -317.16	    2.48
     96.5209	    3.00	    5.10	 -320.35	    2.48
     96.5543	    7.00	    5.43	 -316.68	    2.49
     96.5877	    5.00	    5.94	 -319.19	    2.49
     96.6212	    7.00	    6.74	 -317.99	    2.50
     96.6546	    8.00	    7.88	 -318.13	    2.50
     96.6880	   18.00	    9.37	 -309.62	    2.51
     96.7214	   18.00	   11.06	 -311.31	    2.51
     96.7549	   13.00	   12.48	 -317.73	    2.52
     96.7883	   14.00	   12.93	 -317.18	    2.52
     96.8217	   12.00	   12.15	 -318.40	    2.53
     96.8551	   15.00	   10.71	 -313.96	    2.53
     96.8885	   15.00	    9.30	 -312.55	    2.54
     96.9220	   13.00	    8.29	 -313.54	    2.54
     96.9554	    9.00	    7.79	 -317.04	    2.55
     96.9888	    5.00	    7.78	 -321.03	    2.55
     97.0222	   12.00	    8.16	 -314.41	    2.56
     97.0557	    4.00	    8.70	 -322.95	    2.56
     97.0891	   14.00	    9.04	 -313.29	    2.57
     97.1225	   14.00	    8.83	 -313.08	    2.57
     97.1559	    6.00	    8.16	 -320.41	    2.58
     97.1893	    8.00	    7.35	 -317.60	    2.58
     97.2228	    9.00	    6.65	 -315.90	    2.59
     97.2562	    7.00	    6.17	 -317.42	    2.59
     97.2896	   13.00	    5.90	 -311.15	    2.60
     97.3230	   13.00	    5.86	 -311.11	    2.60
     97.3565	    6.00	    6.04	 -318.29	    2.61
     97.3899	    6.00	    6.49	 -318.74	    2.61
     97.4233	    3.00	    7.29	 -322.54	    2.62
     97.4567	    7.00	    8.56	 -319.81	    2.62
     97.4902	    9.00	   10.43	 -319.68	    2.63
     97.5236	   19.00	   12.91	 -312.16	    2.63
     97.5570	   14.00	   15.81	 -320.06	    2.64
     97.5904	   15.00	   18.45	 -321.70	    2.64
     97.6238	   16.00	   19.64	 -321.89	    2.65
     97.6573	   26.00	   18.67	 -310.92	    2.65
     97.6907	   17.00	   16.28	 -317.53	    2.66
     97.7241	   14.00	   13.72	 -317.97	    2.66
     97.7575	    9.00	   11.72	 -320.97	    2.67
     97.7910	    7.00	   10.57	 -321.82	    2.67
     97.8244	    7.00	   10.28	 -321.53	    2.68
     97.8578	   12.00	   10.71	 -316.96	    2.68
     97.8912	   12.00	   11.56	 -317.81	    2.69
     97.9247	    9.00	   12.28	 -321.53	    2.69
     97.9581	   19.00	   12.19	 -311.44	    2.70
     97.9915	   13.00	   11.12	 -316.37	    2.71
     98.0249	   11.00	    9.58	 -316.83	    2.71
     98.0583	   11.00	    8.08	 -315.33	    2.72
     98.0918	   12.00	    6.85	 -313.10	    2.72
     98.1252	    7.00	    5.94	 -317.19	    2.73
     98.1586	    9.00	    5.30	 -314.55	    2.73
     98.1920	    5.00	    4.87	 -318.12	    2.74
     98.2254	    5.00	    4.57	 -317.82	    2.74
     98.2589	    1.00	    4.37	 -321.62	    2.75
     98.2923	    2.00	    4.23	 -320.48	    2.75
     98.3257	    3.00	    4.12	 -319.37	    2.76
     98.3591	    5.00	    4.03	 -317.28	    2.76
     98.3926	    3.00	    3.96	 -319.21	    2.77
     98.4260	    6.00	    3.90	 -316.15	    2.78
     98.4594	    6.00	    3.86	 -316.11	    2.78
     98.4928	    5.00	    3.83	 -317.08	    2.79
     98.5262	    2.00	    3.81	 -320.06	    2.79
     98.5597	    1.00	    3.81	 -321.06	    2.80
     98.5931	    4.00	    3.81	 -318.06	    2.80
     98.6265	    1.00	    3.83	 -321.08	    2.81
     98.6599	    5.00	    3.86	 -317.11	    2.81
     98.6934	    2.00	    3.88	 -320.13	    2.82
     98.7268	    4.00	    3.87	 -318.12	    2.82
     98.7602	    4.00	    3.83	 -318.08	    2.83
     98.7936	    4.00	    3.78	 -318.03	    2.84
     98.8271	    3.00	    3.73	 -318.98	    2.84
     98.8605	    4.00	    3.70	 -317.95	    2.85
     98.8939	    6.00	    3.68	 -315.93	    2.85
     98.9273	    3.00	    3.67	 -318.92	    2.86
     98.9607	    3.00	    3.67	 -318.92	    2.86
     98.9942	    2.00	    3.68	 -319.93	    2.87
     99.0276	    5.00	    3.69	 -316.94	    2.87
     99.0610	    7.00	    3.63	 -314.88	    2.88
     99.0944	    2.00	    3.61	 -319.86	    2.89
     99.1279	    6.00	    3.59	 -315.84	    2.89
     99.1613	    1.00	    3.56	 -320.81	    2.90
     99.1947	    1.00	    3.54	 -320.79	    2.90
     99.2281	    0.00	    3.53	 -321.78	    2.91
     99.2616	    4.00	    3.52	 -317.77	    2.91
     99.2950	    0.00	    3.52	 -321.77	    2.92
     99.3284	    2.00	    3.51	 -319.76	    2.93
     99.3618	    8.00	    3.51	 -313.76	    2.93
     99.3952	    5.00	    3.49	 -316.74	    2.94
     99.4287	    5.00	    3.49	 -316.74	    2.94
     99.4621	    7.00	    3.49	 -314.74	    2.95
     99.4955	    2.00	    3.49	 -319.74	    2.95
     99.5289	    4.00	    3.49	 -317.74	    2.96
     99.5623	    5.00	    3.49	 -316.74	    2.97
     99.5958	    3.00	    3.50	 -318.75	    2.97
     99.6292	    0.00	    3.50	 -321.75	    2.98
     99.6626	    4.00	    3.50	 -317.75	    2.98
     99.6960	    5.00	    3.50	 -316.75	    2.99
     99.7295	    8.00	    3.51	 -313.76	    2.99
     99.7629	    3.00	    3.51	 -318.76	    3.00
     99.7963	    1.00	    3.51	 -320.76	    3.01
     99.8297	    3.00	    3.52	 -318.77	    3.01
     99.8632	    6.00	    3.52	 -315.77	    3.02
     99.8966	    2.00	    3.53	 -319.78	    3.02
     99.9300	    2.00	    3.53	 -319.78	    3.03
     99.9634	    2.00	    3.53	 -319.78	    3.04
     99.9968	    2.00	    3.54	 -319.79	    3.04
     24.5336	        	        	        	        	       0	(  0  1  2)	  0  1
     24.5948	        	        	        	        	       0	(  0  1  2)	  0  2
     33.6346	        	        	        	        	       0	(  1  0  4)	  0  1
     33.7197	        	        	        	        	       0	(  1  0  4)	  0  2
     36.2336	        	        	        	        	       0	(  1  1  0)	  0  1
     36.3257	        	        	        	        	       0	(  1  1  0)	  0  2
     39.7836	        	        	        	        	       0	(  0  0  6)	  0  1
     39.8855	        	        	        	        	       0	(  0  0  6)	  0  2
     41.5145	        	        	        	        	       0	(  1  1  3)	  0  1
     41.6213	        	        	        	        	       0	(  1  1  3)	  0  2
     44.2312	        	        	        	        	       0	(  2  0  2)	  0  1
     44.3456	        	        	        	        	       0	(  2  0  2)	  0  2
     50.2494	        	        	        	        	       0	(  0  2  4)	  0  1
     50.3815	        	        	        	        	       0	(  0  2  4)	  0  2
     54.8757	        	        	        	        	       0	(  1  1  6)	  0  1
     55.0220	        	        	        	        	       0	(  1  1  6)	  0  2
     57.1323	        	        	        	        	       0	(  2  1  1)	  0  1
     57.2857	        	        	        	        	       0	(  2  1  1)	  0  2
     58.3828	        	        	        	        	       0	(  0  1  8)	  0  1
     58.4371	        	        	        	        	       0	(  1  2  2)	  0  1
     58.5402	        	        	        	        	       0	(  0  1  8)	  0  2
     58.5947	        	        	        	        	       0	(  1  2  2)	  0  2
     63.4890	        	        	        	        	       0	(  2  1  4)	  0  1
     63.6633	        	        	        	        	       0	(  2  1  4)	  0  2
     65.1392	        	        	        	        	       0	(  3  0  0)	  0  1
     65.3193	        	        	        	        	       0	(  3  0  0)	  0  2
     67.1340	        	        	        	        	       0	(  1  2  5)	  0  1
     67.3211	        	        	        	        	       0	(  1  2  5)	  0  2
     70.6590	        	        	        	        	       0	(  2  0  8)	  0  1
     70.8588	        	        	        	        	       0	(  2  0  8)	  0  2
     72.9583	        	        	        	        	       0	(  1  0 10)	  0  1
     73.1668	        	        	        	        	       0	(  1  0 10)	  0  2
     73.3588	        	        	        	        	       0	(  1  1  9)	  0  1
     73.5688	        	        	        	        	       0	(  1  1  9)	  0  2
     76.4395	        	        	        	        	       0	(  2  1  7)	  0  1
     76.6615	        	        	        	        	       0	(  2  1  7)	  0  2
     76.8572	        	        	        	        	       0	(  2  2  0)	  0  1
     77.0809	        	        	        	        	       0	(  2  2  0)	  0  2
     79.0904	        	        	        	        	       0	(  0  3  6)	  0  1
     79.0904	        	        	        	        	       0	(  3  0  6)	  0  1
     79.3232	        	        	        	        	       0	(  0  3  6)	  0  2
     79.3232	        	        	        	        	       0	(  3  0  6)	  0  2
     80.2357	        	        	        	        	       0	(  2  2  3)	  0  1
     80.4733	        	        	        	        	       0	(  2  2  3)	  0  2
     80.9893	        	        	        	        	       0	(  1  3  1)	  0  1
     81.2300	        	        	        	        	       0	(  1  3  1)	  0  2
     82.0582	        	        	        	        	       0	(  1  2  8)	  0  1
     82.1049	        	        	        	        	       0	(  3  1  2)	  0  1
     82.3036	        	        	        	        	       0	(  1  2  8)	  0  2
     82.3505	        	        	        	        	       0	(  3  1  2)	  0  2
     84.2580	        	        	        	        	       0	(  0  2 10)	  0  1
     84.5130	        	        	        	        	       0	(  0  2 10)	  0  2
     85.7040	        	        	        	        	       0	(  0  0 12)	  0  1
     85.9657	        	        	        	        	       0	(  0  0 12)	  0  2
     86.5419	        	        	        	        	       0	(  1  3  4)	  0  1
     86.8074	        	        	        	        	       0	(  1  3  4)	  0  2
     89.8544	        	        	        	        	       0	(  3  1  5)	  0  1
     90.1358	        	        	        	        	       0	(  3  1  5)	  0  2
     90.2145	        	        	        	        	       0	(  2  2  6)	  0  1
     90.4977	        	        	        	        	       0	(  2  2  6)	  0  2
     93.1895	        	        	        	        	       0	(  0  4  2)	  0  1
     93.4878	        	        	        	        	       0	(  0  4  2)	  0  2
     95.3330	        	        	        	        	       0	(  2  1 10)	  0  1
     95.6427	        	        	        	        	       0	(  2  1 10)	  0  2
     96.7815	        	        	        	        	       0	(  1  1 12)	  0  1
     97.0992	        	        	        	        	       0	(  1  1 12)	  0  2
     97.6240	        	        	        	        	       0	(  4  0  4)	  0  1
     97.9465	        	        	        	        	       0	(  4  0  4)	  0  2
     98.7154	        	        	        	        	       0	(  1  3  7)	  0  1
     99.0441	        	        	        	        	       0	(  1  3  7)	  0  2
    103.1645	        	        	        	        	       0	(  1  2 11)	  0  1
    103.2595	        	        	        	        	       0	(  3  2  1)	  0  1
    103.5204	        	        	        	        	       0	(  1  2 11)	  0  2
    103.6160	        	        	        	        	       0	(  3  2  1)	  0  2
    104.3480	        	        	        	        	       0	(  3  1  8)	  0  1
    104.3958	        	        	        	        	       0	(  2  3  2)	  0  1
    104.7116	        	        	        	        	       0	(  3  1  8)	  0  2
    104.7597	        	        	        	        	       0	(  2  3  2)	  0  2
    107.0142	        	        	        	        	       0	(  2  2  9)	  0  1
    107.3959	        	        	        	        	       0	(  2  2  9)	  0  2
    108.8579	        	        	        	        	       0	(  0  1 14)	  0  1
    109.0046	        	        	        	        	       0	(  3  2  4)	  0  1
    109.2527	        	        	        	        	       0	(  0  1 14)	  0  2
    109.4005	        	        	        	        	       0	(  3  2  4)	  0  2
    110.5844	        	        	        	        	       0	(  4  1  0)	  0  1
    110.9922	        	        	        	        	       0	(  4  1  0)	  0  2
