 Cr2O3   Chi2:  2.4778  CELL:    4.95911   4.95911  13.59701   90.0000   90.0000  120.0000   SPGR: R -3 c                 TEMP:      0.00
  1   2394     1.54060     1.54439     0.00000     0.00571     0.00000    0
    88     0     1
       0.00000      20.00000
 2Theta	Yobs	Ycal	Yobs-Ycal	Backg	Posr	(hkl)	K
     20.0167	  33.000	  35.186	-210.436	  32.668
     20.0501	  38.000	  35.162	-205.412	  32.644
     20.0836	  42.000	  35.138	-201.388	  32.619
     20.1170	  54.000	  35.113	-189.363	  32.595
     20.1504	  39.000	  35.089	-204.339	  32.571
     20.1838	  39.000	  35.065	-204.315	  32.547
     20.2172	  54.000	  35.041	-189.291	  32.522
     20.2507	  34.000	  35.016	-209.266	  32.498
     20.2841	  32.000	  34.992	-211.242	  32.474
     20.3175	  46.000	  34.968	-197.218	  32.450
     20.3509	  33.000	  34.944	-210.194	  32.426
     20.3844	  48.000	  34.920	-195.170	  32.401
     20.4178	  35.000	  34.896	-208.146	  32.377
     20.4512	  34.000	  34.871	-209.121	  32.353
     20.4846	  39.000	  34.847	-204.097	  32.329
     20.5181	  31.000	  34.823	-212.073	  32.305
     20.5515	  25.000	  34.799	-218.049	  32.281
     20.5849	  39.000	  34.775	-204.025	  32.257
     20.6183	  35.000	  34.751	-208.001	  32.233
     20.6517	  38.000	  34.727	-204.977	  32.209
     20.6852	  36.000	  34.703	-206.953	  32.185
     20.7186	  32.000	  34.679	-210.929	  32.160
     20.7520	  32.000	  34.655	-210.905	  32.136
     20.7854	  34.000	  34.631	-208.881	  32.112
     20.8189	  33.000	  34.607	-209.857	  32.088
     20.8523	  31.000	  34.583	-211.833	  32.064
     20.8857	  45.000	  34.559	-197.809	  32.040
     20.9191	  24.000	  34.535	-218.785	  32.016
     20.9525	  32.000	  34.511	-210.761	  31.993
     20.9860	  40.000	  34.487	-202.737	  31.969
     21.0194	  29.000	  34.463	-213.713	  31.945
     21.0528	  37.000	  34.439	-205.689	  31.921
     21.0862	  45.000	  34.415	-197.665	  31.897
     21.1197	  36.000	  34.391	-206.641	  31.873
     21.1531	  40.000	  34.367	-202.617	  31.849
     21.1865	  40.000	  34.343	-202.593	  31.825
     21.2199	  33.000	  34.320	-209.570	  31.801
     21.2533	  22.000	  34.296	-220.546	  31.777
     21.2868	  33.000	  34.272	-209.522	  31.754
     21.3202	  32.000	  34.248	-210.498	  31.730
     21.3536	  45.000	  34.224	-197.474	  31.706
     21.3870	  34.000	  34.200	-208.450	  31.682
     21.4205	  28.000	  34.177	-214.427	  31.658
     21.4539	  42.000	  34.350	-200.600	  31.635
     21.4873	  35.000	  34.331	-207.581	  31.611
     21.5207	  40.000	  34.410	-202.660	  31.587
     21.5541	  34.000	  34.393	-208.643	  31.563
     21.5876	  34.000	  34.377	-208.627	  31.539
     21.6210	  40.000	  34.360	-202.610	  31.516
     21.6544	  24.000	  34.344	-218.594	  31.492
     21.6878	  37.000	  34.328	-205.578	  31.468
     21.7213	  39.000	  34.313	-203.563	  31.445
     21.7547	  31.000	  34.298	-211.548	  31.421
     21.7881	  36.000	  34.283	-206.533	  31.397
     21.8215	  27.000	  34.268	-215.518	  31.374
     21.8550	  40.000	  34.254	-202.504	  31.350
     21.8884	  36.000	  34.240	-206.490	  31.326
     21.9218	  39.000	  34.227	-203.477	  31.303
     21.9552	  26.000	  34.214	-216.464	  31.279
     21.9886	  26.000	  34.201	-216.451	  31.256
     22.0221	  39.000	  34.189	-203.439	  31.232
     22.0555	  29.000	  34.178	-213.428	  31.208
     22.0889	  29.000	  34.167	-213.417	  31.185
     22.1223	  37.000	  34.156	-205.406	  31.161
     22.1558	  36.000	  34.146	-206.396	  31.138
     22.1892	  29.000	  34.137	-213.387	  31.114
     22.2226	  35.000	  34.128	-207.378	  31.091
     22.2560	  22.000	  34.120	-220.370	  31.067
     22.2894	  17.000	  34.112	-225.362	  31.044
     22.3229	  24.000	  34.106	-218.356	  31.020
     22.3563	  28.000	  34.100	-214.350	  30.997
     22.3897	  34.000	  34.095	-208.345	  30.973
     22.4231	  43.000	  34.091	-199.341	  30.950
     22.4566	  27.000	  34.088	-215.338	  30.926
     22.4900	  26.000	  34.085	-216.335	  30.903
     22.5234	  36.000	  34.084	-206.334	  30.880
     22.5568	  29.000	  34.085	-213.335	  30.856
     22.5902	  28.000	  34.086	-214.336	  30.833
     22.6237	  16.000	  34.089	-226.339	  30.809
     22.6571	  27.000	  34.093	-215.343	  30.786
     22.6905	  29.000	  34.098	-213.348	  30.763
     22.7239	  33.000	  34.106	-209.356	  30.739
     22.7574	  34.000	  34.115	-208.365	  30.716
     22.7908	  21.000	  34.126	-221.376	  30.693
     22.8242	  32.000	  34.139	-210.389	  30.669
     22.8576	  35.000	  34.154	-207.404	  30.646
     22.8911	  42.000	  34.171	-200.421	  30.623
     22.9245	  28.000	  34.192	-214.442	  30.600
     22.9579	  19.000	  34.215	-223.465	  30.576
     22.9913	  28.000	  34.241	-214.491	  30.553
     23.0247	  38.000	  34.270	-204.520	  30.530
     23.0582	  28.000	  34.303	-214.553	  30.507
     23.0916	  33.000	  34.340	-209.590	  30.483
     23.1250	  34.000	  34.382	-208.632	  30.460
     23.1584	  32.000	  34.428	-210.678	  30.437
     23.1919	  34.000	  34.479	-208.729	  30.414
     23.2253	  32.000	  34.537	-210.787	  30.391
     23.2587	  27.000	  34.600	-215.850	  30.368
     23.2921	  37.000	  34.671	-205.921	  30.344
     23.3255	  27.000	  34.750	-216.000	  30.321
     23.3590	  48.000	  34.838	-195.088	  30.298
     23.3924	  54.000	  34.936	-189.186	  30.275
     23.4258	  59.000	  35.045	-184.295	  30.252
     23.4592	  62.000	  35.166	-181.416	  30.229
     23.4927	  52.000	  35.302	-191.552	  30.206
     23.5261	  62.000	  35.454	-181.704	  30.183
     23.5595	  57.000	  35.624	-186.874	  30.160
     23.5929	  45.000	  35.816	-199.066	  30.137
     23.6263	  46.000	  36.031	-198.281	  30.114
     23.6598	  52.000	  36.275	-192.525	  30.091
     23.6932	  27.000	  36.551	-217.801	  30.068
     23.7266	  48.000	  36.866	-197.116	  30.045
     23.7600	  39.000	  37.225	-206.475	  30.022
     23.7935	  53.000	  37.637	-192.887	  29.999
     23.8269	  39.000	  38.113	-207.363	  29.976
     23.8603	  45.000	  38.665	-201.915	  29.953
     23.8937	  45.000	  39.310	-202.560	  29.930
     23.9271	  38.000	  40.068	-210.318	  29.907
     23.9606	  38.000	  40.966	-211.216	  29.884
     23.9940	  36.000	  42.041	-214.291	  29.861
     24.0274	  66.000	  43.340	-185.590	  29.838
     24.0608	  54.000	  44.926	-199.176	  29.816
     24.0943	  56.000	  46.890	-199.140	  29.793
     24.1277	  31.000	  49.358	-226.608	  29.770
     24.1611	  40.000	  52.515	-220.765	  29.747
     24.1945	  79.000	  56.640	-185.890	  29.724
     24.2280	  69.000	  62.210	-201.460	  29.701
     24.2614	  84.000	  70.171	-194.421	  29.679
     24.2948	  80.000	  82.662	-210.912	  29.656
     24.3282	 105.000	 104.431	-207.681	  29.633
     24.3616	 127.000	 144.359	-225.609	  29.610
     24.3951	 201.000	 214.819	-222.069	  29.587
     24.4285	 331.000	 325.416	-202.666	  29.565
     24.4619	 472.000	 467.577	-203.827	  29.542
     24.4953	 634.000	 587.642	-161.892	  29.519
     24.5288	 611.000	 609.925	-207.175	  29.497
     24.5622	 529.000	 535.357	-214.607	  29.474
     24.5956	 378.000	 408.072	-238.322	  29.451
     24.6290	 249.000	 281.004	-240.254	  29.429
     24.6624	 169.000	 187.496	-226.746	  29.406
     24.6959	 121.000	 129.368	-216.618	  29.383
     24.7293	 108.000	  96.330	-196.579	  29.361
     24.7627	  87.000	  77.860	-199.110	  29.338
     24.7961	  58.000	  66.908	-217.158	  29.315
     24.8296	  64.000	  59.746	-203.996	  29.293
     24.8630	  57.000	  54.654	-205.904	  29.270
     24.8964	  59.000	  50.841	-200.091	  29.248
     24.9298	  58.000	  47.894	-198.144	  29.225
     24.9632	  52.000	  45.568	-201.818	  29.202
     24.9967	  50.000	  43.698	-201.948	  29.180
     25.0301	  47.000	  42.173	-203.423	  29.157
     25.0635	  38.000	  40.912	-211.162	  29.135
     25.0969	  59.000	  39.857	-189.107	  29.112
     25.1304	  44.000	  38.964	-203.214	  29.090
     25.1638	  42.000	  38.203	-204.453	  29.067
     25.1972	  36.000	  37.547	-209.797	  29.045
     25.2306	  34.000	  36.978	-211.228	  29.022
     25.2640	  40.000	  36.480	-204.730	  29.000
     25.2975	  40.000	  36.042	-204.292	  28.978
     25.3309	  35.000	  35.653	-208.903	  28.955
     25.3643	  22.000	  35.308	-221.558	  28.933
     25.3977	  34.000	  34.998	-209.248	  28.910
     25.4312	  35.000	  34.719	-207.969	  28.888
     25.4646	  37.000	  34.467	-205.717	  28.866
     25.4980	  29.000	  34.238	-213.488	  28.843
     25.5314	  48.000	  34.029	-194.279	  28.821
     25.5649	  40.000	  33.837	-202.087	  28.799
     25.5983	  26.000	  33.661	-215.911	  28.776
     25.6317	  29.000	  33.499	-212.749	  28.754
     25.6651	  39.000	  33.349	-202.599	  28.732
     25.6985	  42.000	  33.209	-199.459	  28.709
     25.7320	  32.000	  33.079	-209.329	  28.687
     25.7654	  22.000	  32.958	-219.208	  28.665
     25.7988	  34.000	  32.844	-207.094	  28.643
     25.8322	  23.000	  32.737	-217.987	  28.620
     25.8657	  33.000	  32.636	-207.886	  28.598
     25.8991	  29.000	  32.542	-211.792	  28.576
     25.9325	  33.000	  32.452	-207.702	  28.554
     25.9659	  19.000	  32.366	-221.616	  28.531
     25.9993	  43.000	  32.285	-197.535	  28.509
     26.0328	  34.000	  32.208	-206.458	  28.487
     26.0662	  25.000	  32.135	-215.385	  28.465
     26.0996	  25.000	  32.064	-215.314	  28.443
     26.1330	  33.000	  31.997	-207.247	  28.421
     26.1665	  32.000	  31.932	-208.182	  28.398
     26.1999	  29.000	  31.870	-211.120	  28.376
     26.2333	  29.000	  31.810	-211.060	  28.354
     26.2667	  46.000	  31.753	-194.003	  28.332
     26.3001	  32.000	  31.697	-207.947	  28.310
     26.3336	  33.000	  31.643	-206.893	  28.288
     26.3670	  34.000	  31.591	-205.841	  28.266
     26.4004	  24.000	  31.541	-215.791	  28.244
     26.4338	  33.000	  31.492	-206.742	  28.222
     26.4673	  33.000	  31.444	-206.694	  28.200
     26.5007	  34.000	  31.398	-205.648	  28.178
     26.5341	  26.000	  31.353	-213.603	  28.156
     26.5675	  29.000	  31.309	-210.559	  28.134
     26.6010	  29.000	  31.266	-210.516	  28.112
     26.6344	  31.000	  31.224	-208.474	  28.090
     26.6678	  28.000	  31.183	-211.433	  28.068
     26.7012	  45.000	  31.143	-194.393	  28.046
     26.7346	  23.000	  31.104	-216.354	  28.024
     26.7681	  35.000	  31.065	-204.315	  28.002
     26.8015	  27.000	  31.027	-212.277	  27.980
     26.8349	  27.000	  30.990	-212.240	  27.958
     26.8683	  33.000	  30.954	-206.204	  27.936
     26.9018	  22.000	  30.918	-217.168	  27.915
     26.9352	  31.000	  30.883	-208.133	  27.893
     26.9686	  26.000	  30.848	-213.098	  27.871
     27.0020	  35.000	  30.814	-204.064	  27.849
     27.0354	  31.000	  30.780	-208.030	  27.827
     27.0689	  22.000	  30.747	-216.997	  27.805
     27.1023	  33.000	  30.715	-205.965	  27.784
     27.1357	  23.000	  30.682	-215.932	  27.762
     27.1691	  23.000	  30.650	-215.900	  27.740
     27.2026	  29.000	  30.619	-209.869	  27.718
     27.2360	  37.000	  30.588	-201.838	  27.697
     27.2694	  21.000	  30.557	-217.807	  27.675
     27.3028	  28.000	  30.527	-210.777	  27.653
     27.3362	  17.000	  30.497	-221.747	  27.631
     27.3697	  32.000	  30.467	-206.717	  27.610
     27.4031	  26.000	  30.437	-212.687	  27.588
     27.4365	  31.000	  30.195	-207.445	  27.566
     27.4699	  37.000	  30.063	-201.313	  27.545
     27.5034	  31.000	  30.041	-207.291	  27.523
     27.5368	  42.000	  30.020	-196.270	  27.501
     27.5702	  34.000	  29.998	-204.248	  27.480
     27.6036	  31.000	  29.976	-207.226	  27.458
     27.6371	  26.000	  29.955	-212.205	  27.436
     27.6705	  46.000	  29.933	-192.183	  27.415
     27.7039	  33.000	  29.912	-205.161	  27.393
     27.7373	  32.000	  29.890	-206.140	  27.372
     27.7707	  33.000	  29.868	-205.118	  27.350
     27.8042	  32.000	  29.847	-206.097	  27.329
     27.8376	  25.000	  29.825	-213.075	  27.307
     27.8710	  34.000	  29.804	-204.054	  27.285
     27.9044	  27.000	  29.782	-211.032	  27.264
     27.9379	  31.000	  29.761	-207.011	  27.242
     27.9713	  33.000	  29.739	-204.989	  27.221
     28.0047	  36.000	  29.718	-201.968	  27.199
     28.0381	  31.000	  29.696	-206.946	  27.178
     28.0715	  33.000	  29.675	-204.925	  27.157
     28.1050	  27.000	  29.653	-210.903	  27.135
     28.1384	  38.000	  29.632	-199.882	  27.114
     28.1718	  29.000	  29.610	-208.860	  27.092
     28.2052	  25.000	  29.589	-212.839	  27.071
     28.2387	  36.000	  29.568	-201.818	  27.049
     28.2721	  27.000	  29.546	-210.796	  27.028
     28.3055	  28.000	  29.525	-209.775	  27.007
     28.3389	  37.000	  29.504	-200.754	  26.985
     28.3723	  32.000	  29.482	-205.732	  26.964
     28.4058	  35.000	  29.461	-202.711	  26.943
     28.4392	  32.000	  29.440	-205.690	  26.921
     28.4726	  23.000	  29.418	-214.668	  26.900
     28.5060	  33.000	  29.397	-204.647	  26.879
     28.5395	  35.000	  29.376	-202.626	  26.857
     28.5729	  37.000	  29.354	-200.604	  26.836
     28.6063	  27.000	  29.333	-210.583	  26.815
     28.6397	  29.000	  29.312	-208.562	  26.793
     28.6731	  38.000	  29.291	-199.541	  26.772
     28.7066	  36.000	  29.269	-201.519	  26.751
     28.7400	  27.000	  29.248	-210.498	  26.730
     28.7734	  29.000	  29.227	-208.477	  26.709
     28.8068	  31.000	  29.206	-206.456	  26.687
     28.8403	  37.000	  29.184	-200.434	  26.666
     28.8737	  36.000	  29.163	-201.413	  26.645
     28.9071	  28.000	  29.142	-209.392	  26.624
     28.9405	  28.000	  29.121	-209.371	  26.603
     28.9740	  32.000	  29.100	-205.350	  26.582
     29.0074	  33.000	  29.079	-204.329	  26.560
     29.0408	  37.000	  29.058	-200.308	  26.539
     29.0742	  37.000	  29.036	-200.286	  26.518
     29.1076	  28.000	  29.015	-209.265	  26.497
     29.1411	  38.000	  28.994	-199.244	  26.476
     29.1745	  38.000	  28.973	-199.223	  26.455
     29.2079	  32.000	  28.952	-205.202	  26.434
     29.2413	  45.000	  28.931	-192.181	  26.413
     29.2748	  35.000	  28.910	-202.160	  26.392
     29.3082	  43.000	  28.889	-194.139	  26.371
     29.3416	  32.000	  28.868	-205.118	  26.350
     29.3750	  38.000	  28.847	-199.097	  26.329
     29.4084	  37.000	  28.826	-200.076	  26.308
     29.4419	  34.000	  28.805	-203.055	  26.287
     29.4753	  47.000	  28.784	-190.034	  26.266
     29.5087	  46.000	  28.763	-191.013	  26.245
     29.5421	  43.000	  28.742	-193.992	  26.224
     29.5756	  40.000	  28.721	-196.971	  26.203
     29.6090	  49.000	  28.700	-187.950	  26.182
     29.6424	  39.000	  28.679	-197.929	  26.161
     29.6758	  37.000	  28.659	-199.909	  26.140
     29.7092	  37.000	  28.638	-199.888	  26.119
     29.7427	  49.000	  28.617	-187.867	  26.098
     29.7761	  43.000	  28.596	-193.846	  26.078
     29.8095	  45.000	  28.575	-191.825	  26.057
     29.8429	  43.000	  28.554	-193.804	  26.036
     29.8764	  57.000	  28.533	-179.783	  26.015
     29.9098	  50.000	  28.513	-186.763	  25.994
     29.9432	  45.000	  28.492	-191.742	  25.974
     29.9766	  53.000	  28.471	-183.721	  25.953
     30.0101	  46.000	  28.450	-190.700	  25.932
     30.0435	  57.000	  28.429	-179.679	  25.911
     30.0769	  43.000	  28.409	-193.659	  25.890
     30.1103	  67.000	  28.388	-169.638	  25.870
     30.1437	  66.000	  28.367	-170.617	  25.849
     30.1772	  64.000	  28.347	-172.597	  25.828
     30.2106	  71.000	  28.326	-165.576	  25.808
     30.2440	  62.000	  28.305	-174.555	  25.787
     30.2774	  68.000	  28.284	-168.534	  25.766
     30.3109	  90.000	  28.264	-146.514	  25.745
     30.3443	  71.000	  28.243	-165.493	  25.725
     30.3777	  78.000	  28.222	-158.472	  25.704
     30.4111	  55.000	  28.202	-181.452	  25.684
     30.4445	  70.000	  28.181	-166.431	  25.663
     30.4780	  69.000	  28.161	-167.411	  25.642
     30.5114	  59.000	  28.140	-177.390	  25.622
     30.5448	  74.000	  28.465	-162.715	  25.601
     30.5782	  58.000	  28.452	-178.702	  25.580
     30.6117	  58.000	  28.609	-178.859	  25.560
     30.6451	  69.000	  28.601	-167.851	  25.539
     30.6785	  75.000	  28.593	-161.843	  25.519
     30.7119	  62.000	  28.585	-174.835	  25.498
     30.7453	  67.000	  28.578	-169.828	  25.478
     30.7788	  57.000	  28.571	-179.821	  25.457
     30.8122	  65.000	  28.564	-171.814	  25.437
     30.8456	  65.000	  28.559	-171.809	  25.416
     30.8790	  52.000	  28.553	-184.803	  25.396
     30.9125	  47.000	  28.549	-189.799	  25.375
     30.9459	  47.000	  28.545	-189.795	  25.355
     30.9793	  36.000	  28.541	-200.791	  25.334
     31.0127	  47.000	  28.539	-189.789	  25.314
     31.0462	  60.000	  28.537	-176.787	  25.294
     31.0796	  59.000	  28.535	-177.785	  25.273
     31.1130	  52.000	  28.535	-184.785	  25.253
     31.1464	  48.000	  28.535	-188.785	  25.232
     31.1798	  56.000	  28.536	-180.786	  25.212
     31.2133	  43.000	  28.538	-193.788	  25.192
     31.2467	  44.000	  28.541	-192.791	  25.171
     31.2801	  50.000	  28.545	-186.795	  25.151
     31.3135	  40.000	  28.551	-196.801	  25.131
     31.3470	  40.000	  28.557	-196.807	  25.110
     31.3804	  34.000	  28.564	-202.814	  25.090
     31.4138	  29.000	  28.573	-207.823	  25.070
     31.4472	  44.000	  28.583	-192.833	  25.050
     31.4806	  34.000	  28.595	-202.845	  25.029
     31.5141	  44.000	  28.608	-192.858	  25.009
     31.5475	  35.000	  28.622	-201.872	  24.989
     31.5809	  35.000	  28.639	-201.889	  24.969
     31.6143	  43.000	  28.657	-193.907	  24.948
     31.6478	  42.000	  28.677	-194.927	  24.928
     31.6812	  35.000	  28.700	-201.950	  24.908
     31.7146	  35.000	  28.724	-201.974	  24.888
     31.7480	  40.000	  28.751	-197.001	  24.868
     31.7814	  47.000	  28.781	-190.031	  24.847
     31.8149	  38.000	  28.813	-199.063	  24.827
     31.8483	  39.000	  28.849	-198.099	  24.807
     31.8817	  37.000	  28.887	-200.137	  24.787
     31.9151	  45.000	  28.929	-192.179	  24.767
     31.9486	  32.000	  28.975	-205.225	  24.747
     31.9820	  37.000	  29.025	-200.275	  24.727
     32.0154	  48.000	  29.079	-189.329	  24.707
     32.0488	  56.000	  29.138	-181.388	  24.687
     32.0822	  56.000	  29.202	-181.452	  24.667
     32.1157	  73.000	  29.272	-164.522	  24.647
     32.1491	  69.000	  29.348	-168.598	  24.627
     32.1825	  55.000	  29.431	-182.681	  24.607
     32.2159	  43.000	  29.521	-194.771	  24.587
     32.2494	  58.000	  29.619	-179.869	  24.567
     32.2828	  57.000	  29.726	-180.976	  24.547
     32.3162	  55.000	  29.843	-183.093	  24.527
     32.3496	  40.000	  29.971	-198.221	  24.507
     32.3830	  50.000	  30.111	-188.361	  24.487
     32.4165	  55.000	  30.264	-183.514	  24.467
     32.4499	  50.000	  30.432	-188.682	  24.447
     32.4833	  35.000	  30.616	-203.866	  24.427
     32.5167	  43.000	  30.819	-196.069	  24.407
     32.5502	  38.000	  31.043	-201.293	  24.387
     32.5836	  45.000	  31.291	-194.541	  24.367
     32.6170	  53.000	  31.566	-186.816	  24.347
     32.6504	  49.000	  31.871	-191.121	  24.328
     32.6839	  36.000	  32.211	-204.461	  24.308
     32.7173	  44.000	  32.591	-196.841	  24.288
     32.7507	  42.000	  33.017	-199.267	  24.268
     32.7841	  33.000	  33.496	-208.746	  24.248
     32.8175	  27.000	  34.038	-215.288	  24.228
     32.8510	  43.000	  34.653	-199.903	  24.209
     32.8844	  34.000	  35.355	-209.605	  24.189
     32.9178	  48.000	  36.159	-196.409	  24.169
     32.9512	  43.000	  37.087	-202.337	  24.149
     32.9847	  43.000	  38.163	-203.413	  24.130
     33.0181	  44.000	  39.422	-203.672	  24.110
     33.0515	  47.000	  40.904	-202.154	  24.090
     33.0849	  63.000	  42.667	-187.917	  24.071
     33.1183	  45.000	  45.099	-208.349	  24.051
     33.1518	  67.000	  47.673	-188.923	  24.031
     33.1852	  58.000	  50.832	-201.082	  24.011
     33.2186	  70.000	  54.928	-193.178	  23.992
     33.2520	  66.000	  59.920	-202.170	  23.972
     33.2855	  83.000	  66.385	-191.635	  23.953
     33.3189	  95.000	  75.042	-188.292	  23.933
     33.3523	  84.000	  87.294	-211.544	  23.913
     33.3857	 135.000	 106.072	-179.322	  23.894
     33.4192	 136.000	 137.210	-209.460	  23.874
     33.4526	 208.000	 190.565	-190.815	  23.855
     33.4860	 272.000	 278.910	-215.160	  23.835
     33.5194	 400.000	 412.355	-220.605	  23.816
     33.5528	 608.000	 584.335	-184.585	  23.796
     33.5863	 812.000	 744.070	-140.320	  23.776
     33.6197	 833.000	 804.639	-179.889	  23.757
     33.6531	 742.000	 756.486	-222.736	  23.737
     33.6865	 711.000	 648.714	-145.964	  23.718
     33.7200	 502.000	 503.002	-209.252	  23.698
     33.7534	 389.000	 358.279	-177.529	  23.679
     33.7868	 266.000	 247.106	-189.356	  23.660
     33.8202	 170.000	 173.145	-211.395	  23.640
     33.8536	 100.000	 127.509	-235.759	  23.621
     33.8871	 107.000	 100.068	-201.318	  23.601
     33.9205	  98.000	  83.123	-193.373	  23.582
     33.9539	  76.000	  71.929	-204.179	  23.562
     33.9873	  63.000	  63.985	-209.235	  23.543
     34.0208	  64.000	  58.035	-202.285	  23.524
     34.0542	  58.000	  53.423	-203.673	  23.504
     34.0876	  62.000	  49.769	-196.019	  23.485
     34.1210	  49.000	  46.825	-206.075	  23.466
     34.1544	  62.000	  44.421	-190.671	  23.446
     34.1879	  55.000	  42.434	-195.684	  23.427
     34.2213	  47.000	  40.773	-202.023	  23.408
     34.2547	  57.000	  39.374	-190.624	  23.388
     34.2881	  32.000	  38.185	-214.435	  23.369
     34.3216	  42.000	  37.168	-203.418	  23.350
     34.3550	  50.000	  36.292	-194.542	  23.331
     34.3884	  44.000	  35.534	-199.784	  23.311
     34.4218	  55.000	  34.876	-188.126	  23.292
     34.4552	  54.000	  34.302	-188.552	  23.273
     34.4887	  36.000	  33.800	-206.050	  23.254
     34.5221	  37.000	  33.360	-204.610	  23.235
     34.5555	  49.000	  32.975	-192.225	  23.215
     34.5889	  49.000	  32.637	-191.887	  23.196
     34.6224	  83.000	  32.342	-157.592	  23.177
     34.6558	  86.000	  32.084	-154.334	  23.158
     34.6892	  52.000	  31.860	-188.110	  23.139
     34.7226	  45.000	  31.667	-194.917	  23.120
     34.7561	  47.000	  31.502	-192.752	  23.101
     34.7895	  43.000	  31.364	-196.614	  23.081
     34.8229	  49.000	  31.251	-190.501	  23.062
     34.8563	  37.000	  31.161	-202.411	  23.043
     34.8897	  32.000	  31.094	-207.344	  23.024
     34.9232	  43.000	  31.049	-196.299	  23.005
     34.9566	  47.000	  31.026	-192.276	  22.986
     34.9900	  37.000	  31.024	-202.274	  22.967
     35.0234	  37.000	  31.045	-202.295	  22.948
     35.0569	  35.000	  31.088	-204.338	  22.929
     35.0903	  39.000	  31.155	-200.405	  22.910
     35.1237	  32.000	  31.247	-207.497	  22.891
     35.1571	  40.000	  31.364	-199.614	  22.872
     35.1905	  38.000	  31.511	-201.761	  22.853
     35.2240	  36.000	  31.688	-203.938	  22.834
     35.2574	  47.000	  31.899	-193.149	  22.815
     35.2908	  34.000	  32.148	-206.398	  22.796
     35.3242	  38.000	  32.439	-202.689	  22.777
     35.3577	  45.000	  32.778	-196.028	  22.759
     35.3911	  42.000	  33.171	-199.421	  22.740
     35.4245	  40.000	  33.627	-201.877	  22.721
     35.4579	  49.000	  34.156	-193.406	  22.702
     35.4913	  38.000	  34.770	-205.020	  22.683
     35.5248	  38.000	  35.485	-205.735	  22.664
     35.5582	  45.000	  36.320	-199.570	  22.645
     35.5916	  44.000	  37.299	-201.549	  22.627
     35.6250	  45.000	  38.455	-201.705	  22.608
     35.6585	  49.000	  39.827	-199.077	  22.589
     35.6919	  52.000	  41.469	-197.719	  22.570
     35.7253	  66.000	  43.450	-185.700	  22.551
     35.7587	  48.000	  45.867	-206.117	  22.533
     35.7921	  49.000	  48.849	-208.099	  22.514
     35.8256	  66.000	  52.584	-194.834	  22.495
     35.8590	  57.000	  57.336	-208.586	  22.476
     35.8924	  59.000	  63.532	-212.782	  22.458
     35.9258	  85.000	  71.916	-195.166	  22.439
     35.9593	  97.000	  83.953	-195.203	  22.420
     35.9927	  90.000	 102.645	-220.895	  22.402
     36.0261	 112.000	 133.618	-229.868	  22.383
     36.0595	 131.000	 185.684	-262.934	  22.364
     36.0930	 222.000	 269.241	-255.491	  22.346
     36.1264	 354.000	 390.720	-244.970	  22.327
     36.1598	 528.000	 539.555	-219.805	  22.308
     36.1932	 660.000	 665.049	-213.299	  22.290
     36.2266	 678.000	 699.071	-229.321	  22.271
     36.2601	 577.000	 650.676	-281.926	  22.253
     36.2935	 526.000	 561.696	-243.946	  22.234
     36.3269	 410.000	 442.754	-241.004	  22.216
     36.3603	 264.000	 321.364	-265.614	  22.197
     36.3938	 239.000	 225.499	-194.749	  22.178
     36.4272	 162.000	 160.018	-206.268	  22.160
     36.4606	 106.000	 118.597	-220.847	  22.141
     36.4940	 100.000	  93.197	-201.447	  22.123
     36.5274	  77.000	  77.347	-208.597	  22.104
     36.5609	  70.000	  66.507	-204.757	  22.086
     36.5943	  60.000	  59.103	-207.353	  22.068
     36.6277	  47.000	  53.379	-214.629	  22.049
     36.6611	  48.000	  49.110	-209.360	  22.031
     36.6946	  39.000	  45.703	-214.953	  22.012
     36.7280	  54.000	  42.950	-197.200	  21.994
     36.7614	  28.000	  40.704	-220.954	  21.975
     36.7948	  37.000	  38.831	-210.081	  21.957
     36.8282	  31.000	  37.259	-214.509	  21.939
     36.8617	  31.000	  35.926	-213.176	  21.920
     36.8951	  35.000	  34.787	-208.037	  21.902
     36.9285	  37.000	  33.804	-205.054	  21.883
     36.9619	  26.000	  32.950	-215.200	  21.865
     36.9954	  34.000	  32.203	-206.453	  21.847
     37.0288	  26.000	  31.546	-213.796	  21.829
     37.0622	  33.000	  30.965	-206.215	  21.810
     37.0956	  33.000	  30.447	-205.697	  21.792
     37.1291	  24.000	  29.985	-214.235	  21.774
     37.1625	  28.000	  29.569	-209.819	  21.755
     37.1959	  42.000	  29.194	-195.444	  21.737
     37.2293	  33.000	  28.855	-204.105	  21.719
     37.2627	  17.000	  28.546	-219.796	  21.701
     37.2962	  31.000	  28.265	-205.515	  21.682
     37.3296	  36.000	  28.007	-200.257	  21.664
     37.3630	  18.000	  27.770	-218.020	  21.646
     37.3964	  26.000	  27.552	-209.802	  21.628
     37.4299	  25.000	  27.351	-210.601	  21.610
     37.4633	  17.000	  27.165	-218.415	  21.592
     37.4967	  18.000	  26.992	-217.242	  21.573
     37.5301	  28.000	  26.831	-207.081	  21.555
     37.5635	  24.000	  26.681	-210.931	  21.537
     37.5970	  23.000	  26.540	-211.790	  21.519
     37.6304	  13.000	  26.409	-221.659	  21.501
     37.6638	  18.000	  26.286	-216.536	  21.483
     37.6972	  28.000	  26.170	-206.420	  21.465
     37.7307	  23.000	  26.060	-211.310	  21.447
     37.7641	  11.000	  25.957	-223.207	  21.429
     37.7975	  19.000	  25.860	-215.110	  21.411
     37.8309	  19.000	  25.768	-215.018	  21.393
     37.8643	  19.000	  25.680	-214.930	  21.375
     37.8978	  19.000	  25.597	-214.847	  21.356
     37.9312	  17.000	  25.519	-216.769	  21.339
     37.9646	  25.000	  25.444	-208.694	  21.321
     37.9980	  25.000	  25.372	-208.622	  21.303
     38.0315	  27.000	  25.304	-206.554	  21.285
     38.0649	  34.000	  25.239	-199.489	  21.267
     38.0983	  18.000	  25.177	-215.427	  21.249
     38.1317	  17.000	  25.118	-216.368	  21.231
     38.1651	  23.000	  25.062	-210.312	  21.213
     38.1986	  16.000	  25.008	-217.258	  21.195
     38.2320	  22.000	  24.956	-211.206	  21.177
     38.2654	  24.000	  24.907	-209.157	  21.159
     38.2988	  25.000	  24.859	-208.109	  21.141
     38.3323	  23.000	  24.814	-210.064	  21.123
     38.3657	  11.000	  24.771	-222.021	  21.106
     38.3991	  17.000	  24.843	-216.093	  21.088
     38.4325	  15.000	  24.806	-218.056	  21.070
     38.4660	  25.000	  24.771	-208.021	  21.052
     38.4994	  17.000	  24.795	-216.045	  21.034
     38.5328	  12.000	  24.765	-221.015	  21.017
     38.5662	  11.000	  24.738	-221.988	  20.999
     38.5996	  13.000	  24.712	-219.962	  20.981
     38.6331	  13.000	  24.689	-219.939	  20.963
     38.6665	  15.000	  24.668	-217.918	  20.946
     38.6999	  12.000	  24.649	-220.899	  20.928
     38.7333	  15.000	  24.633	-217.883	  20.910
     38.7668	  12.000	  24.620	-220.870	  20.892
     38.8002	  15.000	  24.609	-217.859	  20.875
     38.8336	  19.000	  24.601	-213.851	  20.857
     38.8670	  16.000	  24.597	-216.847	  20.839
     38.9004	  18.000	  24.596	-214.846	  20.822
     38.9339	  17.000	  24.599	-215.849	  20.804
     38.9673	  14.000	  24.607	-218.857	  20.786
     39.0007	  21.000	  24.621	-211.871	  20.769
     39.0341	  12.000	  24.640	-220.890	  20.751
     39.0676	  12.000	  24.667	-220.917	  20.734
     39.1010	  27.000	  24.701	-205.951	  20.716
     39.1344	  16.000	  24.746	-216.996	  20.698
     39.1678	  16.000	  24.458	-216.708	  20.681
     39.2012	  11.000	  24.537	-221.787	  20.663
     39.2347	  12.000	  24.633	-220.883	  20.646
     39.2681	  16.000	  24.581	-216.831	  20.628
     39.3015	  24.000	  24.731	-208.981	  20.611
     39.3349	  12.000	  24.917	-221.167	  20.593
     39.3684	  13.000	  25.152	-220.402	  20.576
     39.4018	  16.000	  25.451	-217.701	  20.558
     39.4352	  14.000	  25.842	-220.092	  20.541
     39.4686	  24.000	  26.372	-210.622	  20.523
     39.5021	  21.000	  27.134	-214.384	  20.506
     39.5355	  29.000	  28.309	-207.559	  20.488
     39.5689	  29.000	  30.223	-209.473	  20.471
     39.6023	  27.000	  33.367	-214.617	  20.454
     39.6357	  35.000	  38.298	-211.548	  20.436
     39.6692	  27.000	  45.350	-226.600	  20.419
     39.7026	  66.000	  53.920	-196.170	  20.401
     39.7360	  64.000	  61.239	-205.489	  20.384
     39.7694	  65.000	  63.458	-206.708	  20.367
     39.8029	  57.000	  60.962	-212.212	  20.349
     39.8363	  64.000	  56.492	-200.742	  20.332
     39.8697	  53.000	  50.445	-205.695	  20.315
     39.9031	  43.000	  43.514	-208.764	  20.298
     39.9365	  35.000	  37.465	-210.715	  20.280
     39.9700	  31.000	  33.054	-210.304	  20.263
     40.0034	  19.000	  30.129	-219.379	  20.246
     40.0368	  23.000	  28.283	-213.533	  20.228
     40.0702	  23.000	  27.129	-212.379	  20.211
     40.1037	  25.000	  26.387	-209.637	  20.194
     40.1371	  12.000	  25.883	-222.133	  20.177
     40.1705	  21.000	  25.522	-212.772	  20.159
     40.2039	  22.000	  25.254	-211.504	  20.142
     40.2373	  17.000	  25.053	-216.303	  20.125
     40.2708	  28.000	  24.901	-205.151	  20.108
     40.3042	  25.000	  24.789	-208.039	  20.091
     40.3376	  24.000	  24.708	-208.958	  20.074
     40.3710	  31.000	  24.653	-201.903	  20.056
     40.4045	  21.000	  24.621	-211.871	  20.039
     40.4379	  22.000	  24.608	-210.858	  20.022
     40.4713	  14.000	  24.615	-218.865	  20.005
     40.5047	  18.000	  24.639	-214.889	  19.988
     40.5382	  12.000	  24.681	-220.931	  19.971
     40.5716	  17.000	  24.740	-215.990	  19.954
     40.6050	  15.000	  24.818	-218.068	  19.937
     40.6384	  22.000	  24.916	-211.166	  19.920
     40.6718	  19.000	  25.035	-214.285	  19.903
     40.7053	  16.000	  25.178	-217.428	  19.886
     40.7387	  19.000	  25.348	-214.598	  19.869
     40.7721	  23.000	  25.549	-210.799	  19.852
     40.8055	  25.000	  25.787	-209.037	  19.835
     40.8390	  21.000	  26.067	-213.317	  19.818
     40.8724	  28.000	  26.399	-206.649	  19.801
     40.9058	  24.000	  26.793	-211.043	  19.784
     40.9392	  36.000	  27.262	-199.512	  19.767
     40.9726	  28.000	  27.826	-208.076	  19.750
     41.0061	  26.000	  28.508	-210.758	  19.733
     41.0395	  31.000	  29.341	-206.591	  19.716
     41.0729	  33.000	  30.371	-205.621	  19.699
     41.1063	  40.000	  31.680	-199.930	  19.682
     41.1398	  35.000	  33.324	-206.574	  19.666
     41.1732	  46.000	  35.475	-197.725	  19.649
     41.2066	  45.000	  38.413	-201.663	  19.632
     41.2400	  50.000	  42.646	-200.896	  19.615
     41.2734	  42.000	  49.198	-215.448	  19.598
     41.3069	  48.000	  59.812	-220.062	  19.581
     41.3403	  86.000	  76.998	-199.248	  19.565
     41.3737	  86.000	 103.440	-225.690	  19.548
     41.4071	 155.000	 140.404	-193.654	  19.531
     41.4406	 189.000	 183.955	-203.205	  19.514
     41.4740	 228.000	 218.917	-199.167	  19.497
     41.5074	 225.000	 227.148	-210.398	  19.481
     41.5408	 215.000	 213.230	-206.480	  19.464
     41.5742	 192.000	 191.082	-207.332	  19.447
     41.6077	 174.000	 161.631	-195.881	  19.431
     41.6411	 140.000	 127.174	-195.424	  19.414
     41.6745	 104.000	  96.329	-200.579	  19.397
     41.7079	  67.000	  73.369	-214.619	  19.381
     41.7414	  54.000	  57.848	-212.098	  19.364
     41.7748	  59.000	  47.871	-197.121	  19.347
     41.8082	  44.000	  41.532	-205.782	  19.331
     41.8416	  33.000	  37.390	-212.640	  19.314
     41.8751	  21.000	  34.529	-221.779	  19.297
     41.9085	  24.000	  32.434	-216.684	  19.281
     41.9419	  37.000	  30.829	-202.079	  19.264
     41.9753	  52.000	  29.561	-185.811	  19.248
     42.0087	  28.000	  28.539	-208.789	  19.231
     42.0422	  19.000	  27.701	-216.951	  19.214
     42.0756	  23.000	  27.007	-212.257	  19.198
     42.1090	  14.000	  26.423	-220.673	  19.181
     42.1424	  28.000	  25.928	-206.178	  19.165
     42.1759	  32.000	  25.504	-201.754	  19.148
     42.2093	   9.000	  25.138	-224.388	  19.132
     42.2427	  17.000	  24.819	-216.069	  19.115
     42.2761	  18.000	  24.539	-214.789	  19.099
     42.3095	  15.000	  24.292	-217.542	  19.083
     42.3430	  22.000	  24.073	-210.323	  19.066
     42.3764	  25.000	  23.878	-207.128	  19.050
     42.4098	  13.000	  23.702	-218.952	  19.033
     42.4432	  16.000	  23.544	-215.794	  19.017
     42.4767	  17.000	  23.401	-214.651	  19.000
     42.5101	  24.000	  23.271	-207.521	  18.984
     42.5435	  21.000	  23.152	-210.402	  18.968
     42.5769	  17.000	  23.044	-214.294	  18.951
     42.6103	  21.000	  22.944	-210.194	  18.935
     42.6438	  17.000	  22.852	-214.102	  18.919
     42.6772	  16.000	  22.767	-215.017	  18.902
     42.7106	   6.000	  22.666	-224.916	  18.886
     42.7440	  18.000	  22.594	-212.844	  18.870
     42.7775	  17.000	  22.527	-213.777	  18.853
     42.8109	   9.000	  22.464	-221.714	  18.837
     42.8443	  17.000	  22.395	-213.645	  18.821
     42.8777	  18.000	  22.341	-212.591	  18.805
     42.9111	  17.000	  22.291	-213.541	  18.788
     42.9446	  14.000	  22.245	-216.495	  18.772
     42.9780	  24.000	  22.201	-206.451	  18.756
     43.0114	  23.000	  22.161	-207.411	  18.740
     43.0448	  22.000	  22.124	-208.374	  18.723
     43.0783	  23.000	  22.089	-207.339	  18.707
     43.1117	  13.000	  22.058	-217.308	  18.691
     43.1451	  18.000	  22.029	-212.279	  18.675
     43.1785	  16.000	  22.003	-214.253	  18.659
     43.2120	  15.000	  21.980	-215.230	  18.643
     43.2454	   9.000	  21.960	-221.210	  18.626
     43.2788	  17.000	  21.943	-213.193	  18.610
     43.3122	  11.000	  21.929	-219.179	  18.594
     43.3456	  24.000	  21.919	-206.169	  18.578
     43.3791	  13.000	  21.913	-217.163	  18.562
     43.4125	  16.000	  21.911	-214.161	  18.546
     43.4459	  16.000	  21.913	-214.163	  18.530
     43.4793	  13.000	  21.921	-217.171	  18.514
     43.5128	  18.000	  21.935	-212.185	  18.498
     43.5462	  23.000	  21.957	-207.207	  18.482
     43.5796	  19.000	  21.986	-211.236	  18.466
     43.6130	  16.000	  22.026	-214.276	  18.450
     43.6464	  15.000	  22.078	-215.328	  18.434
     43.6799	  25.000	  22.145	-205.395	  18.418
     43.7133	  19.000	  22.231	-211.481	  18.402
     43.7467	  16.000	  22.340	-214.590	  18.386
     43.7801	  17.000	  22.480	-213.730	  18.370
     43.8136	  24.000	  22.660	-206.910	  18.354
     43.8470	  18.000	  22.893	-213.143	  18.338
     43.8804	  15.000	  23.202	-216.452	  18.322
     43.9138	  23.000	  23.625	-208.875	  18.306
     43.9473	  25.000	  24.234	-207.484	  18.290
     43.9807	  24.000	  25.164	-209.414	  18.275
     44.0141	  21.000	  26.654	-213.904	  18.259
     44.0475	  28.000	  29.048	-209.298	  18.243
     44.0809	  27.000	  32.748	-213.998	  18.227
     44.1144	  38.000	  38.014	-208.264	  18.211
     44.1478	  42.000	  44.534	-210.784	  18.195
     44.1812	  53.000	  50.552	-205.802	  18.180
     44.2146	  46.000	  53.092	-215.342	  18.164
     44.2481	  47.000	  51.678	-212.928	  18.148
     44.2815	  28.000	  48.681	-228.931	  18.132
     44.3149	  33.000	  44.951	-220.201	  18.116
     44.3483	  23.000	  40.112	-225.362	  18.101
     44.3817	  28.000	  35.034	-215.284	  18.085
     44.4152	  18.000	  30.837	-221.087	  18.069
     44.4486	  12.000	  27.809	-224.059	  18.054
     44.4820	  24.000	  25.654	-209.904	  18.038
     44.5154	  14.000	  24.331	-218.581	  18.022
     44.5489	  27.000	  23.469	-204.719	  18.007
     44.5823	  14.000	  22.824	-217.074	  17.991
     44.6157	  15.000	  22.406	-215.656	  17.975
     44.6491	  12.000	  22.090	-218.340	  17.960
     44.6825	  28.000	  21.841	-202.091	  17.944
     44.7160	  19.000	  21.640	-210.890	  17.928
     44.7494	  11.000	  21.474	-218.724	  17.913
     44.7828	  25.000	  21.334	-204.584	  17.897
     44.8162	  18.000	  21.215	-211.465	  17.882
     44.8497	  17.000	  21.113	-212.363	  17.866
     44.8831	  19.000	  21.024	-210.274	  17.850
     44.9165	  17.000	  20.946	-212.196	  17.835
     44.9499	  11.000	  20.876	-218.126	  17.819
     44.9833	  27.000	  20.813	-202.063	  17.804
     45.0168	  17.000	  20.756	-212.006	  17.788
     45.0502	  21.000	  20.705	-207.955	  17.773
     45.0836	  24.000	  20.657	-204.907	  17.757
     45.1170	  16.000	  20.613	-212.863	  17.742
     45.1505	  16.000	  20.572	-212.822	  17.726
     45.1839	  16.000	  20.534	-212.784	  17.711
     45.2173	  25.000	  20.498	-203.748	  17.696
     45.2507	  24.000	  20.464	-204.714	  17.680
     45.2841	  11.000	  20.432	-217.682	  17.665
     45.3176	  18.000	  20.402	-210.652	  17.649
     45.3510	  18.000	  20.372	-210.622	  17.634
     45.3844	  28.000	  20.344	-200.594	  17.619
     45.4178	  12.000	  20.317	-216.567	  17.603
     45.4513	  17.000	  20.291	-211.541	  17.588
     45.4847	  17.000	  20.266	-211.516	  17.573
     45.5181	   8.000	  20.242	-220.492	  17.557
     45.5515	  16.000	  20.218	-212.468	  17.542
     45.5850	  14.000	  20.195	-214.445	  17.527
     45.6184	  17.000	  20.173	-211.423	  17.511
     45.6518	   9.000	  20.151	-219.401	  17.496
     45.6852	  18.000	  20.129	-210.379	  17.481
     45.7186	  14.000	  20.108	-214.358	  17.465
     45.7521	  31.000	  20.087	-197.337	  17.450
     45.7855	  26.000	  20.067	-202.317	  17.435
     45.8189	  16.000	  20.047	-212.297	  17.420
     45.8523	  22.000	  20.027	-206.277	  17.405
     45.8858	  23.000	  20.008	-205.258	  17.389
     45.9192	  16.000	  19.989	-212.239	  17.374
     45.9526	  12.000	  19.970	-216.220	  17.359
     45.9860	  14.000	  19.951	-214.201	  17.344
     46.0194	  15.000	  19.933	-213.183	  17.329
     46.0529	  15.000	  19.915	-213.165	  17.313
     46.0863	  14.000	  19.896	-214.146	  17.298
     46.1197	  21.000	  19.878	-207.128	  17.283
     46.1531	  12.000	  19.861	-216.111	  17.268
     46.1866	  16.000	  19.843	-212.093	  17.253
     46.2200	  14.000	  19.826	-214.076	  17.238
     46.2534	  16.000	  19.808	-212.058	  17.223
     46.2868	  24.000	  19.791	-204.041	  17.208
     46.3203	  21.000	  19.774	-207.024	  17.193
     46.3537	  14.000	  19.757	-214.007	  17.178
     46.3871	  15.000	  19.740	-212.990	  17.163
     46.4205	   9.000	  19.723	-218.973	  17.148
     46.4539	  19.000	  19.706	-208.956	  17.133
     46.4874	  22.000	  19.690	-205.940	  17.118
     46.5208	  18.000	  19.673	-209.923	  17.103
     46.5542	  25.000	  19.657	-202.907	  17.088
     46.5876	  17.000	  19.640	-210.890	  17.073
     46.6211	  19.000	  19.624	-208.874	  17.058
     46.6545	  13.000	  19.608	-214.858	  17.043
     46.6879	  14.000	  19.592	-213.842	  17.028
     46.7213	  16.000	  19.576	-211.826	  17.013
     46.7547	  14.000	  19.559	-213.809	  16.998
     46.7882	  28.000	  19.543	-199.793	  16.983
     46.8216	  13.000	  19.528	-214.778	  16.968
     46.8550	  11.000	  19.512	-216.762	  16.954
     46.8884	   6.000	  19.496	-221.746	  16.939
     46.9219	  17.000	  19.480	-210.730	  16.924
     46.9553	  17.000	  19.464	-210.714	  16.909
     46.9887	  17.000	  19.449	-210.699	  16.894
     47.0221	  22.000	  19.433	-205.683	  16.879
     47.0555	  13.000	  19.417	-214.667	  16.865
     47.0890	  16.000	  19.569	-211.819	  16.850
     47.1224	  16.000	  19.557	-211.807	  16.835
     47.1558	  21.000	  19.546	-206.796	  16.820
     47.1892	  11.000	  19.595	-216.845	  16.806
     47.2227	  13.000	  19.586	-214.836	  16.791
     47.2561	  14.000	  19.577	-213.827	  16.776
     47.2895	   9.000	  19.568	-218.818	  16.761
     47.3229	  12.000	  19.550	-215.800	  16.747
     47.3563	  19.000	  19.542	-208.792	  16.732
     47.3898	  17.000	  19.534	-210.784	  16.717
     47.4232	  13.000	  19.526	-214.776	  16.703
     47.4566	  15.000	  19.519	-212.769	  16.688
     47.4900	  14.000	  19.512	-213.762	  16.673
     47.5235	   7.000	  19.505	-220.755	  16.659
     47.5569	  23.000	  19.499	-204.749	  16.644
     47.5903	  21.000	  19.493	-206.743	  16.630
     47.6237	  19.000	  19.487	-208.737	  16.615
     47.6572	  24.000	  19.481	-203.731	  16.600
     47.6906	  22.000	  19.476	-205.726	  16.586
     47.7240	  25.000	  19.472	-202.722	  16.571
     47.7574	  17.000	  19.467	-210.717	  16.557
     47.7908	  24.000	  19.463	-203.713	  16.542
     47.8243	  24.000	  19.460	-203.710	  16.528
     47.8577	  16.000	  19.457	-211.707	  16.513
     47.8911	  22.000	  19.455	-205.705	  16.499
     47.9245	  21.000	  19.453	-206.703	  16.484
     47.9580	  29.000	  19.451	-198.701	  16.470
     47.9914	  27.000	  19.451	-200.701	  16.455
     48.0248	  18.000	  19.451	-209.701	  16.441
     48.0582	  27.000	  19.451	-200.701	  16.426
     48.0916	  24.000	  19.453	-203.703	  16.412
     48.1251	  22.000	  19.455	-205.705	  16.398
     48.1585	  18.000	  19.457	-209.707	  16.383
     48.1919	  16.000	  19.461	-211.711	  16.369
     48.2253	  22.000	  19.466	-205.716	  16.354
     48.2588	  17.000	  19.471	-210.721	  16.340
     48.2922	  14.000	  19.478	-213.728	  16.326
     48.3256	  18.000	  19.486	-209.736	  16.311
     48.3590	  21.000	  19.495	-206.745	  16.297
     48.3924	  27.000	  19.505	-200.755	  16.283
     48.4259	  19.000	  19.516	-208.766	  16.268
     48.4593	  15.000	  19.529	-212.779	  16.254
     48.4927	  26.000	  19.544	-201.794	  16.240
     48.5261	  21.000	  19.560	-206.810	  16.225
     48.5596	  22.000	  19.578	-205.828	  16.211
     48.5930	  18.000	  19.598	-209.848	  16.197
     48.6264	  21.000	  19.621	-206.871	  16.183
     48.6598	  22.000	  19.645	-205.895	  16.168
     48.6932	  23.000	  19.672	-204.922	  16.154
     48.7267	  26.000	  19.702	-201.952	  16.140
     48.7601	  24.000	  19.735	-203.985	  16.126
     48.7935	  25.000	  19.771	-203.021	  16.112
     48.8269	  24.000	  19.810	-204.060	  16.098
     48.8604	  15.000	  19.854	-213.104	  16.083
     48.8938	  14.000	  19.902	-214.152	  16.069
     48.9272	  25.000	  19.954	-203.204	  16.055
     48.9606	  24.000	  20.012	-204.262	  16.041
     48.9940	  21.000	  20.075	-207.325	  16.027
     49.0275	  34.000	  20.145	-194.395	  16.013
     49.0609	  21.000	  20.222	-207.472	  15.999
     49.0943	  22.000	  20.307	-206.557	  15.985
     49.1277	  28.000	  20.401	-200.651	  15.971
     49.1612	  27.000	  20.504	-201.754	  15.956
     49.1946	  28.000	  20.619	-200.869	  15.942
     49.2280	  35.000	  20.747	-193.997	  15.928
     49.2614	  23.000	  20.889	-206.139	  15.914
     49.2949	  29.000	  21.048	-200.298	  15.900
     49.3283	  29.000	  21.225	-200.475	  15.886
     49.3617	  27.000	  21.424	-202.674	  15.872
     49.3951	  31.000	  21.648	-198.898	  15.858
     49.4285	  19.000	  21.901	-211.151	  15.844
     49.4620	  24.000	  22.189	-206.439	  15.831
     49.4954	  26.000	  22.516	-204.766	  15.817
     49.5288	  23.000	  22.891	-208.141	  15.803
     49.5622	  26.000	  23.323	-205.573	  15.789
     49.5957	  42.000	  23.823	-190.073	  15.775
     49.6291	  44.000	  24.406	-188.656	  15.761
     49.6625	  28.000	  25.091	-205.341	  15.747
     49.6959	  42.000	  25.902	-192.152	  15.733
     49.7293	  18.000	  26.870	-217.120	  15.719
     49.7628	  35.000	  28.040	-201.290	  15.706
     49.7962	  52.000	  29.469	-185.719	  15.692
     49.8296	  33.000	  31.238	-206.488	  15.678
     49.8630	  44.000	  33.471	-197.721	  15.664
     49.8965	  45.000	  36.362	-199.612	  15.650
     49.9299	  44.000	  40.253	-204.503	  15.637
     49.9633	  66.000	  45.766	-188.016	  15.623
     49.9967	  53.000	  54.007	-209.257	  15.609
     50.0302	  53.000	  66.742	-221.992	  15.595
     50.0636	  88.000	  86.367	-206.617	  15.582
     50.0970	 101.000	 115.422	-222.672	  15.568
     50.1304	 142.000	 155.297	-221.547	  15.554
     50.1638	 210.000	 203.193	-201.443	  15.540
     50.1973	 284.000	 246.379	-170.629	  15.527
     50.2307	 312.000	 264.519	-160.769	  15.513
     50.2641	 230.000	 254.207	-232.457	  15.499
     50.2975	 234.000	 233.215	-207.465	  15.486
     50.3310	 250.000	 211.306	-169.556	  15.472
     50.3644	 211.000	 183.671	-180.921	  15.458
     50.3978	 159.000	 149.004	-198.254	  15.445
     50.4312	  95.000	 115.242	-228.492	  15.431
     50.4646	  94.000	  88.181	-202.431	  15.418
     50.4981	  65.000	  68.629	-211.879	  15.404
     50.5315	  56.000	  55.246	-207.496	  15.390
     50.5649	  55.000	  46.309	-199.559	  15.377
     50.5983	  47.000	  40.315	-201.565	  15.363
     50.6318	  60.000	  36.157	-184.407	  15.350
     50.6652	  46.000	  33.135	-195.385	  15.336
     50.6986	  45.000	  30.836	-194.086	  15.323
     50.7320	  39.000	  29.028	-198.278	  15.309
     50.7654	  35.000	  27.571	-200.821	  15.296
     50.7989	  39.000	  26.376	-195.626	  15.282
     50.8323	  28.000	  25.384	-205.634	  15.269
     50.8657	  25.000	  24.550	-207.800	  15.255
     50.8991	  37.000	  23.842	-195.092	  15.242
     50.9326	  35.000	  23.236	-196.486	  15.229
     50.9660	  37.000	  22.713	-193.963	  15.215
     50.9994	  35.000	  22.257	-195.507	  15.202
     51.0328	  44.000	  21.858	-186.108	  15.188
     51.0662	  22.000	  21.506	-207.756	  15.175
     51.0997	  38.000	  21.194	-191.444	  15.162
     51.1331	  32.000	  20.915	-197.165	  15.148
     51.1665	  26.000	  20.666	-202.916	  15.135
     51.1999	  44.000	  20.441	-184.691	  15.122
     51.2334	  29.000	  20.238	-199.488	  15.108
     51.2668	  31.000	  20.054	-197.304	  15.095
     51.3002	  24.000	  19.886	-204.136	  15.082
     51.3336	  22.000	  19.732	-205.982	  15.068
     51.3671	  32.000	  19.591	-195.841	  15.055
     51.4005	  19.000	  19.461	-208.711	  15.042
     51.4339	  22.000	  19.340	-205.590	  15.029
     51.4673	  26.000	  19.229	-201.479	  15.015
     51.5007	  37.000	  19.125	-190.375	  15.002
     51.5342	  16.000	  19.029	-211.279	  14.989
     51.5676	  24.000	  18.939	-203.189	  14.976
     51.6010	  32.000	  18.854	-195.104	  14.962
     51.6344	  23.000	  18.775	-204.025	  14.949
     51.6679	  32.000	  19.076	-195.326	  14.936
     51.7013	  32.000	  19.014	-195.264	  14.923
     51.7347	  27.000	  18.956	-200.206	  14.910
     51.7681	  28.000	  18.901	-199.151	  14.897
     51.8015	  12.000	  19.036	-215.286	  14.884
     51.8350	  21.000	  18.993	-206.243	  14.870
     51.8684	  23.000	  18.952	-204.202	  14.857
     51.9018	  22.000	  18.914	-205.164	  14.844
     51.9352	  26.000	  18.880	-201.130	  14.831
     51.9687	  25.000	  18.847	-202.097	  14.818
     52.0021	  24.000	  18.818	-203.068	  14.805
     52.0355	  26.000	  18.790	-201.040	  14.792
     52.0689	  29.000	  18.765	-198.015	  14.779
     52.1023	  18.000	  18.742	-208.992	  14.766
     52.1358	  21.000	  18.721	-205.971	  14.753
     52.1692	  19.000	  18.702	-207.952	  14.740
     52.2026	  26.000	  18.686	-200.936	  14.727
     52.2360	  31.000	  18.671	-195.921	  14.714
     52.2695	  24.000	  18.657	-202.907	  14.701
     52.3029	  34.000	  18.646	-192.896	  14.688
     52.3363	  48.000	  18.637	-178.887	  14.675
     52.3697	  52.000	  18.629	-174.879	  14.662
     52.4032	  55.000	  18.623	-171.873	  14.649
     52.4366	  37.000	  18.619	-189.869	  14.636
     52.4700	  37.000	  18.617	-189.867	  14.623
     52.5034	  39.000	  18.616	-187.866	  14.611
     52.5368	  19.000	  18.618	-207.868	  14.598
     52.5703	  24.000	  18.621	-202.871	  14.585
     52.6037	  31.000	  18.626	-195.876	  14.572
     52.6371	  29.000	  18.633	-197.883	  14.559
     52.6705	  25.000	  18.642	-201.892	  14.546
     52.7040	  31.000	  18.653	-195.903	  14.534
     52.7374	  24.000	  18.667	-202.917	  14.521
     52.7708	  13.000	  18.682	-213.932	  14.508
     52.8042	  18.000	  18.700	-208.950	  14.495
     52.8376	  28.000	  18.720	-198.970	  14.482
     52.8711	  11.000	  18.743	-215.993	  14.470
     52.9045	  25.000	  18.769	-202.019	  14.457
     52.9379	  28.000	  18.797	-199.047	  14.444
     52.9713	  16.000	  18.828	-211.078	  14.432
     53.0048	  19.000	  18.862	-208.112	  14.419
     53.0382	  19.000	  18.900	-208.150	  14.406
     53.0716	  16.000	  18.941	-211.191	  14.393
     53.1050	  28.000	  18.986	-199.236	  14.381
     53.1384	  27.000	  19.035	-200.285	  14.368
     53.1719	  23.000	  19.089	-204.339	  14.356
     53.2053	  18.000	  19.146	-209.396	  14.343
     53.2387	  18.000	  19.209	-209.459	  14.330
     53.2721	  27.000	  19.101	-200.351	  14.318
     53.3056	  32.000	  19.179	-195.429	  14.305
     53.3390	  26.000	  19.263	-201.513	  14.292
     53.3724	  17.000	  19.354	-210.604	  14.280
     53.4058	  27.000	  19.364	-200.614	  14.267
     53.4393	  19.000	  19.471	-208.721	  14.255
     53.4727	  16.000	  19.588	-211.838	  14.242
     53.5061	  23.000	  19.713	-204.963	  14.230
     53.5395	  28.000	  19.849	-200.099	  14.217
     53.5729	  25.000	  19.997	-203.247	  14.205
     53.6064	  19.000	  20.157	-209.407	  14.192
     53.6398	  16.000	  20.331	-212.581	  14.180
     53.6732	  12.000	  20.521	-216.771	  14.167
     53.7066	  25.000	  20.728	-203.978	  14.155
     53.7401	  26.000	  20.954	-203.204	  14.142
     53.7735	  19.000	  21.203	-210.453	  14.130
     53.8069	  15.000	  21.475	-214.725	  14.118
     53.8403	  31.000	  21.776	-199.026	  14.105
     53.8737	  18.000	  22.108	-212.358	  14.093
     53.9072	  27.000	  22.480	-203.730	  14.080
     53.9406	  17.000	  22.888	-214.138	  14.068
     53.9740	  31.000	  23.343	-200.593	  14.056
     54.0074	  26.000	  23.852	-206.102	  14.043
     54.0409	  27.000	  24.424	-205.674	  14.031
     54.0743	  28.000	  25.071	-205.321	  14.019
     54.1077	  27.000	  25.802	-207.052	  14.006
     54.1411	  31.000	  26.634	-203.884	  13.994
     54.1745	  32.000	  27.587	-203.837	  13.982
     54.2080	  32.000	  28.683	-204.933	  13.969
     54.2414	  40.000	  29.955	-198.205	  13.957
     54.2748	  39.000	  31.440	-200.690	  13.945
     54.3082	  34.000	  33.188	-207.438	  13.933
     54.3417	  52.000	  35.264	-191.514	  13.920
     54.3751	  49.000	  37.754	-197.004	  13.908
     54.4085	  64.000	  40.774	-185.024	  13.896
     54.4419	  55.000	  44.488	-197.738	  13.884
     54.4753	  54.000	  49.133	-203.383	  13.872
     54.5088	  80.000	  55.090	-183.340	  13.859
     54.5422	  80.000	  63.000	-191.250	  13.847
     54.5756	  71.000	  73.997	-211.247	  13.835
     54.6090	 105.000	  90.039	-193.289	  13.823
     54.6425	 107.000	 114.181	-215.431	  13.811
     54.6759	 148.000	 150.618	-210.868	  13.799
     54.7093	 197.000	 203.964	-215.214	  13.787
     54.7427	 268.000	 277.446	-217.696	  13.775
     54.7761	 385.000	 368.591	-191.841	  13.762
     54.8096	 565.000	 459.852	-103.102	  13.750
     54.8430	 601.000	 514.511	-121.761	  13.738
     54.8764	 558.000	 509.986	-160.236	  13.726
     54.9098	 513.000	 471.015	-166.265	  13.714
     54.9433	 438.000	 430.196	-200.446	  13.702
     54.9767	 447.000	 390.208	-151.458	  13.690
     55.0101	 406.000	 336.731	-138.981	  13.678
     55.0435	 317.000	 270.669	-161.919	  13.666
     55.0770	 222.000	 207.533	-193.783	  13.654
     55.1104	 178.000	 156.835	-187.085	  13.642
     55.1438	 104.000	 119.676	-223.926	  13.630
     55.1772	  89.000	  93.726	-212.976	  13.618
     55.2106	  71.000	  76.024	-213.274	  13.607
     55.2441	  65.000	  63.881	-207.131	  13.595
     55.2775	  65.000	  55.327	-198.577	  13.583
     55.3109	  50.000	  49.051	-207.301	  13.571
     55.3443	  38.000	  44.261	-214.511	  13.559
     55.3778	  52.000	  40.465	-196.715	  13.547
     55.4112	  37.000	  37.398	-208.648	  13.535
     55.4446	  32.000	  34.875	-211.125	  13.523
     55.4780	  44.000	  32.774	-197.024	  13.512
     55.5114	  38.000	  31.005	-201.255	  13.500
     55.5449	  31.000	  29.501	-206.751	  13.488
     55.5783	  37.000	  28.211	-199.461	  13.476
     55.6117	  33.000	  27.097	-202.347	  13.464
     55.6451	  28.000	  26.128	-206.378	  13.453
     55.6786	  26.000	  25.279	-207.529	  13.441
     55.7120	  34.000	  24.532	-198.782	  13.429
     55.7454	  37.000	  23.870	-195.120	  13.417
     55.7788	  18.000	  23.281	-213.531	  13.406
     55.8122	  33.000	  22.755	-198.005	  13.394
     55.8457	  34.000	  22.283	-196.533	  13.382
     55.8791	  25.000	  21.858	-205.108	  13.370
     55.9125	  19.000	  21.473	-210.723	  13.359
     55.9459	  23.000	  21.124	-206.374	  13.347
     55.9794	  22.000	  20.807	-207.057	  13.335
     56.0128	  28.000	  20.517	-200.767	  13.324
     56.0462	  22.000	  20.252	-206.502	  13.312
     56.0796	  23.000	  20.009	-205.259	  13.301
     56.1131	  22.000	  19.786	-206.036	  13.289
     56.1465	  26.000	  19.581	-201.831	  13.277
     56.1799	  13.000	  19.392	-214.642	  13.266
     56.2133	  17.000	  19.217	-210.467	  13.254
     56.2467	  17.000	  19.056	-210.306	  13.243
     56.2802	  23.000	  18.906	-204.156	  13.231
     56.3136	  33.000	  18.769	-194.019	  13.220
     56.3470	  14.000	  18.641	-212.891	  13.208
     56.3804	  18.000	  18.524	-208.774	  13.197
     56.4139	  24.000	  18.415	-202.665	  13.185
     56.4473	  21.000	  18.316	-205.566	  13.174
     56.4807	  21.000	  18.225	-205.475	  13.162
     56.5141	  24.000	  18.143	-202.393	  13.151
     56.5475	  21.000	  18.069	-205.319	  13.139
     56.5810	  26.000	  18.004	-200.254	  13.128
     56.6144	  31.000	  17.948	-195.198	  13.116
     56.6478	  16.000	  17.902	-210.152	  13.105
     56.6812	  23.000	  17.867	-203.117	  13.093
     56.7147	  26.000	  17.846	-200.096	  13.082
     56.7481	  22.000	  17.841	-204.091	  13.071
     56.7815	  16.000	  17.858	-210.108	  13.059
     56.8149	  16.000	  17.905	-210.155	  13.048
     56.8483	  17.000	  17.999	-209.249	  13.037
     56.8818	  17.000	  18.167	-209.417	  13.025
     56.9152	  19.000	  18.446	-207.696	  13.014
     56.9486	  27.000	  18.885	-200.135	  13.003
     56.9820	  31.000	  19.530	-196.779	  12.991
     57.0155	  26.000	  20.396	-202.646	  12.980
     57.0489	  29.000	  21.405	-200.655	  12.969
     57.0823	  17.000	  22.278	-213.528	  12.957
     57.1157	  25.000	  22.608	-205.858	  12.946
     57.1492	  25.000	  22.334	-205.584	  12.935
     57.1826	  33.000	  21.833	-197.083	  12.924
     57.2160	  26.000	  21.384	-203.634	  12.912
     57.2494	  16.000	  20.932	-213.182	  12.901
     57.2828	  22.000	  20.316	-206.566	  12.890
     57.3163	  26.000	  19.579	-201.829	  12.879
     57.3497	  23.000	  18.887	-204.137	  12.868
     57.3831	  15.000	  18.335	-211.585	  12.856
     57.4165	  18.000	  17.931	-208.181	  12.845
     57.4500	  22.000	  17.650	-203.900	  12.834
     57.4834	  19.000	  17.461	-206.711	  12.823
     57.5168	  13.000	  17.337	-212.587	  12.812
     57.5502	  23.000	  17.259	-202.509	  12.801
     57.5836	  26.000	  17.212	-199.462	  12.790
     57.6171	   8.000	  17.189	-217.439	  12.779
     57.6505	  18.000	  17.186	-207.436	  12.768
     57.6839	  12.000	  17.201	-213.451	  12.757
     57.7173	  14.000	  17.234	-211.484	  12.746
     57.7508	  21.000	  17.286	-204.536	  12.734
     57.7842	  24.000	  17.359	-201.609	  12.723
     57.8176	  22.000	  17.455	-203.705	  12.712
     57.8510	  16.000	  17.579	-209.829	  12.701
     57.8844	  22.000	  17.736	-203.986	  12.690
     57.9179	  29.000	  17.534	-196.784	  12.679
     57.9513	  22.000	  17.792	-204.042	  12.669
     57.9847	  17.000	  18.117	-209.367	  12.658
     58.0181	  23.000	  18.534	-203.784	  12.647
     58.0516	  18.000	  19.080	-209.330	  12.636
     58.0850	  24.000	  19.624	-203.874	  12.625
     58.1184	  29.000	  20.672	-199.922	  12.614
     58.1518	  24.000	  22.195	-206.445	  12.603
     58.1852	  25.000	  24.441	-207.691	  12.592
     58.2187	  25.000	  27.718	-210.968	  12.581
     58.2521	  35.000	  32.324	-205.574	  12.570
     58.2855	  28.000	  38.366	-218.616	  12.560
     58.3189	  50.000	  45.359	-203.609	  12.549
     58.3524	  45.000	  51.939	-215.189	  12.538
     58.3858	  57.000	  56.296	-207.546	  12.527
     58.4192	  65.000	  57.116	-200.366	  12.516
     58.4526	  53.000	  54.829	-210.079	  12.505
     58.4861	  40.000	  51.385	-219.635	  12.495
     58.5195	  64.000	  47.903	-192.153	  12.484
     58.5529	  44.000	  44.136	-208.386	  12.473
     58.5863	  38.000	  39.555	-209.805	  12.462
     58.6197	  31.000	  34.460	-211.710	  12.452
     58.6532	  31.000	  29.773	-207.023	  12.441
     58.6866	  23.000	  26.029	-211.279	  12.430
     58.7200	  26.000	  23.260	-205.510	  12.420
     58.7534	  26.000	  21.293	-203.543	  12.409
     58.7869	  22.000	  19.918	-206.168	  12.398
     58.8203	  22.000	  18.950	-205.200	  12.388
     58.8537	  31.000	  18.252	-195.502	  12.377
     58.8871	  19.000	  17.728	-206.978	  12.366
     58.9205	  21.000	  17.321	-204.571	  12.356
     58.9540	  14.000	  16.995	-211.245	  12.345
     58.9874	  17.000	  16.727	-207.977	  12.334
     59.0208	  17.000	  16.504	-207.754	  12.324
     59.0542	  22.000	  16.316	-202.566	  12.313
     59.0877	  18.000	  16.155	-206.405	  12.303
     59.1211	  21.000	  16.015	-203.265	  12.292
     59.1545	  16.000	  15.894	-208.144	  12.282
     59.1879	  26.000	  15.788	-198.038	  12.271
     59.2213	  28.000	  15.693	-195.943	  12.261
     59.2548	  19.000	  15.609	-204.859	  12.250
     59.2882	  13.000	  15.534	-210.784	  12.240
     59.3216	  23.000	  15.466	-200.716	  12.229
     59.3550	  14.000	  15.404	-209.654	  12.219
     59.3885	  18.000	  15.347	-205.597	  12.208
     59.4219	  25.000	  15.295	-198.545	  12.198
     59.4553	  31.000	  15.248	-192.498	  12.187
     59.4887	  17.000	  15.203	-206.453	  12.177
     59.5222	  12.000	  15.162	-211.412	  12.166
     59.5556	  23.000	  15.124	-200.374	  12.156
     59.5890	  17.000	  15.088	-206.338	  12.146
     59.6224	  27.000	  15.054	-196.304	  12.135
     59.6558	  26.000	  15.022	-197.272	  12.125
     59.6893	  35.000	  14.992	-188.242	  12.115
     59.7227	  27.000	  14.963	-196.213	  12.104
     59.7561	  17.000	  14.936	-206.186	  12.094
     59.7895	  21.000	  14.910	-202.160	  12.084
     59.8230	  15.000	  14.885	-208.135	  12.073
     59.8564	  21.000	  14.861	-202.111	  12.063
     59.8898	  22.000	  14.839	-201.089	  12.053
     59.9232	  25.000	  14.817	-198.067	  12.042
     59.9566	  23.000	  14.795	-200.045	  12.032
     59.9901	  28.000	  14.775	-195.025	  12.022
     60.0235	  19.000	  14.755	-204.005	  12.012
     60.0569	  19.000	  14.735	-203.985	  12.001
     60.0903	  22.000	  14.717	-200.967	  11.991
     60.1238	  25.000	  14.699	-197.949	  11.981
     60.1572	  17.000	  14.681	-205.931	  11.971
     60.1906	  26.000	  14.659	-196.909	  11.961
     60.2240	  17.000	  14.792	-206.042	  11.951
     60.2574	  21.000	  14.779	-202.029	  11.940
     60.2909	  26.000	  14.766	-197.016	  11.930
     60.3243	  28.000	  14.754	-195.004	  11.920
     60.3577	  25.000	  14.739	-197.989	  11.910
     60.3911	  23.000	  14.802	-200.052	  11.900
     60.4246	  24.000	  14.793	-199.043	  11.890
     60.4580	  32.000	  14.784	-191.034	  11.880
     60.4914	  32.000	  14.775	-191.025	  11.870
     60.5248	  37.000	  14.767	-186.017	  11.860
     60.5583	  37.000	  14.759	-186.009	  11.850
     60.5917	  25.000	  14.751	-198.001	  11.839
     60.6251	  23.000	  14.744	-199.994	  11.829
     60.6585	  17.000	  14.737	-205.987	  11.819
     60.6919	  22.000	  14.731	-200.981	  11.809
     60.7254	  22.000	  14.725	-200.975	  11.799
     60.7588	  26.000	  14.719	-196.969	  11.789
     60.7922	  35.000	  14.714	-187.964	  11.780
     60.8256	  23.000	  14.709	-199.959	  11.770
     60.8591	  24.000	  14.705	-198.955	  11.760
     60.8925	  32.000	  14.701	-190.951	  11.750
     60.9259	  19.000	  14.698	-203.948	  11.740
     60.9593	  27.000	  14.695	-195.945	  11.730
     60.9927	  17.000	  14.692	-205.942	  11.720
     61.0262	  23.000	  14.690	-199.940	  11.710
     61.0596	  17.000	  14.689	-205.939	  11.700
     61.0930	  26.000	  14.688	-196.938	  11.690
     61.1264	  21.000	  14.687	-201.938	  11.681
     61.1599	  23.000	  14.688	-199.938	  11.671
     61.1933	  21.000	  14.688	-201.938	  11.661
     61.2267	  24.000	  14.690	-198.940	  11.651
     61.2601	  24.000	  14.692	-198.942	  11.641
     61.2935	  23.000	  14.694	-199.944	  11.631
     61.3270	  23.000	  14.698	-199.948	  11.622
     61.3604	  11.000	  14.702	-211.952	  11.612
     61.3938	  27.000	  14.707	-195.957	  11.602
     61.4272	  25.000	  14.713	-197.963	  11.592
     61.4607	  23.000	  14.708	-199.958	  11.583
     61.4941	   8.000	  14.716	-214.966	  11.573
     61.5275	  12.000	  14.699	-210.949	  11.563
     61.5609	  13.000	  14.710	-209.960	  11.554
     61.5943	  21.000	  14.721	-201.971	  11.544
     61.6278	  18.000	  14.728	-204.978	  11.534
     61.6612	  22.000	  14.742	-200.992	  11.525
     61.6946	  15.000	  14.745	-207.995	  11.515
     61.7280	  25.000	  14.763	-198.013	  11.505
     61.7615	  17.000	  14.781	-206.031	  11.496
     61.7949	  18.000	  14.802	-205.052	  11.486
     61.8283	  23.000	  15.014	-200.264	  11.476
     61.8617	  16.000	  15.042	-207.292	  11.467
     61.8952	  31.000	  15.073	-192.323	  11.457
     61.9286	  25.000	  15.106	-198.356	  11.448
     61.9620	  18.000	  15.141	-205.391	  11.438
     61.9954	  22.000	  15.180	-201.430	  11.429
     62.0288	  34.000	  15.317	-189.567	  11.419
     62.0623	  25.000	  15.364	-198.614	  11.410
     62.0957	  32.000	  15.415	-191.665	  11.400
     62.1291	  17.000	  15.470	-206.720	  11.391
     62.1625	  33.000	  15.529	-190.779	  11.381
     62.1960	  22.000	  15.594	-201.844	  11.372
     62.2294	  25.000	  15.664	-198.914	  11.362
     62.2628	  21.000	  15.740	-202.990	  11.353
     62.2962	  11.000	  15.822	-213.072	  11.343
     62.3296	  23.000	  15.913	-201.163	  11.334
     62.3631	  29.000	  16.012	-195.262	  11.324
     62.3965	  23.000	  16.120	-201.370	  11.315
     62.4299	  19.000	  16.238	-205.488	  11.306
     62.4633	  23.000	  16.369	-201.619	  11.296
     62.4968	  22.000	  16.512	-202.762	  11.287
     62.5302	  32.000	  16.671	-192.921	  11.277
     62.5636	  29.000	  16.848	-196.098	  11.268
     62.5970	  16.000	  17.044	-209.294	  11.259
     62.6304	  23.000	  17.263	-202.513	  11.249
     62.6639	  21.000	  17.508	-204.758	  11.240
     62.6973	  21.000	  17.785	-205.035	  11.231
     62.7307	  24.000	  18.097	-202.347	  11.222
     62.7641	  26.000	  18.452	-200.702	  11.212
     62.7976	  16.000	  18.858	-211.108	  11.203
     62.8310	  23.000	  19.324	-204.574	  11.194
     62.8644	  24.000	  19.864	-204.114	  11.185
     62.8978	  34.000	  20.492	-194.742	  11.175
     62.9313	  26.000	  21.231	-203.481	  11.166
     62.9647	  18.000	  22.105	-212.355	  11.157
     62.9981	  23.000	  23.153	-208.403	  11.148
     63.0315	  28.000	  24.423	-204.673	  11.139
     63.0649	  25.000	  25.986	-209.236	  11.129
     63.0984	  27.000	  27.951	-209.201	  11.120
     63.1318	  34.000	  30.493	-204.743	  11.111
     63.1652	  35.000	  33.903	-207.153	  11.102
     63.1986	  39.000	  38.661	-207.911	  11.093
     63.2321	  49.000	  45.491	-204.741	  11.084
     63.2655	  45.000	  55.402	-218.652	  11.075
     63.2989	  69.000	  69.579	-208.829	  11.066
     63.3323	  73.000	  89.108	-224.358	  11.056
     63.3657	  81.000	 114.326	-241.576	  11.047
     63.3992	 159.000	 143.222	-192.472	  11.038
     63.4326	 177.000	 168.927	-200.177	  11.029
     63.4660	 174.000	 180.952	-215.202	  11.020
     63.4994	 161.000	 175.829	-223.079	  11.011
     63.5329	 138.000	 162.228	-232.478	  11.002
     63.5663	 126.000	 149.642	-231.892	  10.993
     63.5997	 117.000	 140.058	-231.308	  10.984
     63.6331	 124.000	 129.136	-213.386	  10.975
     63.6665	 125.000	 113.041	-196.291	  10.966
     63.7000	  71.000	  93.820	-231.070	  10.957
     63.7334	  62.000	  75.774	-222.024	  10.949
     63.7668	  48.000	  61.127	-221.377	  10.940
     63.8002	  39.000	  50.103	-219.353	  10.931
     63.8337	  48.000	  42.143	-202.393	  10.922
     63.8671	  38.000	  36.521	-206.771	  10.913
     63.9005	  28.000	  32.557	-212.807	  10.904
     63.9339	  31.000	  29.723	-206.973	  10.895
     63.9674	  26.000	  27.639	-209.889	  10.886
     64.0008	  34.000	  26.065	-200.315	  10.877
     64.0342	  28.000	  24.847	-205.097	  10.869
     64.0676	  29.000	  23.891	-203.141	  10.860
     64.1010	  22.000	  23.138	-209.388	  10.851
     64.1345	  26.000	  22.548	-204.798	  10.842
     64.1679	  15.000	  22.092	-215.342	  10.833
     64.2013	  34.000	  21.750	-196.000	  10.825
     64.2347	  26.000	  21.508	-203.758	  10.816
     64.2682	  31.000	  21.356	-198.606	  10.807
     64.3016	  33.000	  21.287	-196.537	  10.798
     64.3350	  22.000	  21.298	-207.548	  10.790
     64.3684	  19.000	  21.389	-210.639	  10.781
     64.4018	  23.000	  21.562	-206.812	  10.772
     64.4353	  19.000	  21.821	-211.071	  10.764
     64.4687	  19.000	  22.174	-211.424	  10.755
     64.5021	  24.000	  22.633	-206.883	  10.746
     64.5355	  36.000	  23.214	-195.464	  10.738
     64.5690	  29.000	  23.938	-203.188	  10.729
     64.6024	  28.000	  24.834	-205.084	  10.720
     64.6358	  21.000	  25.941	-213.191	  10.712
     64.6692	  38.000	  27.313	-197.563	  10.703
     64.7026	  22.000	  29.028	-215.278	  10.695
     64.7361	  27.000	  31.200	-212.450	  10.686
     64.7695	  31.000	  34.012	-211.262	  10.677
     64.8029	  46.000	  37.766	-200.016	  10.669
     64.8363	  55.000	  42.955	-196.205	  10.660
     64.8698	  45.000	  50.349	-213.599	  10.652
     64.9032	  60.000	  61.035	-209.285	  10.643
     64.9366	  65.000	  76.361	-219.611	  10.635
     64.9700	  90.000	  97.722	-215.972	  10.626
     65.0034	 108.000	 125.980	-226.230	  10.618
     65.0369	 149.000	 160.123	-219.373	  10.609
     65.0703	 162.000	 194.567	-240.817	  10.601
     65.1037	 220.000	 217.515	-205.765	  10.592
     65.1371	 229.000	 219.432	-198.682	  10.584
     65.1706	 171.000	 205.237	-242.487	  10.576
     65.2040	 155.000	 187.965	-241.215	  10.567
     65.2374	 134.000	 174.765	-249.015	  10.559
     65.2708	 153.000	 163.677	-218.927	  10.550
     65.3042	 112.000	 148.341	-244.591	  10.542
     65.3377	 120.000	 126.739	-214.989	  10.534
     65.3711	 109.000	 103.296	-202.546	  10.525
     65.4045	  79.000	  82.531	-211.781	  10.517
     65.4379	  63.000	  66.083	-211.333	  10.509
     65.4714	  42.000	  53.808	-220.058	  10.500
     65.5048	  47.000	  44.925	-206.175	  10.492
     65.5382	  38.000	  38.582	-208.832	  10.484
     65.5716	  42.000	  34.024	-200.273	  10.475
     65.6051	  35.000	  30.671	-203.921	  10.467
     65.6385	  22.000	  28.129	-214.379	  10.459
     65.6719	  23.000	  26.136	-211.386	  10.451
     65.7053	  28.000	  24.533	-204.783	  10.442
     65.7387	  15.000	  23.215	-216.465	  10.434
     65.7722	  24.000	  22.115	-206.365	  10.426
     65.8056	  27.000	  21.186	-202.436	  10.418
     65.8390	  19.000	  20.394	-209.644	  10.409
     65.8724	  19.000	  19.712	-208.962	  10.401
     65.9059	  18.000	  19.121	-209.371	  10.393
     65.9393	  17.000	  18.605	-209.855	  10.385
     65.9727	  25.000	  18.152	-201.402	  10.377
     66.0061	  18.000	  17.751	-208.001	  10.369
     66.0396	  19.000	  17.395	-206.645	  10.361
     66.0730	  26.000	  17.077	-199.327	  10.352
     66.1064	  17.000	  16.792	-208.042	  10.344
     66.1398	  19.000	  16.535	-205.785	  10.336
     66.1732	   7.000	  16.303	-217.553	  10.328
     66.2067	  15.000	  16.093	-209.343	  10.320
     66.2401	  12.000	  15.901	-212.151	  10.312
     66.2735	  15.000	  15.727	-208.977	  10.304
     66.3069	  17.000	  15.567	-206.817	  10.296
     66.3403	  11.000	  15.421	-212.671	  10.288
     66.3738	  18.000	  15.287	-205.537	  10.280
     66.4072	  23.000	  15.164	-200.414	  10.272
     66.4406	  21.000	  15.051	-202.301	  10.264
     66.4740	   7.000	  14.947	-216.197	  10.256
     66.5075	  17.000	  14.852	-206.102	  10.248
     66.5409	  15.000	  14.766	-208.016	  10.240
     66.5743	  13.000	  14.687	-209.937	  10.232
     66.6077	  13.000	  14.457	-209.707	  10.224
     66.6412	  13.000	  14.398	-209.648	  10.216
     66.6746	  12.000	  14.347	-210.597	  10.208
     66.7080	  18.000	  14.305	-204.555	  10.201
     66.7414	  13.000	  14.273	-209.523	  10.193
     66.7748	  11.000	  14.255	-211.505	  10.185
     66.8083	  12.000	  14.177	-210.427	  10.177
     66.8417	  14.000	  14.204	-208.454	  10.169
     66.8751	  15.000	  14.267	-207.517	  10.161
     66.9085	  21.000	  14.381	-201.631	  10.153
     66.9420	  12.000	  14.563	-210.813	  10.146
     66.9754	  14.000	  14.827	-209.077	  10.138
     67.0088	  12.000	  15.178	-211.428	  10.130
     67.0422	  14.000	  15.582	-209.832	  10.122
     67.0756	  17.000	  15.937	-207.187	  10.115
     67.1091	  15.000	  16.088	-209.338	  10.107
     67.1425	  12.000	  15.980	-212.230	  10.099
     67.1759	  19.000	  15.732	-204.982	  10.091
     67.2093	  17.000	  15.494	-206.744	  10.084
     67.2428	  21.000	  15.316	-202.566	  10.076
     67.2762	  27.000	  15.151	-196.401	  10.068
     67.3096	  11.000	  14.924	-212.174	  10.061
     67.3430	  21.000	  14.621	-201.871	  10.053
     67.3764	  13.000	  14.304	-209.554	  10.045
     67.4099	  14.000	  14.026	-208.275	  10.038
     67.4433	  13.000	  13.801	-209.051	  10.030
     67.4767	   5.000	  13.628	-216.878	  10.022
     67.5101	  12.000	  13.495	-209.745	  10.015
     67.5436	   8.000	  13.394	-213.644	  10.007
     67.5770	  13.000	  13.314	-208.564	  10.000
     67.6104	  17.000	  13.251	-204.501	   9.992
     67.6438	   9.000	  13.197	-212.447	   9.984
     67.6772	   8.000	  13.152	-213.402	   9.977
     67.7107	  15.000	  13.111	-206.361	   9.969
     67.7441	  16.000	  13.075	-205.325	   9.962
     67.7775	  12.000	  13.042	-209.292	   9.954
     67.8109	  11.000	  13.011	-210.261	   9.947
     67.8444	   8.000	  12.983	-213.233	   9.939
     67.8778	  18.000	  12.957	-203.207	   9.932
     67.9112	   4.000	  12.932	-217.182	   9.924
     67.9446	  21.000	  12.908	-200.158	   9.917
     67.9781	  16.000	  12.886	-205.136	   9.909
     68.0115	  13.000	  12.864	-208.114	   9.902
     68.0449	  11.000	  12.844	-210.094	   9.895
     68.0783	  25.000	  12.824	-196.074	   9.887
     68.1117	  11.000	  12.805	-210.055	   9.880
     68.1452	  17.000	  12.786	-204.036	   9.872
     68.1786	   9.000	  12.769	-212.019	   9.865
     68.2120	   9.000	  12.752	-212.002	   9.858
     68.2454	  23.000	  12.735	-197.985	   9.850
     68.2789	  13.000	  12.515	-207.765	   9.843
     68.3123	  12.000	  12.503	-208.753	   9.836
     68.3457	  13.000	  12.492	-207.742	   9.828
     68.3791	  11.000	  12.481	-209.731	   9.821
     68.4125	  13.000	  12.470	-207.720	   9.814
     68.4460	   8.000	  12.459	-212.709	   9.807
     68.4794	   8.000	  12.348	-212.598	   9.799
     68.5128	  14.000	  12.340	-206.590	   9.792
     68.5462	   8.000	  12.332	-212.582	   9.785
     68.5797	  12.000	  12.324	-208.574	   9.778
     68.6131	   9.000	  12.316	-211.566	   9.770
     68.6465	   8.000	  12.308	-212.558	   9.763
     68.6799	  12.000	  12.301	-208.551	   9.756
     68.7133	  11.000	  12.293	-209.543	   9.749
     68.7468	  14.000	  12.285	-206.535	   9.742
     68.7802	  14.000	  12.278	-206.528	   9.734
     68.8136	   9.000	  12.270	-211.520	   9.727
     68.8470	  18.000	  12.263	-202.513	   9.720
     68.8805	   8.000	  12.256	-212.506	   9.713
     68.9139	  14.000	  12.248	-206.498	   9.706
     68.9473	  11.000	  12.241	-209.491	   9.699
     68.9807	   9.000	  12.234	-211.484	   9.692
     69.0142	  17.000	  12.227	-203.477	   9.685
     69.0476	   7.000	  12.220	-213.470	   9.678
     69.0810	   9.000	  12.213	-211.463	   9.671
     69.1144	  19.000	  12.206	-201.456	   9.663
     69.1478	   9.000	  12.199	-211.449	   9.656
     69.1813	   6.000	  12.193	-214.443	   9.649
     69.2147	  12.000	  12.186	-208.436	   9.642
     69.2481	   3.000	  12.179	-217.429	   9.635
     69.2815	  11.000	  12.173	-209.423	   9.628
     69.3150	  13.000	  12.166	-207.416	   9.621
     69.3484	   9.000	  12.160	-211.410	   9.615
     69.3818	  16.000	  12.154	-204.404	   9.608
     69.4152	  22.000	  12.148	-198.398	   9.601
     69.4486	  19.000	  12.142	-201.392	   9.594
     69.4821	  19.000	  12.136	-201.386	   9.587
     69.5155	   9.000	  12.130	-211.380	   9.580
     69.5489	   8.000	  12.203	-212.453	   9.573
     69.5823	  14.000	  12.199	-206.449	   9.566
     69.6158	  16.000	  12.195	-204.445	   9.559
     69.6492	  15.000	  12.192	-205.442	   9.552
     69.6826	  12.000	  12.189	-208.439	   9.546
     69.7160	   5.000	  12.186	-215.436	   9.539
     69.7495	   7.000	  12.183	-213.433	   9.532
     69.7829	   7.000	  12.221	-213.471	   9.525
     69.8163	   9.000	  12.220	-211.470	   9.518
     69.8497	   9.000	  12.219	-211.469	   9.512
     69.8831	  19.000	  12.219	-201.469	   9.505
     69.9166	  15.000	  12.220	-205.470	   9.498
     69.9500	  12.000	  12.238	-208.488	   9.491
     69.9834	  15.000	  12.240	-205.490	   9.484
     70.0168	  17.000	  12.244	-203.494	   9.478
     70.0502	  11.000	  12.249	-209.499	   9.471
     70.0837	  17.000	  12.256	-203.506	   9.464
     70.1171	  13.000	  12.264	-207.514	   9.458
     70.1505	  21.000	  12.274	-199.524	   9.451
     70.1839	  17.000	  12.296	-203.546	   9.444
     70.2174	  13.000	  12.313	-207.563	   9.438
     70.2508	  17.000	  12.336	-203.586	   9.431
     70.2842	  14.000	  12.365	-206.615	   9.424
     70.3176	  12.000	  12.402	-208.652	   9.418
     70.3511	   8.000	  12.457	-212.707	   9.411
     70.3845	   8.000	  12.534	-212.784	   9.405
     70.4179	  14.000	  12.644	-206.894	   9.398
     70.4513	  11.000	  12.796	-210.046	   9.391
     70.4847	  17.000	  13.001	-204.251	   9.385
     70.5182	  14.000	  13.266	-207.516	   9.378
     70.5516	  13.000	  13.575	-208.825	   9.372
     70.5850	   9.000	  13.876	-213.126	   9.365
     70.6184	  12.000	  14.068	-210.318	   9.359
     70.6519	  14.000	  14.078	-208.328	   9.352
     70.6853	  14.000	  13.948	-208.198	   9.346
     70.7187	  15.000	  13.786	-207.036	   9.339
     70.7521	   9.000	  13.664	-212.914	   9.333
     70.7855	  18.000	  13.583	-203.833	   9.326
     70.8190	   8.000	  13.492	-213.742	   9.320
     70.8524	   8.000	  13.345	-213.595	   9.313
     70.8858	   8.000	  13.153	-213.403	   9.307
     70.9192	  17.000	  12.958	-204.208	   9.301
     70.9527	   8.000	  12.791	-213.041	   9.294
     70.9861	  13.000	  12.660	-207.910	   9.288
     71.0195	  13.000	  12.564	-207.814	   9.281
     71.0529	  11.000	  12.495	-209.745	   9.275
     71.0863	  13.000	  12.448	-207.698	   9.269
     71.1198	  14.000	  12.416	-206.666	   9.262
     71.1532	  12.000	  12.395	-208.645	   9.256
     71.1866	  17.000	  12.382	-203.632	   9.250
     71.2200	  14.000	  12.375	-206.625	   9.243
     71.2535	   7.000	  12.373	-213.623	   9.237
     71.2869	   8.000	  12.374	-212.624	   9.231
     71.3203	  12.000	  12.378	-208.628	   9.225
     71.3537	   8.000	  12.385	-212.635	   9.218
     71.3872	  11.000	  12.395	-209.645	   9.212
     71.4206	   7.000	  12.408	-213.658	   9.206
     71.4540	  14.000	  12.422	-206.672	   9.200
     71.4874	  11.000	  12.440	-209.690	   9.193
     71.5208	  13.000	  12.460	-207.710	   9.187
     71.5543	  13.000	  12.482	-207.732	   9.181
     71.5877	  19.000	  12.507	-201.757	   9.175
     71.6211	  15.000	  12.536	-205.786	   9.169
     71.6545	   7.000	  12.567	-213.817	   9.163
     71.6880	  16.000	  12.601	-204.851	   9.156
     71.7214	  16.000	  12.640	-204.890	   9.150
     71.7548	  25.000	  12.682	-195.932	   9.144
     71.7882	  22.000	  12.729	-198.979	   9.138
     71.8216	  13.000	  12.780	-208.030	   9.132
     71.8551	   8.000	  12.837	-213.087	   9.126
     71.8885	  12.000	  12.900	-209.150	   9.120
     71.9219	  15.000	  12.970	-206.220	   9.114
     71.9553	  11.000	  13.047	-210.297	   9.108
     71.9888	   9.000	  13.133	-212.383	   9.102
     72.0222	   9.000	  13.228	-212.478	   9.096
     72.0556	   7.000	  13.335	-214.585	   9.090
     72.0890	  14.000	  13.454	-207.704	   9.084
     72.1225	  16.000	  13.588	-205.838	   9.078
     72.1559	  22.000	  13.740	-199.990	   9.072
     72.1893	  19.000	  13.911	-203.161	   9.066
     72.2227	  13.000	  14.106	-209.356	   9.060
     72.2561	  18.000	  14.328	-204.578	   9.054
     72.2896	  12.000	  14.584	-210.834	   9.048
     72.3230	  23.000	  14.879	-200.129	   9.042
     72.3564	  23.000	  15.223	-200.473	   9.036
     72.3898	  17.000	  15.626	-206.876	   9.030
     72.4232	  23.000	  16.102	-201.352	   9.024
     72.4567	  33.000	  16.672	-191.922	   9.019
     72.4901	  26.000	  17.360	-199.610	   9.013
     72.5235	  18.000	  18.207	-208.457	   9.007
     72.5569	  18.000	  19.272	-209.522	   9.001
     72.5904	  25.000	  20.648	-203.898	   8.995
     72.6238	  25.000	  22.481	-205.731	   8.989
     72.6572	  36.000	  24.986	-197.236	   8.984
     72.6906	  36.000	  28.459	-200.709	   8.978
     72.7241	  50.000	  33.274	-191.524	   8.972
     72.7575	  53.000	  39.833	-195.083	   8.966
     72.7909	  39.000	  48.458	-217.708	   8.960
     72.8243	  53.000	  59.148	-214.398	   8.955
     72.8577	  69.000	  70.973	-210.223	   8.949
     72.8912	 107.000	  81.360	-182.610	   8.943
     72.9246	  91.000	  86.592	-203.842	   8.938
     72.9580	  91.000	  85.128	-202.378	   8.932
     72.9914	  67.000	  79.636	-220.886	   8.926
     73.0249	  76.000	  74.011	-206.261	   8.921
     73.0583	  55.000	  70.282	-223.532	   8.915
     73.0917	  60.000	  68.138	-216.388	   8.909
     73.1251	  60.000	  65.723	-213.973	   8.904
     73.1585	  63.000	  61.528	-206.778	   8.898
     73.1920	  62.000	  56.036	-202.286	   8.892
     73.2254	  43.000	  50.822	-216.072	   8.887
     73.2588	  48.000	  46.806	-207.056	   8.881
     73.2922	  47.000	  43.810	-205.060	   8.876
     73.3257	  48.000	  40.992	-201.242	   8.870
     73.3591	  45.000	  37.786	-201.036	   8.865
     73.3925	  26.000	  34.472	-216.722	   8.859
     73.4259	  23.000	  31.683	-216.933	   8.853
     73.4594	  27.000	  29.597	-210.847	   8.848
     73.4928	  35.000	  28.091	-201.341	   8.842
     73.5262	  27.000	  26.699	-207.949	   8.837
     73.5596	  23.000	  25.021	-210.271	   8.831
     73.5930	  27.000	  23.066	-204.316	   8.826
     73.6265	  23.000	  21.150	-206.400	   8.821
     73.6599	  16.000	  19.458	-211.708	   8.815
     73.6933	  17.000	  18.078	-209.328	   8.810
     73.7267	  15.000	  16.992	-210.242	   8.804
     73.7601	  19.000	  16.150	-205.400	   8.799
     73.7936	  11.000	  15.497	-212.747	   8.793
     73.8270	  12.000	  14.986	-211.236	   8.788
     73.8604	  17.000	  14.578	-205.828	   8.783
     73.8938	   6.000	  14.246	-216.496	   8.777
     73.9273	  15.000	  13.970	-207.220	   8.772
     73.9607	  19.000	  13.736	-202.986	   8.767
     73.9941	  12.000	  13.534	-209.784	   8.761
     74.0275	  12.000	  13.358	-209.608	   8.756
     74.0610	  15.000	  13.203	-206.453	   8.751
     74.0944	  17.000	  13.066	-204.316	   8.745
     74.1278	  14.000	  12.945	-207.195	   8.740
     74.1612	  11.000	  12.836	-210.086	   8.735
     74.1946	  16.000	  12.738	-204.988	   8.730
     74.2281	   6.000	  12.649	-214.899	   8.724
     74.2615	  12.000	  12.569	-208.819	   8.719
     74.2949	  13.000	  12.496	-207.746	   8.714
     74.3283	  15.000	  12.429	-205.679	   8.709
     74.3618	  18.000	  12.368	-202.618	   8.703
     74.3952	  13.000	  12.312	-207.562	   8.698
     74.4286	  14.000	  12.260	-206.510	   8.693
     74.4620	  13.000	  12.213	-207.463	   8.688
     74.4955	  22.000	  12.169	-198.419	   8.683
     74.5289	  13.000	  12.128	-207.378	   8.678
     74.5623	  19.000	  12.091	-201.341	   8.672
     74.5957	  16.000	  12.056	-204.306	   8.667
     74.6291	  12.000	  12.023	-208.273	   8.662
     74.6626	  13.000	  11.993	-207.243	   8.657
     74.6960	  14.000	  11.965	-206.215	   8.652
     74.7294	  17.000	  11.939	-203.189	   8.647
     74.7628	   9.000	  11.915	-211.165	   8.642
     74.7962	  17.000	  11.893	-203.143	   8.637
     74.8297	  17.000	  11.872	-203.122	   8.632
     74.8631	  13.000	  11.853	-207.103	   8.627
     74.8965	  14.000	  11.835	-206.085	   8.622
     74.9299	  12.000	  11.819	-208.069	   8.617
     74.9634	  22.000	  11.804	-198.054	   8.612
     74.9968	  11.000	  11.791	-209.041	   8.607
     75.0302	  15.000	  11.779	-205.029	   8.602
     75.0636	  14.000	  11.768	-206.018	   8.597
     75.0971	  16.000	  11.758	-204.008	   8.592
     75.1305	   9.000	  11.750	-211.000	   8.587
     75.1639	  11.000	  11.742	-208.992	   8.582
     75.1973	  19.000	  11.736	-200.986	   8.577
     75.2307	   8.000	  11.732	-211.982	   8.572
     75.2642	  18.000	  11.728	-201.978	   8.567
     75.2976	  19.000	  11.726	-200.976	   8.563
     75.3310	  11.000	  11.725	-208.975	   8.558
     75.3644	  21.000	  11.726	-198.976	   8.553
     75.3979	  12.000	  11.728	-207.978	   8.548
     75.4313	  11.000	  11.731	-208.981	   8.543
     75.4647	   8.000	  11.736	-211.986	   8.538
     75.4981	  12.000	  11.743	-207.993	   8.534
     75.5315	  16.000	  11.752	-204.002	   8.529
     75.5650	  15.000	  11.763	-205.013	   8.524
     75.5984	  15.000	  11.776	-205.026	   8.519
     75.6318	  19.000	  11.821	-201.071	   8.515
     75.6652	   8.000	  11.839	-212.089	   8.510
     75.6987	  16.000	  11.861	-204.111	   8.505
     75.7321	  18.000	  11.886	-202.136	   8.500
     75.7655	  14.000	  11.914	-206.164	   8.496
     75.7989	  13.000	  11.947	-207.197	   8.491
     75.8324	  11.000	  11.998	-209.248	   8.486
     75.8658	  16.000	  12.041	-204.291	   8.482
     75.8992	  11.000	  12.090	-209.340	   8.477
     75.9326	   8.000	  12.146	-212.396	   8.472
     75.9660	  12.000	  12.210	-208.460	   8.468
     75.9995	   9.000	  12.284	-211.534	   8.463
     76.0329	  11.000	  12.370	-209.620	   8.458
     76.0663	  12.000	  12.472	-208.722	   8.454
     76.0997	  15.000	  12.592	-205.842	   8.449
     76.1331	  13.000	  12.738	-207.988	   8.445
     76.1666	  17.000	  12.916	-204.166	   8.440
     76.2000	  16.000	  13.052	-205.302	   8.436
     76.2334	  14.000	  13.326	-207.576	   8.431
     76.2668	  18.000	  13.662	-203.912	   8.426
     76.3003	  18.000	  14.069	-204.319	   8.422
     76.3337	  13.000	  14.542	-209.792	   8.417
     76.3671	  19.000	  15.053	-204.303	   8.413
     76.4005	  18.000	  15.509	-205.759	   8.408
     76.4340	  16.000	  15.972	-208.222	   8.404
     76.4674	  11.000	  16.455	-213.705	   8.400
     76.5008	  14.000	  17.083	-211.333	   8.395
     76.5342	  22.000	  17.985	-204.235	   8.391
     76.5676	  16.000	  19.283	-211.533	   8.386
     76.6011	  25.000	  21.085	-204.335	   8.382
     76.6345	  28.000	  23.561	-203.811	   8.377
     76.6679	  26.000	  26.849	-209.099	   8.373
     76.7013	  31.000	  31.089	-208.339	   8.369
     76.7348	  38.000	  36.260	-206.510	   8.364
     76.7682	  38.000	  41.844	-212.094	   8.360
     76.8016	  52.000	  46.567	-202.817	   8.356
     76.8350	  66.000	  48.722	-190.972	   8.351
     76.8684	  42.000	  47.712	-213.962	   8.347
     76.9019	  44.000	  44.773	-209.023	   8.343
     76.9353	  40.000	  41.690	-209.940	   8.338
     76.9687	  38.000	  39.471	-209.721	   8.334
     77.0021	  45.000	  38.115	-201.365	   8.330
     77.0356	  37.000	  36.858	-208.108	   8.326
     77.0690	  35.000	  34.764	-208.014	   8.321
     77.1024	  25.000	  31.615	-214.865	   8.317
     77.1358	  39.000	  28.008	-197.258	   8.313
     77.1693	  19.000	  24.620	-213.870	   8.309
     77.2027	  23.000	  21.776	-207.026	   8.304
     77.2361	  19.000	  19.531	-208.781	   8.300
     77.2695	  11.000	  17.817	-215.067	   8.296
     77.3029	   9.000	  16.531	-215.781	   8.292
     77.3364	  12.000	  15.571	-211.821	   8.288
     77.3698	   8.000	  14.849	-215.099	   8.284
     77.4032	  18.000	  14.297	-204.547	   8.279
     77.4366	  13.000	  13.865	-209.115	   8.275
     77.4701	  13.000	  13.520	-208.770	   8.271
     77.5035	  13.000	  13.238	-208.488	   8.267
     77.5369	  19.000	  13.004	-202.254	   8.263
     77.5703	  12.000	  12.808	-209.058	   8.259
     77.6037	   9.000	  12.641	-211.891	   8.255
     77.6372	  11.000	  12.500	-209.750	   8.251
     77.6706	   9.000	  12.378	-211.628	   8.247
     77.7040	  17.000	  12.274	-203.524	   8.243
     77.7374	  16.000	  12.185	-204.435	   8.239
     77.7709	   9.000	  12.107	-211.357	   8.235
     77.8043	  12.000	  12.041	-208.291	   8.231
     77.8377	  11.000	  11.984	-209.234	   8.227
     77.8711	  15.000	  11.935	-205.185	   8.223
     77.9045	   9.000	  11.895	-211.145	   8.219
     77.9380	  19.000	  11.861	-201.111	   8.215
     77.9714	  13.000	  11.833	-207.083	   8.211
     78.0048	  16.000	  11.812	-204.062	   8.207
     78.0382	  21.000	  11.797	-199.047	   8.203
     78.0717	   9.000	  11.787	-211.037	   8.199
     78.1051	  12.000	  11.783	-208.033	   8.195
     78.1385	  11.000	  11.785	-209.035	   8.192
     78.1719	  18.000	  11.793	-202.043	   8.188
     78.2054	   8.000	  11.807	-212.057	   8.184
     78.2388	   8.000	  11.828	-212.078	   8.180
     78.2722	   9.000	  11.856	-211.106	   8.176
     78.3056	  17.000	  11.892	-203.142	   8.172
     78.3390	   6.000	  11.937	-214.187	   8.169
     78.3725	  13.000	  11.993	-207.243	   8.165
     78.4059	  16.000	  12.060	-204.310	   8.161
     78.4393	  14.000	  12.140	-206.390	   8.157
     78.4727	  15.000	  12.237	-205.487	   8.153
     78.5061	  19.000	  12.354	-201.604	   8.150
     78.5396	  17.000	  12.499	-203.749	   8.146
     78.5730	   6.000	  12.669	-214.919	   8.142
     78.6064	   5.000	  12.896	-216.146	   8.139
     78.6398	  14.000	  13.152	-207.402	   8.135
     78.6733	  17.000	  13.475	-204.725	   8.131
     78.7067	   6.000	  13.888	-216.138	   8.128
     78.7401	  13.000	  14.432	-209.682	   8.124
     78.7735	  16.000	  15.162	-207.412	   8.120
     78.8070	  12.000	  16.153	-212.403	   8.117
     78.8404	  27.000	  17.512	-198.762	   8.113
     78.8738	  23.000	  19.325	-204.575	   8.109
     78.9072	  21.000	  21.703	-208.953	   8.106
     78.9406	  35.000	  24.691	-197.941	   8.102
     78.9741	  33.000	  28.178	-203.428	   8.099
     79.0075	  44.000	  31.702	-195.952	   8.095
     79.0409	  42.000	  34.341	-200.591	   8.091
     79.0743	  44.000	  35.152	-199.402	   8.088
     79.1078	  40.000	  34.091	-202.341	   8.084
     79.1412	  43.000	  32.108	-197.358	   8.081
     79.1746	  43.000	  30.233	-195.483	   8.077
     79.2080	  36.000	  28.957	-201.207	   8.074
     79.2414	  33.000	  28.204	-203.454	   8.070
     79.2749	  28.000	  27.477	-207.727	   8.067
     79.3083	  26.000	  26.210	-208.460	   8.063
     79.3417	  32.000	  24.274	-200.524	   8.060
     79.3751	  21.000	  22.034	-209.284	   8.057
     79.4086	  23.000	  19.906	-205.156	   8.053
     79.4420	  21.000	  18.105	-205.355	   8.050
     79.4754	  19.000	  16.674	-205.924	   8.046
     79.5088	  22.000	  15.576	-201.826	   8.043
     79.5423	  24.000	  14.753	-199.003	   8.040
     79.5757	  22.000	  14.144	-200.394	   8.036
     79.6091	  17.000	  13.694	-204.944	   8.033
     79.6425	  24.000	  13.363	-197.613	   8.029
     79.6759	  19.000	  13.118	-202.368	   8.026
     79.7094	  11.000	  12.940	-210.190	   8.023
     79.7428	  25.000	  12.815	-196.065	   8.019
     79.7762	  12.000	  12.738	-208.988	   8.016
     79.8096	  24.000	  12.705	-196.955	   8.013
     79.8430	  12.000	  12.720	-208.970	   8.010
     79.8765	  11.000	  12.790	-210.040	   8.006
     79.9099	  19.000	  12.928	-202.178	   8.003
     79.9433	  15.000	  13.155	-206.405	   8.000
     79.9767	  21.000	  13.498	-200.748	   7.997
     80.0102	   9.000	  13.991	-213.241	   7.993
     80.0436	  14.000	  14.665	-208.915	   7.990
     80.0770	  26.000	  15.541	-197.791	   7.987
     80.1104	  21.000	  16.603	-203.853	   7.984
     80.1439	  18.000	  17.745	-207.995	   7.981
     80.1773	  18.000	  18.669	-208.919	   7.978
     80.2107	  29.000	  19.131	-198.381	   7.974
     80.2441	  25.000	  18.947	-202.197	   7.971
     80.2775	  21.000	  18.334	-205.584	   7.968
     80.3110	  17.000	  17.649	-208.899	   7.965
     80.3444	  14.000	  17.124	-211.374	   7.962
     80.3778	   9.000	  16.783	-216.033	   7.959
     80.4112	  11.000	  16.563	-213.813	   7.956
     80.4447	  22.000	  16.247	-202.497	   7.953
     80.4781	  21.000	  15.709	-202.959	   7.950
     80.5115	  19.000	  15.000	-204.250	   7.947
     80.5449	  17.000	  14.265	-205.515	   7.944
     80.5784	  12.000	  13.609	-209.859	   7.941
     80.6118	  19.000	  13.072	-202.322	   7.938
     80.6452	  19.000	  12.654	-201.904	   7.935
     80.6786	   9.000	  12.383	-211.633	   7.932
     80.7120	   8.000	  12.156	-212.406	   7.929
     80.7455	   7.000	  11.998	-213.248	   7.926
     80.7789	  17.000	  11.894	-203.144	   7.923
     80.8123	   6.000	  11.835	-214.085	   7.920
     80.8457	  17.000	  11.813	-203.063	   7.917
     80.8792	  11.000	  11.817	-209.067	   7.914
     80.9126	  12.000	  11.834	-208.084	   7.911
     80.9460	  11.000	  11.864	-209.114	   7.908
     80.9794	  14.000	  11.845	-206.095	   7.905
     81.0128	   9.000	  11.798	-211.048	   7.902
     81.0463	   8.000	  11.740	-211.990	   7.900
     81.0797	   8.000	  11.692	-211.942	   7.897
     81.1131	  13.000	  11.662	-206.912	   7.894
     81.1465	  16.000	  11.648	-203.898	   7.891
     81.1800	  14.000	  11.642	-205.892	   7.888
     81.2134	  21.000	  11.632	-198.882	   7.886
     81.2468	  14.000	  11.614	-205.864	   7.883
     81.2802	  23.000	  11.594	-196.844	   7.880
     81.3136	  17.000	  11.582	-202.832	   7.877
     81.3471	  12.000	  11.583	-207.833	   7.874
     81.3805	  12.000	  11.600	-207.850	   7.872
     81.4139	  17.000	  11.633	-202.883	   7.869
     81.4473	   8.000	  11.684	-211.934	   7.866
     81.4808	  15.000	  11.752	-205.002	   7.864
     81.5142	  18.000	  11.839	-202.089	   7.861
     81.5476	  15.000	  11.949	-205.199	   7.858
     81.5810	  12.000	  12.085	-208.335	   7.856
     81.6144	  18.000	  12.253	-202.503	   7.853
     81.6479	  11.000	  12.463	-209.713	   7.850
     81.6813	  22.000	  12.728	-198.978	   7.848
     81.7147	  13.000	  13.071	-208.321	   7.845
     81.7481	  18.000	  13.521	-203.771	   7.842
     81.7816	  14.000	  14.120	-208.370	   7.840
     81.8150	  14.000	  14.927	-209.177	   7.837
     81.8484	  26.000	  16.005	-198.255	   7.835
     81.8818	  16.000	  17.429	-209.679	   7.832
     81.9153	  19.000	  19.255	-208.505	   7.830
     81.9487	  25.000	  21.490	-204.740	   7.827
     81.9821	  23.000	  24.011	-209.261	   7.825
     82.0155	  28.000	  26.473	-206.723	   7.822
     82.0489	  37.000	  28.302	-199.552	   7.820
     82.0824	  31.000	  28.943	-206.193	   7.817
     82.1158	  34.000	  28.324	-202.574	   7.815
     82.1492	  22.000	  26.956	-213.206	   7.812
     82.1826	  21.000	  25.545	-212.795	   7.810
     82.2160	  24.000	  24.494	-208.744	   7.807
     82.2495	  24.000	  23.836	-208.086	   7.805
     82.2829	  22.000	  23.327	-209.577	   7.802
     82.3163	  31.000	  22.600	-199.850	   7.800
     82.3497	  21.000	  21.427	-208.677	   7.798
     82.3832	  26.000	  19.903	-202.153	   7.795
     82.4166	  25.000	  18.265	-201.515	   7.793
     82.4500	  21.000	  16.808	-204.058	   7.790
     82.4834	  12.000	  15.595	-211.845	   7.788
     82.5169	  15.000	  14.633	-207.883	   7.786
     82.5503	  17.000	  13.890	-205.140	   7.783
     82.5837	  14.000	  13.324	-207.574	   7.781
     82.6171	  16.000	  12.895	-205.145	   7.779
     82.6505	  19.000	  12.568	-201.818	   7.777
     82.6840	  13.000	  12.302	-207.552	   7.774
     82.7174	  14.000	  12.105	-206.355	   7.772
     82.7508	  12.000	  11.948	-208.198	   7.770
     82.7842	  15.000	  11.821	-205.071	   7.768
     82.8177	  12.000	  11.718	-207.968	   7.765
     82.8511	  17.000	  11.633	-202.883	   7.763
     82.8845	  17.000	  11.564	-202.814	   7.761
     82.9179	  14.000	  11.507	-205.757	   7.759
     82.9514	  19.000	  11.507	-200.757	   7.757
     82.9848	  19.000	  11.472	-200.722	   7.754
     83.0182	  15.000	  11.446	-204.696	   7.752
     83.0516	  14.000	  11.427	-205.677	   7.750
     83.0850	  15.000	  11.415	-204.665	   7.748
     83.1185	   9.000	  11.410	-210.660	   7.746
     83.1519	   4.000	  11.412	-215.662	   7.744
     83.1853	  13.000	  11.420	-206.670	   7.742
     83.2187	  15.000	  11.456	-204.706	   7.739
     83.2522	   9.000	  11.477	-210.727	   7.737
     83.2856	  15.000	  11.505	-204.755	   7.735
     83.3190	  12.000	  11.540	-207.790	   7.733
     83.3524	   9.000	  11.582	-210.832	   7.731
     83.3858	  21.000	  11.633	-198.883	   7.729
     83.4193	  14.000	  11.693	-205.943	   7.727
     83.4527	  13.000	  11.763	-207.013	   7.725
     83.4861	  18.000	  11.845	-202.095	   7.723
     83.5195	  14.000	  11.941	-206.191	   7.721
     83.5530	  11.000	  12.052	-209.302	   7.719
     83.5864	  14.000	  12.171	-206.421	   7.717
     83.6198	  16.000	  12.323	-204.573	   7.715
     83.6532	  15.000	  12.501	-205.751	   7.713
     83.6866	  15.000	  12.711	-205.961	   7.711
     83.7201	  16.000	  12.960	-205.210	   7.710
     83.7535	  24.000	  13.260	-197.510	   7.708
     83.7869	  21.000	  13.625	-200.875	   7.706
     83.8203	  19.000	  14.076	-203.326	   7.704
     83.8538	  19.000	  14.642	-203.892	   7.702
     83.8872	  18.000	  15.377	-205.627	   7.700
     83.9206	  27.000	  16.343	-197.593	   7.698
     83.9540	  22.000	  17.627	-203.877	   7.697
     83.9874	  25.000	  19.337	-202.587	   7.695
     84.0209	  26.000	  21.596	-203.846	   7.693
     84.0543	  18.000	  24.519	-214.769	   7.691
     84.0877	  33.000	  28.177	-203.427	   7.689
     84.1211	  34.000	  32.495	-206.745	   7.688
     84.1546	  50.000	  37.077	-195.327	   7.686
     84.1880	  45.000	  41.015	-204.265	   7.684
     84.2214	  64.000	  43.091	-187.341	   7.682
     84.2548	  44.000	  42.707	-206.957	   7.681
     84.2883	  43.000	  40.514	-205.764	   7.679
     84.3217	  35.000	  37.812	-211.062	   7.677
     84.3551	  36.000	  35.579	-207.829	   7.675
     84.3885	  35.000	  34.178	-207.428	   7.674
     84.4219	  27.000	  33.410	-214.660	   7.672
     84.4554	  48.000	  32.669	-192.919	   7.670
     84.4888	  34.000	  31.273	-205.523	   7.669
     84.5222	  38.000	  29.004	-199.254	   7.667
     84.5556	  22.000	  26.228	-212.478	   7.666
     84.5891	  34.000	  23.467	-197.717	   7.664
     84.6225	  32.000	  21.038	-197.288	   7.662
     84.6559	  16.000	  19.044	-211.294	   7.661
     84.6893	  25.000	  17.470	-200.720	   7.659
     84.7227	  23.000	  16.254	-201.504	   7.658
     84.7562	  12.000	  15.326	-211.576	   7.656
     84.7896	  15.000	  14.620	-207.870	   7.655
     84.8230	  15.000	  14.082	-207.332	   7.653
     84.8564	   9.000	  13.666	-212.916	   7.652
     84.8899	  19.000	  13.341	-202.591	   7.650
     84.9233	  17.000	  13.084	-204.334	   7.649
     84.9567	  12.000	  12.880	-209.130	   7.647
     84.9901	  12.000	  12.718	-208.968	   7.646
     85.0235	  17.000	  12.590	-203.840	   7.644
     85.0570	  24.000	  12.493	-196.743	   7.643
     85.0904	  17.000	  12.423	-203.673	   7.641
     85.1238	  19.000	  12.378	-201.628	   7.640
     85.1572	  15.000	  12.357	-205.607	   7.638
     85.1907	  14.000	  12.361	-206.611	   7.637
     85.2241	  26.000	  12.391	-194.641	   7.636
     85.2575	  13.000	  12.452	-207.702	   7.634
     85.2909	  13.000	  12.551	-207.801	   7.633
     85.3244	  12.000	  12.696	-208.946	   7.632
     85.3578	   9.000	  12.904	-212.154	   7.630
     85.3912	  21.000	  13.192	-200.442	   7.629
     85.4246	  14.000	  13.586	-207.836	   7.628
     85.4580	  28.000	  14.109	-194.359	   7.626
     85.4915	  17.000	  14.777	-206.027	   7.625
     85.5249	  26.000	  15.645	-197.895	   7.624
     85.5583	  23.000	  16.677	-201.927	   7.622
     85.5917	  18.000	  17.791	-208.041	   7.621
     85.6252	  37.000	  18.792	-190.042	   7.620
     85.6586	  25.000	  19.401	-202.651	   7.619
     85.6920	  33.000	  19.441	-194.691	   7.618
     85.7254	  26.000	  19.028	-201.278	   7.616
     85.7589	  32.000	  18.443	-194.693	   7.615
     85.7923	  21.000	  17.960	-205.210	   7.614
     85.8257	  23.000	  17.682	-202.932	   7.613
     85.8591	  26.000	  17.597	-199.847	   7.612
     85.8925	  22.000	  17.589	-203.839	   7.610
     85.9259	  28.000	  17.497	-197.747	   7.609
     85.9594	  21.000	  17.228	-204.478	   7.608
     85.9928	  17.000	  16.834	-208.084	   7.607
     86.0262	  19.000	  16.446	-205.696	   7.606
     86.0596	  21.000	  16.171	-203.421	   7.605
     86.0931	  16.000	  16.071	-208.321	   7.604
     86.1265	  22.000	  16.178	-202.428	   7.603
     86.1599	  19.000	  16.518	-205.768	   7.602
     86.1933	  17.000	  17.134	-208.384	   7.601
     86.2268	  16.000	  18.083	-210.333	   7.600
     86.2602	  26.000	  19.444	-201.694	   7.599
     86.2936	  31.000	  21.319	-198.569	   7.598
     86.3270	  24.000	  23.812	-208.062	   7.597
     86.3604	  16.000	  27.011	-219.261	   7.596
     86.3939	  36.000	  30.922	-203.172	   7.595
     86.4273	  40.000	  35.337	-203.587	   7.594
     86.4607	  43.000	  39.650	-204.900	   7.593
     86.4941	  45.000	  42.800	-206.050	   7.592
     86.5276	  53.000	  43.765	-199.015	   7.591
     86.5610	  43.000	  42.552	-207.802	   7.590
     86.5944	  37.000	  39.972	-211.222	   7.589
     86.6278	  39.000	  37.309	-206.559	   7.588
     86.6613	  40.000	  35.298	-203.548	   7.587
     86.6947	  21.000	  34.108	-221.358	   7.586
     86.7281	  24.000	  33.449	-217.699	   7.586
     86.7615	  42.000	  32.704	-198.954	   7.585
     86.7949	  22.000	  31.253	-217.503	   7.584
     86.8284	  36.000	  29.002	-201.252	   7.583
     86.8618	  28.000	  26.244	-206.494	   7.582
     86.8952	  29.000	  23.511	-202.761	   7.581
     86.9286	  22.000	  21.100	-207.350	   7.581
     86.9621	  17.000	  19.104	-210.354	   7.580
     86.9955	  19.000	  17.511	-206.761	   7.579
     87.0289	  16.000	  16.265	-208.515	   7.578
     87.0623	  21.000	  15.299	-202.549	   7.578
     87.0957	  19.000	  14.552	-203.802	   7.577
     87.1292	  21.000	  13.970	-201.220	   7.576
     87.1626	  15.000	  13.509	-206.759	   7.576
     87.1960	  12.000	  13.139	-209.389	   7.575
     87.2294	  12.000	  12.837	-209.087	   7.574
     87.2629	  21.000	  12.585	-199.835	   7.573
     87.2963	   9.000	  12.372	-211.622	   7.573
     87.3297	  15.000	  12.191	-205.441	   7.572
     87.3631	   9.000	  12.034	-211.284	   7.572
     87.3965	   8.000	  11.899	-212.149	   7.571
     87.4300	  15.000	  11.780	-205.030	   7.570
     87.4634	   7.000	  11.677	-212.927	   7.570
     87.4968	   8.000	  11.585	-211.835	   7.569
     87.5302	   7.000	  11.505	-212.755	   7.569
     87.5637	   8.000	  11.433	-211.683	   7.568
     87.5971	  14.000	  11.369	-205.619	   7.567
     87.6305	   8.000	  11.312	-211.562	   7.567
     87.6639	  19.000	  11.262	-200.512	   7.566
     87.6974	  15.000	  11.172	-204.422	   7.566
     87.7308	  12.000	  11.132	-207.382	   7.565
     87.7642	  12.000	  11.097	-207.347	   7.565
     87.7976	  15.000	  11.065	-204.315	   7.564
     87.8310	   9.000	  11.037	-210.287	   7.564
     87.8645	  14.000	  11.012	-205.262	   7.563
     87.8979	  11.000	  10.990	-208.240	   7.563
     87.9313	  14.000	  10.948	-205.198	   7.563
     87.9647	  22.000	  10.932	-197.182	   7.562
     87.9982	  19.000	  10.917	-200.167	   7.562
     88.0316	   5.000	  10.905	-214.155	   7.561
     88.0650	   3.000	  10.895	-216.145	   7.561
     88.0984	  13.000	  10.886	-206.136	   7.561
     88.1318	  21.000	  10.880	-198.130	   7.560
     88.1653	  17.000	  10.875	-202.125	   7.560
     88.1987	  11.000	  10.872	-208.122	   7.560
     88.2321	  13.000	  10.871	-206.121	   7.559
     88.2655	   9.000	  10.871	-210.121	   7.559
     88.2990	   8.000	  10.872	-211.122	   7.559
     88.3324	   5.000	  10.876	-214.126	   7.558
     88.3658	   9.000	  10.881	-210.131	   7.558
     88.3992	  13.000	  10.887	-206.137	   7.558
     88.4326	  17.000	  10.895	-202.145	   7.558
     88.4661	  11.000	  10.905	-208.155	   7.557
     88.4995	  16.000	  10.916	-203.166	   7.557
     88.5329	  16.000	  10.929	-203.179	   7.557
     88.5663	  13.000	  10.944	-206.194	   7.557
     88.5998	  21.000	  10.961	-198.211	   7.556
     88.6332	  19.000	  10.979	-200.229	   7.556
     88.6666	   9.000	  11.000	-210.250	   7.556
     88.7000	   9.000	  11.023	-210.273	   7.556
     88.7334	  16.000	  11.048	-203.298	   7.556
     88.7669	  25.000	  11.076	-194.326	   7.556
     88.8003	  13.000	  11.107	-206.357	   7.555
     88.8337	  14.000	  11.140	-205.390	   7.555
     88.8671	  11.000	  11.176	-208.426	   7.555
     88.9006	   9.000	  11.216	-210.466	   7.555
     88.9340	  13.000	  11.260	-206.510	   7.555
     88.9674	   9.000	  11.308	-210.558	   7.555
     89.0008	  16.000	  11.360	-203.610	   7.555
     89.0343	  11.000	  11.417	-208.667	   7.555
     89.0677	   9.000	  11.480	-210.730	   7.555
     89.1011	  14.000	  11.548	-205.798	   7.555
     89.1345	  21.000	  11.624	-198.874	   7.555
     89.1679	  11.000	  11.696	-208.946	   7.555
     89.2014	   6.000	  11.788	-214.038	   7.555
     89.2348	   9.000	  11.889	-211.139	   7.555
     89.2682	  13.000	  12.002	-207.252	   7.555
     89.3016	  15.000	  12.127	-205.377	   7.555
     89.3351	   7.000	  12.266	-213.516	   7.555
     89.3685	  12.000	  12.422	-208.672	   7.555
     89.4019	  12.000	  12.592	-208.842	   7.555
     89.4353	   6.000	  12.790	-215.040	   7.555
     89.4688	   9.000	  13.025	-212.275	   7.555
     89.5022	  21.000	  13.281	-200.531	   7.556
     89.5356	  24.000	  13.575	-197.825	   7.556
     89.5690	   9.000	  13.915	-213.165	   7.556
     89.6024	  16.000	  14.310	-206.560	   7.556
     89.6359	  26.000	  14.772	-197.022	   7.556
     89.6693	  18.000	  15.317	-205.567	   7.556
     89.7027	  21.000	  15.965	-203.215	   7.556
     89.7361	  25.000	  16.748	-199.998	   7.557
     89.7695	  17.000	  17.690	-208.940	   7.557
     89.8030	  11.000	  18.845	-216.095	   7.557
     89.8364	  29.000	  20.285	-199.535	   7.557
     89.8698	  24.000	  22.115	-206.365	   7.558
     89.9032	  25.000	  24.485	-207.735	   7.558
     89.9367	  26.000	  27.574	-209.824	   7.558
     89.9701	  32.000	  31.579	-207.829	   7.558
     90.0035	  28.000	  36.685	-216.935	   7.559
     90.0369	  32.000	  42.958	-219.208	   7.559
     90.0703	  50.000	  50.415	-208.665	   7.559
     90.1038	  63.000	  58.498	-203.748	   7.560
     90.1372	  67.000	  65.971	-207.221	   7.560
     90.1706	  64.000	  70.968	-215.218	   7.560
     90.2040	  79.000	  71.989	-201.239	   7.561
     90.2375	  67.000	  69.224	-210.474	   7.561
     90.2709	  57.000	  64.445	-215.695	   7.562
     90.3043	  49.000	  59.594	-218.844	   7.562
     90.3377	  43.000	  55.915	-221.165	   7.562
     90.3712	  48.000	  53.715	-213.965	   7.563
     90.4046	  55.000	  52.618	-205.868	   7.563
     90.4380	  57.000	  51.680	-202.930	   7.564
     90.4714	  56.000	  49.781	-202.031	   7.564
     90.5048	  59.000	  46.347	-195.597	   7.565
     90.5383	  38.000	  41.740	-211.990	   7.565
     90.5717	  48.000	  36.800	-197.050	   7.566
     90.6051	  36.000	  32.194	-204.444	   7.566
     90.6385	  29.000	  28.241	-207.491	   7.567
     90.6720	  17.000	  24.998	-216.248	   7.567
     90.7054	  21.000	  22.406	-209.656	   7.568
     90.7388	  18.000	  20.367	-210.617	   7.568
     90.7722	  27.000	  18.770	-200.020	   7.569
     90.8056	  14.000	  17.519	-211.769	   7.569
     90.8391	   9.000	  16.531	-215.781	   7.570
     90.8725	  25.000	  15.741	-198.991	   7.571
     90.9059	  18.000	  15.098	-205.348	   7.571
     90.9393	  14.000	  14.567	-208.816	   7.572
     90.9728	  19.000	  14.120	-203.370	   7.572
     91.0062	  16.000	  13.742	-205.992	   7.573
     91.0396	  22.000	  13.416	-199.666	   7.574
     91.0730	  19.000	  13.134	-202.384	   7.574
     91.1064	  19.000	  12.888	-202.138	   7.575
     91.1399	  11.000	  12.672	-209.922	   7.576
     91.1733	   7.000	  12.481	-213.731	   7.576
     91.2067	  11.000	  12.312	-209.562	   7.577
     91.2401	  13.000	  12.162	-207.412	   7.578
     91.2736	  12.000	  12.027	-208.277	   7.579
     91.3070	   8.000	  11.906	-212.156	   7.579
     91.3404	  13.000	  11.797	-207.047	   7.580
     91.3738	  31.000	  11.699	-188.949	   7.581
     91.4073	  15.000	  11.610	-204.860	   7.582
     91.4407	  16.000	  11.529	-203.779	   7.583
     91.4741	  12.000	  11.456	-207.706	   7.583
     91.5075	  14.000	  11.389	-205.639	   7.584
     91.5409	  16.000	  11.401	-203.651	   7.585
     91.5744	  22.000	  11.346	-197.596	   7.586
     91.6078	  12.000	  11.297	-207.547	   7.587
     91.6412	  12.000	  11.251	-207.501	   7.588
     91.6746	   6.000	  11.210	-213.460	   7.588
     91.7081	  13.000	  11.172	-206.422	   7.589
     91.7415	  15.000	  11.138	-204.388	   7.590
     91.7749	  21.000	  11.107	-198.357	   7.591
     91.8083	   7.000	  11.078	-212.328	   7.592
     91.8418	  12.000	  11.089	-207.339	   7.593
     91.8752	  14.000	  11.067	-205.317	   7.594
     91.9086	  15.000	  11.047	-204.297	   7.595
     91.9420	   5.000	  11.029	-214.279	   7.596
     91.9754	  13.000	  11.014	-206.264	   7.597
     92.0089	  12.000	  11.000	-207.250	   7.598
     92.0423	  13.000	  10.989	-206.239	   7.599
     92.0757	   9.000	  10.980	-210.230	   7.600
     92.1091	   8.000	  10.973	-211.223	   7.601
     92.1425	  11.000	  10.968	-208.218	   7.602
     92.1760	   7.000	  10.965	-212.215	   7.603
     92.2094	  15.000	  10.965	-204.215	   7.604
     92.2428	  12.000	  10.966	-207.216	   7.605
     92.2762	   7.000	  10.970	-212.220	   7.606
     92.3097	   8.000	  10.977	-211.227	   7.607
     92.3431	  14.000	  10.987	-205.237	   7.609
     92.3765	  11.000	  10.999	-208.249	   7.610
     92.4099	  19.000	  11.015	-200.265	   7.611
     92.4433	  16.000	  11.034	-203.284	   7.612
     92.4768	   6.000	  11.058	-213.308	   7.613
     92.5102	  12.000	  11.087	-207.337	   7.614
     92.5436	  19.000	  11.121	-200.371	   7.616
     92.5770	  18.000	  11.162	-201.412	   7.617
     92.6105	  16.000	  11.211	-203.461	   7.618
     92.6439	  15.000	  11.270	-204.520	   7.619
     92.6773	  21.000	  11.341	-198.591	   7.620
     92.7107	  12.000	  11.427	-207.677	   7.622
     92.7442	  12.000	  11.534	-207.784	   7.623
     92.7776	  21.000	  11.668	-198.918	   7.624
     92.8110	  18.000	  11.838	-202.088	   7.625
     92.8444	  22.000	  12.056	-198.306	   7.627
     92.8778	   7.000	  12.337	-213.587	   7.628
     92.9113	  19.000	  12.699	-201.949	   7.629
     92.9447	  19.000	  13.166	-202.416	   7.631
     92.9781	  17.000	  13.747	-204.997	   7.632
     93.0115	  18.000	  14.459	-204.709	   7.633
     93.0450	  11.000	  15.291	-212.541	   7.635
     93.0784	  14.000	  16.191	-210.441	   7.636
     93.1118	  21.000	  17.030	-204.280	   7.638
     93.1452	  21.000	  17.617	-204.867	   7.639
     93.1786	  21.000	  17.785	-205.035	   7.640
     93.2121	  12.000	  17.532	-213.782	   7.642
     93.2455	   7.000	  17.027	-218.277	   7.643
     93.2789	  13.000	  16.479	-211.729	   7.645
     93.3123	  15.000	  16.034	-209.284	   7.646
     93.3458	  19.000	  15.749	-204.999	   7.648
     93.3792	  22.000	  15.611	-201.861	   7.649
     93.4126	  15.000	  15.542	-208.792	   7.651
     93.4460	  16.000	  15.428	-207.678	   7.652
     93.4794	  18.000	  15.168	-205.418	   7.654
     93.5129	  21.000	  14.746	-201.996	   7.655
     93.5463	  19.000	  14.231	-203.481	   7.657
     93.5797	  17.000	  13.708	-204.958	   7.658
     93.6131	  15.000	  13.236	-206.486	   7.660
     93.6466	  18.000	  12.838	-203.088	   7.661
     93.6800	   4.000	  12.515	-216.765	   7.663
     93.7134	  14.000	  12.261	-206.511	   7.665
     93.7468	  15.000	  12.066	-205.316	   7.666
     93.7803	  13.000	  11.839	-207.089	   7.668
     93.8137	   8.000	  11.730	-211.980	   7.669
     93.8471	  11.000	  11.650	-208.900	   7.671
     93.8805	  15.000	  11.592	-204.842	   7.673
     93.9139	  16.000	  11.553	-203.803	   7.674
     93.9474	  11.000	  11.527	-208.777	   7.676
     93.9808	  15.000	  11.514	-204.764	   7.678
     94.0142	  16.000	  11.511	-203.761	   7.679
     94.0476	   9.000	  11.470	-210.720	   7.681
     94.0811	  11.000	  11.484	-208.734	   7.683
     94.1145	  18.000	  11.513	-201.763	   7.685
     94.1479	   8.000	  11.542	-211.792	   7.686
     94.1813	   6.000	  11.579	-213.829	   7.688
     94.2148	  19.000	  11.623	-200.873	   7.690
     94.2482	  14.000	  11.675	-205.925	   7.692
     94.2816	  13.000	  11.735	-206.985	   7.693
     94.3150	  19.000	  11.803	-201.053	   7.695
     94.3484	  16.000	  11.881	-204.131	   7.697
     94.3819	  11.000	  11.968	-209.218	   7.699
     94.4153	  12.000	  12.068	-208.318	   7.701
     94.4487	  17.000	  12.179	-203.429	   7.703
     94.4821	   9.000	  12.306	-211.556	   7.705
     94.5155	  15.000	  12.448	-205.698	   7.706
     94.5490	  18.000	  12.609	-202.859	   7.708
     94.5824	  11.000	  12.792	-210.042	   7.710
     94.6158	  13.000	  13.000	-208.250	   7.712
     94.6492	   9.000	  13.239	-212.489	   7.714
     94.6827	  19.000	  13.513	-202.763	   7.716
     94.7161	  23.000	  13.830	-199.080	   7.718
     94.7495	  17.000	  14.200	-205.450	   7.720
     94.7829	  15.000	  14.635	-207.885	   7.722
     94.8163	  27.000	  15.154	-196.404	   7.724
     94.8498	  16.000	  15.780	-208.030	   7.726
     94.8832	   5.000	  16.547	-219.797	   7.728
     94.9166	  13.000	  17.501	-212.751	   7.730
     94.9500	  15.000	  18.706	-211.956	   7.732
     94.9835	  18.000	  20.240	-210.490	   7.734
     95.0169	  16.000	  22.202	-214.452	   7.736
     95.0503	  31.000	  24.704	-201.954	   7.738
     95.0837	  32.000	  27.865	-204.115	   7.740
     95.1172	  34.000	  31.791	-206.041	   7.742
     95.1506	  40.000	  36.522	-204.772	   7.744
     95.1840	  36.000	  41.954	-214.204	   7.746
     95.2174	  40.000	  47.669	-215.919	   7.749
     95.2508	  47.000	  52.799	-214.049	   7.751
     95.2843	  77.000	  56.140	-187.390	   7.753
     95.3177	  74.000	  56.784	-191.034	   7.755
     95.3511	  50.000	  54.868	-213.118	   7.757
     95.3845	  46.000	  51.489	-213.739	   7.759
     95.4180	  33.000	  47.919	-223.169	   7.762
     95.4514	  39.000	  45.014	-214.264	   7.764
     95.4848	  46.000	  43.121	-205.371	   7.766
     95.5182	  38.000	  42.164	-212.414	   7.768
     95.5517	  35.000	  41.716	-214.966	   7.771
     95.5851	  39.000	  41.090	-210.340	   7.773
     95.6185	  40.000	  39.627	-207.877	   7.775
     95.6519	  34.000	  37.106	-211.356	   7.777
     95.6853	  43.000	  33.855	-199.105	   7.780
     95.7188	  26.000	  30.410	-212.660	   7.782
     95.7522	  25.000	  27.191	-210.441	   7.784
     95.7856	  23.000	  24.395	-209.645	   7.787
     95.8190	  27.000	  22.067	-203.317	   7.789
     95.8524	  18.000	  20.178	-210.428	   7.791
     95.8859	  15.000	  18.667	-211.917	   7.794
     95.9193	  23.000	  17.467	-202.717	   7.796
     95.9527	  23.000	  16.516	-201.766	   7.798
     95.9861	  24.000	  15.759	-200.009	   7.801
     96.0196	  14.000	  15.152	-209.402	   7.803
     96.0530	  11.000	  14.661	-211.911	   7.806
     96.0864	  13.000	  14.257	-209.507	   7.808
     96.1198	  16.000	  13.924	-206.174	   7.810
     96.1533	  13.000	  13.646	-208.896	   7.813
     96.1867	  14.000	  13.414	-207.664	   7.815
     96.2201	  17.000	  13.220	-204.470	   7.818
     96.2535	  18.000	  13.060	-203.310	   7.820
     96.2869	  24.000	  12.930	-197.180	   7.823
     96.3204	  16.000	  12.830	-205.080	   7.825
     96.3538	  16.000	  12.758	-205.008	   7.828
     96.3872	  12.000	  12.715	-208.965	   7.830
     96.4206	  14.000	  12.705	-206.955	   7.833
     96.4541	  18.000	  12.732	-202.982	   7.836
     96.4875	   8.000	  12.799	-213.049	   7.838
     96.5209	  13.000	  12.914	-208.164	   7.841
     96.5543	  15.000	  13.081	-206.331	   7.843
     96.5877	  23.000	  13.303	-198.553	   7.846
     96.6212	  11.000	  13.574	-210.824	   7.849
     96.6546	  21.000	  13.874	-201.124	   7.851
     96.6880	  17.000	  14.157	-205.407	   7.854
     96.7214	   9.000	  14.355	-213.605	   7.856
     96.7549	  23.000	  14.408	-199.658	   7.859
     96.7883	  12.000	  14.311	-210.561	   7.862
     96.8217	  12.000	  14.105	-210.355	   7.864
     96.8551	  21.000	  13.888	-201.138	   7.867
     96.8885	   8.000	  13.706	-213.956	   7.870
     96.9220	  21.000	  13.587	-200.837	   7.873
     96.9554	  17.000	  13.535	-204.785	   7.875
     96.9888	  13.000	  13.533	-208.783	   7.878
     97.0222	  18.000	  13.549	-203.799	   7.881
     97.0557	  19.000	  13.542	-202.792	   7.884
     97.0891	  15.000	  13.490	-206.740	   7.886
     97.1225	  12.000	  13.395	-209.645	   7.889
     97.1559	  21.000	  13.303	-200.553	   7.892
     97.1893	  12.000	  13.243	-209.492	   7.895
     97.2228	  22.000	  13.241	-199.491	   7.898
     97.2562	  15.000	  13.317	-206.567	   7.901
     97.2896	  18.000	  13.486	-203.736	   7.903
     97.3230	  22.000	  13.763	-200.013	   7.906
     97.3565	  21.000	  14.163	-201.413	   7.909
     97.3899	  26.000	  14.702	-196.952	   7.912
     97.4233	  14.000	  15.392	-209.642	   7.915
     97.4567	  15.000	  16.231	-209.481	   7.918
     97.4902	  19.000	  17.183	-206.433	   7.921
     97.5236	  24.000	  18.155	-202.405	   7.924
     97.5570	  27.000	  18.976	-200.226	   7.927
     97.5904	  24.000	  19.440	-203.690	   7.930
     97.6238	  32.000	  19.425	-195.675	   7.933
     97.6573	  31.000	  18.993	-196.243	   7.936
     97.6907	  19.000	  18.345	-207.595	   7.939
     97.7241	  28.000	  17.691	-197.941	   7.942
     97.7575	  27.000	  17.164	-198.414	   7.945
     97.7910	  18.000	  16.818	-207.068	   7.948
     97.8244	  27.000	  16.638	-197.888	   7.951
     97.8578	  13.000	  16.556	-211.806	   7.954
     97.8912	  18.000	  16.457	-206.707	   7.957
     97.9247	  24.000	  16.225	-200.475	   7.960
     97.9581	  15.000	  15.806	-209.056	   7.963
     97.9915	  12.000	  15.242	-211.492	   7.966
     98.0249	  11.000	  14.623	-211.873	   7.969
     98.0583	  17.000	  14.028	-205.278	   7.972
     98.0918	  18.000	  13.499	-203.749	   7.975
     98.1252	  11.000	  13.052	-210.302	   7.979
     98.1586	  15.000	  12.684	-205.934	   7.982
     98.1920	  12.000	  12.385	-208.635	   7.985
     98.2254	   9.000	  12.147	-211.397	   7.988
     98.2589	  13.000	  11.956	-207.206	   7.991
     98.2923	  14.000	  11.804	-206.054	   7.995
     98.3257	   8.000	  11.683	-211.933	   7.998
     98.3591	  13.000	  11.587	-206.837	   8.001
     98.3926	  15.000	  11.510	-204.760	   8.004
     98.4260	  12.000	  11.449	-207.699	   8.007
     98.4594	  15.000	  11.403	-204.653	   8.011
     98.4928	   9.000	  11.368	-210.618	   8.014
     98.5262	  16.000	  11.345	-203.595	   8.017
     98.5597	  17.000	  11.331	-202.581	   8.021
     98.5931	   9.000	  11.323	-210.573	   8.024
     98.6265	  11.000	  11.318	-208.568	   8.027
     98.6599	  22.000	  11.310	-197.560	   8.031
     98.6934	  15.000	  11.293	-204.543	   8.034
     98.7268	  16.000	  11.265	-203.515	   8.037
     98.7602	  12.000	  11.230	-207.480	   8.041
     98.7936	  12.000	  11.193	-207.443	   8.044
     98.8271	   9.000	  11.160	-210.410	   8.047
     98.8605	  12.000	  11.133	-207.383	   8.051
     98.8939	  13.000	  11.112	-206.362	   8.054
     98.9273	  12.000	  11.096	-207.346	   8.058
     98.9607	  14.000	  11.084	-205.334	   8.061
     98.9942	  11.000	  10.995	-208.245	   8.065
     99.0276	   9.000	  10.980	-210.230	   8.068
     99.0610	  12.000	  10.961	-207.211	   8.072
     99.0944	  19.000	  10.938	-200.188	   8.075
     99.1279	  12.000	  10.916	-207.166	   8.078
     99.1613	  14.000	  10.896	-205.146	   8.082
     99.1947	  19.000	  10.877	-200.127	   8.086
     99.2281	  15.000	  10.861	-204.111	   8.089
     99.2616	   5.000	  10.849	-214.099	   8.093
     99.2950	   8.000	  10.838	-211.088	   8.096
     99.3284	   6.000	  10.792	-213.042	   8.100
     99.3618	   9.000	  10.785	-210.035	   8.103
     99.3952	   8.000	  10.779	-211.029	   8.107
     99.4287	   8.000	  10.775	-211.025	   8.111
     99.4621	   8.000	  10.772	-211.022	   8.114
     99.4955	  16.000	  10.769	-203.019	   8.118
     99.5289	  22.000	  10.767	-197.017	   8.121
     99.5623	   9.000	  10.765	-210.015	   8.125
     99.5958	  14.000	  10.765	-205.015	   8.129
     99.6292	   1.000	  10.764	-218.014	   8.132
     99.6626	  13.000	  10.764	-206.014	   8.136
     99.6960	   7.000	  10.763	-212.013	   8.140
     99.7295	  12.000	  10.763	-207.013	   8.144
     99.7629	  19.000	  10.764	-200.014	   8.147
     99.7963	  19.000	  10.764	-200.014	   8.151
     99.8297	   7.000	  10.765	-212.015	   8.155
     99.8632	   6.000	  10.766	-213.016	   8.158
     99.8966	  16.000	  10.767	-203.017	   8.162
     99.9300	   4.000	  10.768	-215.018	   8.166
     99.9634	  13.000	  10.770	-206.020	   8.170
     99.9968	  13.000	  10.810	-206.060	   8.174
     24.5025	        	        	        	        	       0	(  0  1  2)	  0  1
     24.5637	        	        	        	        	       0	(  0  1  2)	  0  2
     33.6018	        	        	        	        	       0	(  1  0  4)	  0  1
     33.6870	        	        	        	        	       0	(  1  0  4)	  0  2
     36.2037	        	        	        	        	       0	(  1  1  0)	  0  1
     36.2958	        	        	        	        	       0	(  1  1  0)	  0  2
     39.7486	        	        	        	        	       0	(  0  0  6)	  0  1
     39.8505	        	        	        	        	       0	(  0  0  6)	  0  2
     41.4835	        	        	        	        	       0	(  1  1  3)	  0  1
     41.5903	        	        	        	        	       0	(  1  1  3)	  0  2
     44.2011	        	        	        	        	       0	(  2  0  2)	  0  1
     44.3156	        	        	        	        	       0	(  2  0  2)	  0  2
     50.2182	        	        	        	        	       0	(  0  2  4)	  0  1
     50.3504	        	        	        	        	       0	(  0  2  4)	  0  2
     54.8427	        	        	        	        	       0	(  1  1  6)	  0  1
     54.9890	        	        	        	        	       0	(  1  1  6)	  0  2
     57.1035	        	        	        	        	       0	(  2  1  1)	  0  1
     57.2569	        	        	        	        	       0	(  2  1  1)	  0  2
     58.3471	        	        	        	        	       0	(  0  1  8)	  0  1
     58.4081	        	        	        	        	       0	(  1  2  2)	  0  1
     58.5045	        	        	        	        	       0	(  0  1  8)	  0  2
     58.5657	        	        	        	        	       0	(  1  2  2)	  0  2
     63.4591	        	        	        	        	       0	(  2  1  4)	  0  1
     63.6335	        	        	        	        	       0	(  2  1  4)	  0  2
     65.1112	        	        	        	        	       0	(  3  0  0)	  0  1
     65.2912	        	        	        	        	       0	(  3  0  0)	  0  2
     67.1036	        	        	        	        	       0	(  1  2  5)	  0  1
     67.2907	        	        	        	        	       0	(  1  2  5)	  0  2
     70.6251	        	        	        	        	       0	(  2  0  8)	  0  1
     70.8249	        	        	        	        	       0	(  2  0  8)	  0  2
     72.9212	        	        	        	        	       0	(  1  0 10)	  0  1
     73.1296	        	        	        	        	       0	(  1  0 10)	  0  2
     73.3236	        	        	        	        	       0	(  1  1  9)	  0  1
     73.5335	        	        	        	        	       0	(  1  1  9)	  0  2
     76.4077	        	        	        	        	       0	(  2  1  7)	  0  1
     76.6297	        	        	        	        	       0	(  2  1  7)	  0  2
     76.8302	        	        	        	        	       0	(  2  2  0)	  0  1
     77.0539	        	        	        	        	       0	(  2  2  0)	  0  2
     79.0602	        	        	        	        	       0	(  0  3  6)	  0  1
     79.0602	        	        	        	        	       0	(  3  0  6)	  0  1
     79.2930	        	        	        	        	       0	(  0  3  6)	  0  2
     79.2930	        	        	        	        	       0	(  3  0  6)	  0  2
     80.2083	        	        	        	        	       0	(  2  2  3)	  0  1
     80.4459	        	        	        	        	       0	(  2  2  3)	  0  2
     80.9626	        	        	        	        	       0	(  1  3  1)	  0  1
     81.2034	        	        	        	        	       0	(  1  3  1)	  0  2
     82.0257	        	        	        	        	       0	(  1  2  8)	  0  1
     82.0782	        	        	        	        	       0	(  3  1  2)	  0  1
     82.2711	        	        	        	        	       0	(  1  2  8)	  0  2
     82.3238	        	        	        	        	       0	(  3  1  2)	  0  2
     84.2223	        	        	        	        	       0	(  0  2 10)	  0  1
     84.4774	        	        	        	        	       0	(  0  2 10)	  0  2
     85.6645	        	        	        	        	       0	(  0  0 12)	  0  1
     85.9260	        	        	        	        	       0	(  0  0 12)	  0  2
     86.5145	        	        	        	        	       0	(  1  3  4)	  0  1
     86.7800	        	        	        	        	       0	(  1  3  4)	  0  2
     89.8265	        	        	        	        	       0	(  3  1  5)	  0  1
     90.1079	        	        	        	        	       0	(  3  1  5)	  0  2
     90.1856	        	        	        	        	       0	(  2  2  6)	  0  1
     90.4688	        	        	        	        	       0	(  2  2  6)	  0  2
     93.1640	        	        	        	        	       0	(  0  4  2)	  0  1
     93.4623	        	        	        	        	       0	(  0  4  2)	  0  2
     95.2986	        	        	        	        	       0	(  2  1 10)	  0  1
     95.6083	        	        	        	        	       0	(  2  1 10)	  0  2
     96.7431	        	        	        	        	       0	(  1  1 12)	  0  1
     97.0607	        	        	        	        	       0	(  1  1 12)	  0  2
     97.5978	        	        	        	        	       0	(  4  0  4)	  0  1
     97.9202	        	        	        	        	       0	(  4  0  4)	  0  2
     98.6861	        	        	        	        	       0	(  1  3  7)	  0  1
     99.0148	        	        	        	        	       0	(  1  3  7)	  0  2
    103.1286	        	        	        	        	       0	(  1  2 11)	  0  1
    103.2353	        	        	        	        	       0	(  3  2  1)	  0  1
    103.4845	        	        	        	        	       0	(  1  2 11)	  0  2
    103.5918	        	        	        	        	       0	(  3  2  1)	  0  2
    104.3178	        	        	        	        	       0	(  3  1  8)	  0  1
    104.3714	        	        	        	        	       0	(  2  3  2)	  0  1
    104.6814	        	        	        	        	       0	(  3  1  8)	  0  2
    104.7353	        	        	        	        	       0	(  2  3  2)	  0  2
    106.9825	        	        	        	        	       0	(  2  2  9)	  0  1
    107.3641	        	        	        	        	       0	(  2  2  9)	  0  2
    108.8148	        	        	        	        	       0	(  0  1 14)	  0  1
    108.9795	        	        	        	        	       0	(  3  2  4)	  0  1
    109.2096	        	        	        	        	       0	(  0  1 14)	  0  2
    109.3754	        	        	        	        	       0	(  3  2  4)	  0  2
    110.5611	        	        	        	        	       0	(  4  1  0)	  0  1
    110.9689	        	        	        	        	       0	(  4  1  0)	  0  2
    112.5194	        	        	        	        	       0	(  2  3  5)	  0  1
    112.9426	        	        	        	        	       0	(  2  3  5)	  0  2
