 S01 E17   Chi2:  1.4911  CELL:    5.64238   5.64238   5.64238   90.0000   90.0000   90.0000   SPGR: 225                    TEMP:      0.00
  1   3890     1.54060     1.54439     0.00000     0.12121     0.00000    0
    44     0     1
       0.00000      20.00000
 2Theta	Yobs	Ycal	Yobs-Ycal	Backg	Posr	(hkl)	K
     20.0167	   39.00	   28.13	-1612.20	   25.26
     20.0501	   34.00	   28.12	-1617.19	   25.24
     20.0836	   47.00	   28.10	-1604.17	   25.23
     20.1170	   38.00	   28.08	-1613.15	   25.21
     20.1504	   43.00	   28.07	-1608.14	   25.19
     20.1838	   42.00	   28.05	-1609.12	   25.18
     20.2172	   43.00	   28.04	-1608.10	   25.16
     20.2507	   31.00	   28.02	-1620.09	   25.14
     20.2841	   31.00	   28.00	-1620.07	   25.13
     20.3175	   38.00	   27.99	-1613.05	   25.11
     20.3509	   33.00	   27.97	-1618.04	   25.09
     20.3844	   32.00	   27.95	-1619.02	   25.08
     20.4178	   31.00	   27.94	-1620.01	   25.06
     20.4512	   36.00	   27.92	-1614.99	   25.04
     20.4846	   33.00	   27.90	-1617.97	   25.03
     20.5181	   43.00	   27.89	-1607.96	   25.01
     20.5515	   29.00	   27.87	-1621.94	   24.99
     20.5849	   39.00	   27.85	-1611.92	   24.98
     20.6183	   37.00	   27.84	-1613.91	   24.96
     20.6517	   36.00	   27.82	-1614.89	   24.94
     20.6852	   37.00	   27.80	-1613.87	   24.93
     20.7186	   31.00	   27.79	-1619.86	   24.91
     20.7520	   31.00	   27.77	-1619.84	   24.89
     20.7854	   38.00	   27.75	-1612.82	   24.88
     20.8189	   44.00	   27.74	-1606.81	   24.86
     20.8523	   34.00	   27.72	-1616.79	   24.85
     20.8857	   44.00	   27.71	-1606.77	   24.83
     20.9191	   43.00	   27.69	-1607.76	   24.81
     20.9525	   39.00	   27.67	-1611.74	   24.80
     20.9860	   30.00	   27.66	-1620.73	   24.78
     21.0194	   49.00	   27.64	-1601.71	   24.76
     21.0528	   43.00	   27.62	-1607.69	   24.75
     21.0862	   36.00	   27.61	-1614.68	   24.73
     21.1197	   17.00	   27.59	-1633.66	   24.71
     21.1531	   27.00	   27.57	-1623.64	   24.70
     21.1865	   32.00	   27.56	-1618.63	   24.68
     21.2199	   43.00	   27.54	-1607.61	   24.66
     21.2533	   34.00	   27.53	-1616.59	   24.65
     21.2868	   43.00	   27.51	-1607.58	   24.63
     21.3202	   34.00	   27.49	-1616.56	   24.62
     21.3536	   39.00	   27.48	-1611.55	   24.60
     21.3870	   29.00	   27.46	-1621.53	   24.58
     21.4205	   33.00	   27.44	-1617.51	   24.57
     21.4539	   28.00	   27.43	-1622.50	   24.55
     21.4873	   38.00	   27.41	-1612.48	   24.53
     21.5207	   42.00	   27.39	-1608.46	   24.52
     21.5541	   32.00	   27.38	-1618.45	   24.50
     21.5876	   31.00	   27.36	-1619.43	   24.49
     21.6210	   38.00	   27.35	-1612.42	   24.47
     21.6544	   35.00	   27.37	-1615.44	   24.45
     21.6878	   35.00	   27.35	-1615.42	   24.44
     21.7213	   35.00	   27.36	-1615.43	   24.42
     21.7547	   51.00	   27.34	-1599.41	   24.40
     21.7881	   43.00	   27.33	-1607.40	   24.39
     21.8215	   41.00	   27.31	-1609.38	   24.37
     21.8550	   30.00	   27.30	-1620.37	   24.36
     21.8884	   28.00	   27.28	-1622.35	   24.34
     21.9218	   51.00	   27.27	-1599.34	   24.32
     21.9552	   32.00	   27.25	-1618.32	   24.31
     21.9886	   46.00	   27.24	-1604.30	   24.29
     22.0221	   36.00	   27.22	-1614.29	   24.28
     22.0555	   31.00	   27.20	-1619.27	   24.26
     22.0889	   45.00	   27.19	-1605.26	   24.24
     22.1223	   29.00	   27.17	-1621.24	   24.23
     22.1558	   23.00	   27.16	-1627.23	   24.21
     22.1892	   41.00	   27.14	-1609.21	   24.19
     22.2226	   25.00	   27.13	-1625.20	   24.18
     22.2560	   34.00	   27.11	-1616.18	   24.16
     22.2894	   43.00	   27.10	-1607.17	   24.15
     22.3229	   29.00	   27.08	-1621.15	   24.13
     22.3563	   29.00	   27.07	-1621.14	   24.11
     22.3897	   34.00	   27.05	-1616.12	   24.10
     22.4231	   39.00	   27.04	-1611.11	   24.08
     22.4566	   39.00	   27.02	-1611.09	   24.07
     22.4900	   31.00	   27.01	-1619.08	   24.05
     22.5234	   33.00	   26.99	-1617.06	   24.03
     22.5568	   37.00	   26.98	-1613.05	   24.02
     22.5902	   27.00	   26.96	-1623.03	   24.00
     22.6237	   28.00	   26.95	-1622.02	   23.99
     22.6571	   43.00	   26.93	-1607.00	   23.97
     22.6905	   35.00	   26.92	-1614.99	   23.95
     22.7239	   38.00	   26.90	-1611.97	   23.94
     22.7574	   31.00	   26.89	-1618.96	   23.92
     22.7908	   41.00	   26.88	-1608.94	   23.91
     22.8242	   21.00	   26.86	-1628.93	   23.89
     22.8576	   25.00	   26.85	-1624.92	   23.87
     22.8911	   34.00	   26.83	-1615.90	   23.86
     22.9245	   32.00	   26.82	-1617.89	   23.84
     22.9579	   31.00	   26.80	-1618.87	   23.83
     22.9913	   35.00	   26.79	-1614.86	   23.81
     23.0247	   28.00	   26.77	-1621.84	   23.80
     23.0582	   35.00	   26.76	-1614.83	   23.78
     23.0916	   29.00	   26.75	-1620.81	   23.76
     23.1250	   30.00	   26.73	-1619.80	   23.75
     23.1584	   31.00	   26.72	-1618.79	   23.73
     23.1919	   34.00	   26.70	-1615.77	   23.72
     23.2253	   25.00	   26.69	-1624.76	   23.70
     23.2587	   23.00	   26.67	-1626.74	   23.68
     23.2921	   36.00	   26.66	-1613.73	   23.67
     23.3255	   42.00	   26.65	-1607.72	   23.65
     23.3590	   34.00	   26.63	-1615.70	   23.64
     23.3924	   35.00	   26.62	-1614.69	   23.62
     23.4258	   19.00	   26.61	-1630.67	   23.61
     23.4592	   27.00	   26.59	-1622.66	   23.59
     23.4927	   24.00	   26.58	-1625.65	   23.57
     23.5261	   36.00	   26.56	-1613.63	   23.56
     23.5595	   37.00	   26.55	-1612.62	   23.54
     23.5929	   22.00	   26.54	-1627.61	   23.53
     23.6263	   38.00	   26.52	-1611.59	   23.51
     23.6598	   25.00	   26.51	-1624.58	   23.49
     23.6932	   17.00	   26.50	-1632.57	   23.48
     23.7266	   24.00	   26.48	-1625.55	   23.46
     23.7600	   33.00	   26.47	-1616.54	   23.45
     23.7935	   24.00	   26.46	-1625.53	   23.43
     23.8269	   29.00	   26.44	-1620.51	   23.42
     23.8603	   41.00	   26.43	-1608.50	   23.40
     23.8937	   34.00	   26.42	-1615.49	   23.39
     23.9271	   22.00	   26.41	-1627.48	   23.37
     23.9606	   34.00	   26.39	-1615.46	   23.35
     23.9940	   25.00	   26.38	-1624.45	   23.34
     24.0274	   29.00	   26.37	-1620.44	   23.32
     24.0608	   25.00	   26.36	-1624.43	   23.31
     24.0943	   28.00	   26.34	-1621.41	   23.29
     24.1277	   23.00	   26.33	-1626.40	   23.28
     24.1611	   23.00	   26.32	-1626.39	   23.26
     24.1945	   29.00	   26.31	-1620.38	   23.24
     24.2280	   22.00	   26.30	-1627.37	   23.23
     24.2614	   33.00	   26.29	-1616.35	   23.21
     24.2948	   25.00	   26.27	-1624.34	   23.20
     24.3282	   29.00	   26.26	-1620.33	   23.18
     24.3616	   32.00	   26.25	-1617.32	   23.17
     24.3951	   20.00	   26.24	-1629.31	   23.15
     24.4285	   42.00	   26.23	-1607.30	   23.14
     24.4619	   23.00	   26.22	-1626.29	   23.12
     24.4953	   21.00	   26.21	-1628.28	   23.10
     24.5288	   37.00	   26.20	-1612.27	   23.09
     24.5622	   33.00	   26.19	-1616.26	   23.07
     24.5956	   27.00	   26.18	-1622.25	   23.06
     24.6290	   35.00	   26.17	-1614.24	   23.04
     24.6624	   27.00	   26.16	-1622.23	   23.03
     24.6959	   35.00	   26.15	-1614.22	   23.01
     24.7293	   28.00	   26.14	-1621.21	   23.00
     24.7627	   19.00	   26.13	-1630.20	   22.98
     24.7961	   23.00	   26.12	-1626.19	   22.97
     24.8296	   18.00	   26.11	-1631.18	   22.95
     24.8630	   27.00	   26.11	-1622.18	   22.93
     24.8964	   28.00	   26.10	-1621.17	   22.92
     24.9298	   17.00	   26.09	-1632.16	   22.90
     24.9632	   27.00	   26.08	-1622.15	   22.89
     24.9967	   33.00	   26.08	-1616.15	   22.87
     25.0301	   22.00	   26.07	-1627.14	   22.86
     25.0635	   30.00	   26.06	-1619.13	   22.84
     25.0969	   24.00	   26.06	-1625.13	   22.83
     25.1304	   27.00	   26.05	-1622.12	   22.81
     25.1638	   24.00	   26.05	-1625.12	   22.80
     25.1972	   29.00	   26.04	-1620.11	   22.78
     25.2306	   23.00	   26.04	-1626.11	   22.77
     25.2641	   24.00	   26.04	-1625.11	   22.75
     25.2975	   25.00	   26.03	-1624.10	   22.73
     25.3309	   20.00	   26.03	-1629.10	   22.72
     25.3643	   29.00	   26.03	-1620.10	   22.70
     25.3977	   28.00	   26.03	-1621.10	   22.69
     25.4312	   28.00	   26.03	-1621.10	   22.67
     25.4646	   36.00	   26.03	-1613.10	   22.66
     25.4980	   29.00	   26.03	-1620.10	   22.64
     25.5314	   32.00	   26.57	-1617.64	   22.63
     25.5649	   35.00	   26.58	-1614.65	   22.61
     25.5983	   23.00	   26.85	-1626.92	   22.60
     25.6317	   23.00	   26.86	-1626.93	   22.58
     25.6651	   41.00	   26.88	-1608.95	   22.57
     25.6985	   29.00	   26.90	-1620.97	   22.55
     25.7320	   28.00	   26.92	-1621.98	   22.54
     25.7654	   32.00	   26.93	-1618.00	   22.52
     25.7988	   27.00	   26.96	-1623.03	   22.51
     25.8322	   31.00	   26.98	-1619.05	   22.49
     25.8657	   32.00	   27.00	-1618.07	   22.48
     25.8991	   31.00	   27.03	-1619.10	   22.46
     25.9325	   23.00	   27.06	-1627.13	   22.44
     25.9659	   29.00	   27.09	-1621.16	   22.43
     25.9993	   34.00	   27.13	-1616.20	   22.41
     26.0328	   32.00	   27.17	-1618.24	   22.40
     26.0662	   31.00	   27.21	-1619.28	   22.38
     26.0996	   19.00	   27.25	-1631.32	   22.37
     26.1330	   34.00	   27.30	-1616.37	   22.35
     26.1665	   28.00	   27.35	-1622.42	   22.34
     26.1999	   18.00	   27.41	-1632.48	   22.32
     26.2333	   22.00	   27.47	-1628.54	   22.31
     26.2667	   27.00	   27.54	-1623.61	   22.29
     26.3001	   30.00	   27.61	-1620.68	   22.28
     26.3336	   30.00	   27.69	-1620.76	   22.26
     26.3670	   36.00	   27.78	-1614.85	   22.25
     26.4004	   33.00	   27.88	-1617.95	   22.23
     26.4338	   22.00	   27.98	-1629.05	   22.22
     26.4673	   36.00	   28.10	-1615.17	   22.20
     26.5007	   32.00	   28.23	-1619.30	   22.19
     26.5341	   23.00	   28.38	-1628.45	   22.17
     26.5675	   28.00	   28.54	-1623.61	   22.16
     26.6010	   24.00	   28.72	-1627.79	   22.14
     26.6344	   29.00	   28.92	-1622.99	   22.13
     26.6678	   46.00	   29.14	-1606.21	   22.11
     26.7012	   31.00	   29.40	-1621.47	   22.10
     26.7346	   37.00	   29.69	-1615.76	   22.08
     26.7681	   24.00	   30.02	-1629.09	   22.07
     26.8015	   32.00	   30.40	-1621.46	   22.05
     26.8349	   20.00	   30.83	-1633.90	   22.04
     26.8683	   36.00	   31.34	-1618.41	   22.02
     26.9018	   49.00	   31.94	-1606.01	   22.01
     26.9352	   33.00	   32.64	-1622.71	   21.99
     26.9686	   39.00	   33.48	-1617.55	   21.98
     27.0020	   28.00	   34.49	-1629.56	   21.96
     27.0354	   39.00	   35.73	-1619.80	   21.95
     27.0689	   33.00	   37.26	-1627.33	   21.93
     27.1023	   37.00	   39.19	-1625.26	   21.92
     27.1357	   48.00	   41.66	-1616.73	   21.90
     27.1691	   46.00	   44.91	-1621.98	   21.89
     27.2026	   46.00	   49.27	-1626.34	   21.87
     27.2360	   56.00	   55.40	-1622.47	   21.86
     27.2694	   83.00	   64.69	-1604.76	   21.85
     27.3028	  118.00	   80.73	-1585.80	   21.83
     27.3362	  167.00	  111.96	-1568.03	   21.82
     27.3697	  221.00	  173.38	-1575.45	   21.80
     27.4031	  347.00	  280.75	-1556.82	   21.79
     27.4365	  493.00	  429.59	-1559.66	   21.77
     27.4699	  549.00	  552.48	-1626.55	   21.76
     27.5034	  600.00	  558.04	-1581.11	   21.74
     27.5368	  479.00	  476.95	-1621.02	   21.73
     27.5702	  425.00	  351.17	-1549.24	   21.71
     27.6036	  277.00	  229.19	-1575.26	   21.70
     27.6371	  177.00	  146.06	-1592.13	   21.68
     27.6705	  122.00	   98.84	-1599.90	   21.67
     27.7039	   79.00	   74.08	-1618.15	   21.65
     27.7373	   49.00	   60.79	-1634.86	   21.64
     27.7707	   60.00	   52.84	-1615.91	   21.62
     27.8042	   43.00	   47.50	-1627.57	   21.61
     27.8376	   35.00	   43.66	-1631.73	   21.59
     27.8710	   44.00	   40.80	-1619.87	   21.58
     27.9044	   39.00	   38.59	-1622.66	   21.57
     27.9379	   34.00	   36.87	-1625.94	   21.55
     27.9713	   29.00	   35.50	-1629.57	   21.54
     28.0047	   33.00	   34.39	-1624.46	   21.52
     28.0381	   39.00	   33.48	-1617.55	   21.51
     28.0715	   41.00	   32.73	-1614.80	   21.49
     28.1050	   29.00	   32.11	-1626.17	   21.48
     28.1384	   30.00	   31.58	-1624.65	   21.46
     28.1718	   31.00	   31.13	-1623.20	   21.45
     28.2052	   29.00	   30.75	-1624.82	   21.43
     28.2387	   28.00	   30.43	-1625.50	   21.42
     28.2721	   33.00	   30.15	-1620.22	   21.40
     28.3055	   21.00	   29.91	-1631.98	   21.39
     28.3389	   37.00	   29.70	-1615.77	   21.38
     28.3723	   30.00	   29.52	-1622.59	   21.36
     28.4058	   34.00	   29.37	-1618.44	   21.35
     28.4392	   28.00	   29.23	-1624.30	   21.33
     28.4726	   25.00	   29.12	-1627.19	   21.32
     28.5060	   23.00	   29.02	-1629.09	   21.30
     28.5395	   28.00	   28.94	-1624.01	   21.29
     28.5729	   32.00	   28.87	-1619.94	   21.27
     28.6063	   25.00	   28.81	-1626.88	   21.26
     28.6397	   34.00	   28.77	-1617.84	   21.24
     28.6731	   23.00	   28.73	-1628.80	   21.23
     28.7066	   38.00	   28.70	-1613.77	   21.22
     28.7400	   41.00	   28.69	-1610.76	   21.20
     28.7734	   30.00	   28.68	-1621.74	   21.19
     28.8068	   38.00	   28.67	-1613.74	   21.17
     28.8403	   39.00	   28.68	-1612.75	   21.16
     28.8737	   24.00	   28.69	-1627.76	   21.14
     28.9071	   21.00	   28.71	-1630.78	   21.13
     28.9405	   27.00	   28.73	-1624.80	   21.11
     28.9740	   29.00	   28.76	-1622.83	   21.10
     29.0074	   34.00	   28.80	-1617.87	   21.09
     29.0408	   32.00	   28.84	-1619.91	   21.07
     29.0742	   35.00	   28.89	-1616.96	   21.06
     29.1076	   19.00	   28.94	-1633.01	   21.04
     29.1411	   24.00	   29.00	-1628.07	   21.03
     29.1745	   35.00	   29.07	-1617.14	   21.01
     29.2079	   22.00	   29.14	-1630.21	   21.00
     29.2413	   28.00	   29.21	-1624.28	   20.98
     29.2748	   25.00	   29.30	-1627.37	   20.97
     29.3082	   29.00	   29.39	-1623.46	   20.96
     29.3416	   34.00	   29.49	-1618.55	   20.94
     29.3750	   20.00	   29.59	-1632.66	   20.93
     29.4084	   39.00	   29.70	-1613.77	   20.91
     29.4419	   36.00	   29.82	-1616.88	   20.90
     29.4753	   33.00	   29.94	-1620.01	   20.88
     29.5087	   42.00	   30.07	-1611.14	   20.87
     29.5421	   21.00	   30.21	-1632.28	   20.86
     29.5756	   29.00	   30.36	-1624.43	   20.84
     29.6090	   30.00	   30.52	-1623.59	   20.83
     29.6424	   38.00	   30.69	-1615.76	   20.81
     29.6758	   25.00	   30.86	-1628.93	   20.80
     29.7092	   30.00	   31.05	-1624.12	   20.79
     29.7427	   33.00	   31.25	-1621.32	   20.77
     29.7761	   28.00	   31.46	-1626.53	   20.76
     29.8095	   29.00	   31.68	-1625.75	   20.74
     29.8429	   29.00	   31.91	-1625.98	   20.73
     29.8764	   36.00	   32.16	-1619.23	   20.71
     29.9098	   25.00	   32.43	-1630.50	   20.70
     29.9432	   29.00	   32.71	-1626.77	   20.69
     29.9766	   37.00	   33.00	-1619.07	   20.67
     30.0101	   28.00	   33.32	-1628.38	   20.66
     30.0435	   12.00	   33.65	-1644.72	   20.64
     30.0769	   37.00	   34.00	-1620.07	   20.63
     30.1103	   46.00	   34.38	-1611.45	   20.62
     30.1437	   31.00	   34.78	-1626.85	   20.60
     30.1772	   29.00	   35.21	-1629.28	   20.59
     30.2106	   32.00	   35.66	-1626.73	   20.57
     30.2440	   34.00	   36.15	-1625.22	   20.56
     30.2774	   30.00	   36.67	-1629.74	   20.54
     30.3109	   35.00	   37.22	-1625.29	   20.53
     30.3443	   25.00	   37.82	-1635.89	   20.52
     30.3777	   41.00	   38.46	-1620.53	   20.50
     30.4111	   39.00	   39.14	-1623.21	   20.49
     30.4445	   37.00	   39.88	-1625.95	   20.47
     30.4780	   41.00	   40.67	-1622.74	   20.46
     30.5114	   36.00	   41.53	-1628.60	   20.45
     30.5448	   33.00	   42.45	-1632.52	   20.43
     30.5782	   39.00	   43.45	-1627.52	   20.42
     30.6117	   58.00	   44.54	-1609.61	   20.40
     30.6451	   45.00	   45.72	-1623.79	   20.39
     30.6785	   70.00	   47.00	-1600.07	   20.38
     30.7119	   66.00	   48.40	-1605.47	   20.36
     30.7453	   89.00	   49.94	-1584.01	   20.35
     30.7788	   70.00	   51.63	-1604.70	   20.33
     30.8122	   88.00	   53.48	-1588.55	   20.32
     30.8456	   68.00	   55.53	-1610.60	   20.31
     30.8790	   69.00	   57.80	-1611.87	   20.29
     30.9125	   66.00	   60.32	-1617.39	   20.28
     30.9459	   82.00	   63.13	-1604.20	   20.26
     30.9793	   87.00	   66.28	-1602.35	   20.25
     31.0127	   83.00	   69.82	-1609.89	   20.24
     31.0462	   77.00	   73.82	-1619.89	   20.22
     31.0796	   77.00	   78.37	-1624.44	   20.21
     31.1130	   84.00	   83.56	-1622.63	   20.20
     31.1464	  109.00	   89.52	-1603.59	   20.18
     31.1798	   96.00	   96.41	-1623.48	   20.17
     31.2133	   94.00	  104.45	-1633.51	   20.15
     31.2467	   91.00	  113.88	-1645.95	   20.14
     31.2801	  117.00	  125.05	-1631.12	   20.13
     31.3135	  116.00	  138.42	-1645.49	   20.11
     31.3470	  158.00	  154.60	-1619.67	   20.10
     31.3804	  130.00	  174.42	-1667.49	   20.08
     31.4138	  172.00	  199.06	-1650.13	   20.07
     31.4472	  213.00	  230.19	-1640.26	   20.06
     31.4806	  246.00	  270.29	-1647.36	   20.04
     31.5141	  266.00	  323.18	-1680.25	   20.03
     31.5475	  349.00	  395.30	-1669.36	   20.02
     31.5809	  471.00	  499.40	-1651.47	   20.00
     31.6143	  659.00	  664.47	-1628.54	   19.99
     31.6478	 1035.00	  955.40	-1543.47	   19.97
     31.6812	 1625.00	 1492.51	-1490.58	   19.96
     31.7146	 2695.00	 2434.02	-1362.09	   19.95
     31.7480	 4087.00	 3870.84	-1406.91	   19.93
     31.7814	 5451.00	 5541.60	-1713.67	   19.92
     31.8149	 6296.00	 6492.28	-1819.35	   19.91
     31.8483	 6177.00	 6198.15	-1644.22	   19.89
     31.8817	 5250.00	 5271.76	-1644.83	   19.88
     31.9151	 4167.00	 3952.93	-1409.00	   19.86
     31.9486	 2821.00	 2623.68	-1425.74	   19.85
     31.9820	 1926.00	 1655.65	-1352.72	   19.84
     32.0154	 1249.00	 1060.07	-1434.14	   19.82
     32.0488	  815.00	  720.94	-1529.01	   19.81
     32.0822	  521.00	  528.56	-1630.63	   19.80
     32.1157	  404.00	  411.71	-1630.78	   19.78
     32.1491	  294.00	  333.68	-1662.75	   19.77
     32.1825	  232.00	  277.61	-1668.68	   19.76
     32.2159	  178.00	  235.51	-1680.58	   19.74
     32.2494	  138.00	  203.01	-1688.08	   19.73
     32.2828	  153.00	  177.40	-1647.47	   19.71
     32.3162	  109.00	  156.85	-1670.92	   19.70
     32.3496	  110.00	  140.13	-1653.20	   19.69
     32.3831	  106.00	  126.34	-1643.41	   19.67
     32.4165	  106.00	  114.83	-1631.90	   19.66
     32.4499	   95.00	  105.13	-1633.20	   19.65
     32.4833	   72.00	   96.88	-1647.94	   19.63
     32.5167	   75.00	   89.80	-1637.87	   19.62
     32.5502	   60.00	   83.68	-1646.75	   19.61
     32.5836	   75.00	   78.35	-1626.42	   19.59
     32.6170	   81.00	   73.69	-1615.76	   19.58
     32.6504	   64.00	   69.59	-1628.66	   19.57
     32.6839	   56.00	   65.95	-1633.02	   19.55
     32.7173	   76.00	   62.72	-1609.79	   19.54
     32.7507	   55.00	   59.83	-1627.90	   19.53
     32.7841	   52.00	   57.24	-1628.31	   19.51
     32.8175	   62.00	   54.91	-1615.98	   19.50
     32.8510	   56.00	   52.80	-1619.87	   19.49
     32.8844	   38.00	   50.89	-1635.96	   19.47
     32.9178	   47.00	   49.15	-1625.22	   19.46
     32.9512	   51.00	   47.56	-1619.63	   19.44
     32.9847	   43.00	   46.11	-1626.18	   19.43
     33.0181	   48.00	   44.77	-1619.84	   19.42
     33.0515	   46.00	   43.55	-1620.62	   19.40
     33.0849	   44.00	   42.42	-1621.49	   19.39
     33.1183	   45.00	   41.37	-1619.44	   19.38
     33.1518	   33.00	   40.41	-1630.47	   19.36
     33.1852	   32.00	   39.51	-1630.58	   19.35
     33.2186	   39.00	   38.67	-1622.74	   19.34
     33.2520	   39.00	   37.90	-1621.97	   19.32
     33.2855	   24.00	   37.17	-1636.24	   19.31
     33.3189	   36.00	   36.45	-1623.52	   19.30
     33.3523	   47.00	   35.82	-1611.89	   19.28
     33.3857	   32.00	   35.23	-1626.30	   19.27
     33.4192	   51.00	   34.65	-1606.72	   19.26
     33.4526	   42.00	   34.12	-1615.19	   19.24
     33.4860	   43.00	   33.63	-1613.70	   19.23
     33.5194	   37.00	   33.17	-1619.23	   19.22
     33.5528	   23.00	   32.73	-1632.80	   19.20
     33.5863	   35.00	   32.31	-1620.38	   19.19
     33.6197	   41.00	   31.92	-1613.99	   19.18
     33.6531	   38.00	   31.55	-1616.61	   19.17
     33.6865	   28.00	   31.19	-1626.26	   19.15
     33.7200	   34.00	   30.86	-1619.93	   19.14
     33.7534	   37.00	   30.54	-1616.61	   19.13
     33.7868	   37.00	   30.24	-1616.31	   19.11
     33.8202	   34.00	   29.95	-1619.02	   19.10
     33.8536	   21.00	   29.67	-1631.74	   19.09
     33.8871	   21.00	   29.41	-1631.48	   19.07
     33.9205	   30.00	   29.16	-1622.23	   19.06
     33.9539	   32.00	   28.92	-1619.99	   19.05
     33.9873	   28.00	   28.69	-1623.76	   19.03
     34.0208	   37.00	   28.47	-1614.54	   19.02
     34.0542	   32.00	   28.27	-1619.33	   19.01
     34.0876	   32.00	   28.06	-1619.13	   18.99
     34.1210	   24.00	   27.87	-1626.94	   18.98
     34.1544	   24.00	   27.69	-1626.76	   18.97
     34.1879	   30.00	   27.51	-1620.58	   18.95
     34.2213	   31.00	   27.34	-1619.41	   18.94
     34.2547	   32.00	   27.17	-1618.24	   18.93
     34.2881	   27.00	   27.02	-1623.08	   18.92
     34.3216	   24.00	   26.86	-1625.93	   18.90
     34.3550	   41.00	   26.72	-1608.79	   18.89
     34.3884	   28.00	   26.57	-1621.64	   18.88
     34.4218	   29.00	   26.44	-1620.51	   18.86
     34.4552	   22.00	   26.31	-1627.37	   18.85
     34.4887	   33.00	   26.18	-1616.25	   18.84
     34.5221	   22.00	   26.05	-1627.12	   18.82
     34.5555	   37.00	   25.94	-1612.00	   18.81
     34.5889	   20.00	   25.82	-1628.89	   18.80
     34.6224	   18.00	   25.71	-1630.78	   18.78
     34.6558	   35.00	   25.60	-1613.67	   18.77
     34.6892	   23.00	   25.49	-1625.56	   18.76
     34.7226	   30.00	   25.39	-1618.46	   18.75
     34.7561	   19.00	   25.29	-1629.36	   18.73
     34.7895	   30.00	   25.20	-1618.27	   18.72
     34.8229	   33.00	   25.11	-1615.17	   18.71
     34.8563	   24.00	   25.02	-1624.08	   18.69
     34.8897	   29.00	   24.93	-1619.00	   18.68
     34.9232	   30.00	   24.84	-1617.91	   18.67
     34.9566	   19.00	   24.76	-1628.83	   18.66
     34.9900	   17.00	   24.68	-1630.75	   18.64
     35.0234	   23.00	   24.60	-1624.67	   18.63
     35.0569	   21.00	   24.52	-1626.59	   18.62
     35.0903	   24.00	   24.45	-1623.52	   18.60
     35.1237	   22.00	   24.37	-1625.44	   18.59
     35.1571	   31.00	   24.30	-1616.37	   18.58
     35.1905	   27.00	   24.23	-1620.30	   18.56
     35.2240	   27.00	   24.17	-1620.24	   18.55
     35.2574	   22.00	   24.10	-1625.17	   18.54
     35.2908	   16.00	   24.04	-1631.11	   18.53
     35.3242	   25.00	   23.97	-1622.04	   18.51
     35.3577	   28.00	   23.91	-1618.98	   18.50
     35.3911	   31.00	   23.85	-1615.92	   18.49
     35.4245	   29.00	   23.79	-1617.86	   18.48
     35.4579	   27.00	   23.74	-1619.80	   18.46
     35.4913	   24.00	   23.68	-1622.75	   18.45
     35.5248	   25.00	   23.62	-1621.69	   18.44
     35.5582	   22.00	   23.57	-1624.64	   18.42
     35.5916	   11.00	   23.52	-1635.59	   18.41
     35.6250	   27.00	   23.46	-1619.53	   18.40
     35.6585	   19.00	   23.41	-1627.48	   18.39
     35.6919	   29.00	   23.36	-1617.43	   18.37
     35.7253	   17.00	   23.32	-1629.38	   18.36
     35.7587	   31.00	   23.27	-1615.34	   18.35
     35.7922	   19.00	   23.22	-1627.29	   18.33
     35.8256	   21.00	   23.17	-1625.24	   18.32
     35.8590	   18.00	   23.13	-1628.20	   18.31
     35.8924	   16.00	   23.08	-1630.15	   18.30
     35.9258	   18.00	   23.04	-1628.11	   18.28
     35.9593	   22.00	   23.00	-1624.07	   18.27
     35.9927	   19.00	   22.95	-1627.02	   18.26
     36.0261	   31.00	   22.91	-1614.98	   18.25
     36.0595	   19.00	   22.87	-1626.94	   18.23
     36.0930	   28.00	   22.83	-1617.90	   18.22
     36.1264	   22.00	   22.79	-1623.86	   18.21
     36.1598	   23.00	   22.75	-1622.82	   18.20
     36.1932	   31.00	   22.72	-1614.78	   18.18
     36.2266	   19.00	   22.68	-1626.75	   18.17
     36.2601	   18.00	   22.64	-1627.71	   18.16
     36.2935	   16.00	   22.60	-1629.67	   18.15
     36.3269	   27.00	   22.57	-1618.64	   18.13
     36.3603	   20.00	   22.53	-1625.60	   18.12
     36.3938	   23.00	   22.50	-1622.57	   18.11
     36.4272	   22.00	   22.46	-1623.53	   18.09
     36.4606	   14.00	   22.43	-1631.50	   18.08
     36.4940	   21.00	   22.40	-1624.46	   18.07
     36.5274	   16.00	   22.36	-1629.43	   18.06
     36.5609	   24.00	   22.33	-1621.40	   18.04
     36.5943	   23.00	   22.30	-1622.37	   18.03
     36.6277	   28.00	   22.27	-1617.34	   18.02
     36.6611	   19.00	   22.23	-1626.30	   18.01
     36.6946	   19.00	   22.20	-1626.27	   17.99
     36.7280	   28.00	   22.17	-1617.24	   17.98
     36.7614	   19.00	   22.14	-1626.21	   17.97
     36.7948	   16.00	   22.11	-1629.18	   17.96
     36.8283	   20.00	   22.08	-1625.15	   17.95
     36.8617	   21.00	   22.05	-1624.12	   17.93
     36.8951	   20.00	   22.03	-1625.09	   17.92
     36.9285	   28.00	   22.00	-1617.07	   17.91
     36.9619	   21.00	   21.97	-1624.04	   17.90
     36.9954	   22.00	   21.94	-1623.01	   17.88
     37.0288	   31.00	   21.91	-1613.98	   17.87
     37.0622	   18.00	   21.89	-1626.96	   17.86
     37.0956	   12.00	   21.86	-1632.93	   17.85
     37.1291	   19.00	   21.83	-1625.90	   17.83
     37.1625	   27.00	   21.81	-1617.88	   17.82
     37.1959	   17.00	   21.78	-1627.85	   17.81
     37.2293	   29.00	   21.75	-1615.82	   17.80
     37.2627	   33.00	   21.73	-1611.80	   17.78
     37.2962	   21.00	   21.70	-1623.77	   17.77
     37.3296	   22.00	   21.68	-1622.75	   17.76
     37.3630	   23.00	   21.65	-1621.72	   17.75
     37.3964	   16.00	   21.63	-1628.70	   17.73
     37.4299	   30.00	   21.60	-1614.67	   17.72
     37.4633	   23.00	   21.58	-1621.65	   17.71
     37.4967	   27.00	   21.56	-1617.62	   17.70
     37.5301	   22.00	   21.53	-1622.60	   17.69
     37.5635	   17.00	   21.51	-1627.58	   17.67
     37.5970	   18.00	   21.75	-1626.82	   17.66
     37.6304	   27.00	   21.73	-1617.80	   17.65
     37.6638	   16.00	   21.71	-1628.78	   17.64
     37.6972	   25.00	   21.82	-1619.89	   17.62
     37.7307	   18.00	   21.80	-1626.87	   17.61
     37.7641	   25.00	   21.78	-1619.85	   17.60
     37.7975	   27.00	   21.76	-1617.83	   17.59
     37.8309	   22.00	   21.74	-1622.81	   17.58
     37.8643	   23.00	   21.73	-1621.79	   17.56
     37.8978	   18.00	   21.71	-1626.78	   17.55
     37.9312	   17.00	   21.69	-1627.76	   17.54
     37.9646	   25.00	   21.67	-1619.74	   17.53
     37.9980	   30.00	   21.65	-1614.72	   17.51
     38.0315	   21.00	   21.64	-1623.71	   17.50
     38.0649	   20.00	   21.62	-1624.69	   17.49
     38.0983	   19.00	   21.60	-1625.67	   17.48
     38.1317	   20.00	   21.06	-1624.13	   17.47
     38.1652	   15.00	   21.05	-1629.12	   17.45
     38.1986	   15.00	   21.04	-1629.11	   17.44
     38.2320	   22.00	   20.77	-1621.84	   17.43
     38.2654	   25.00	   20.76	-1618.83	   17.42
     38.2988	   31.00	   20.75	-1612.82	   17.41
     38.3323	   17.00	   20.75	-1626.81	   17.39
     38.3657	   22.00	   20.74	-1621.81	   17.38
     38.3991	   22.00	   20.73	-1621.80	   17.37
     38.4325	   22.00	   20.72	-1621.79	   17.36
     38.4660	   25.00	   20.72	-1618.78	   17.35
     38.4994	   22.00	   20.71	-1621.78	   17.33
     38.5328	   27.00	   20.70	-1616.77	   17.32
     38.5662	   17.00	   20.69	-1626.76	   17.31
     38.5996	   19.00	   20.69	-1624.76	   17.30
     38.6331	   11.00	   20.68	-1632.75	   17.28
     38.6665	   25.00	   20.67	-1618.74	   17.27
     38.6999	   15.00	   20.67	-1628.73	   17.26
     38.7333	   29.00	   20.66	-1614.73	   17.25
     38.7668	   23.00	   20.65	-1620.72	   17.24
     38.8002	   20.00	   20.65	-1623.71	   17.23
     38.8336	   19.00	   20.64	-1624.71	   17.21
     38.8670	   19.00	   20.63	-1624.70	   17.20
     38.9004	   15.00	   20.63	-1628.70	   17.19
     38.9339	   24.00	   20.62	-1619.69	   17.18
     38.9673	   15.00	   20.61	-1628.68	   17.17
     39.0007	   19.00	   20.61	-1624.68	   17.15
     39.0341	   18.00	   20.60	-1625.67	   17.14
     39.0676	   21.00	   20.60	-1622.66	   17.13
     39.1010	   24.00	   20.59	-1619.66	   17.12
     39.1344	   20.00	   20.58	-1623.65	   17.11
     39.1678	   21.00	   20.58	-1622.65	   17.09
     39.2012	   19.00	   20.57	-1624.64	   17.08
     39.2347	   20.00	   20.57	-1623.64	   17.07
     39.2681	   24.00	   20.56	-1619.63	   17.06
     39.3015	   28.00	   20.56	-1615.63	   17.05
     39.3349	   23.00	   20.55	-1620.62	   17.03
     39.3684	   18.00	   20.55	-1625.62	   17.02
     39.4018	   32.00	   20.54	-1611.61	   17.01
     39.4352	   29.00	   20.54	-1614.61	   17.00
     39.4686	   22.00	   20.53	-1621.60	   16.99
     39.5021	   17.00	   20.53	-1626.60	   16.98
     39.5355	   25.00	   20.52	-1618.59	   16.96
     39.5689	   20.00	   20.52	-1623.59	   16.95
     39.6023	   25.00	   20.52	-1618.59	   16.94
     39.6357	   25.00	   20.51	-1618.58	   16.93
     39.6692	   24.00	   20.51	-1619.58	   16.92
     39.7026	   18.00	   20.51	-1625.57	   16.91
     39.7360	   25.00	   20.50	-1618.57	   16.89
     39.7694	   19.00	   20.50	-1624.57	   16.88
     39.8029	   15.00	   20.50	-1628.56	   16.87
     39.8363	   18.00	   20.49	-1625.56	   16.86
     39.8697	   24.00	   20.49	-1619.56	   16.85
     39.9031	   15.00	   20.49	-1628.56	   16.84
     39.9365	   18.00	   20.48	-1625.55	   16.82
     39.9700	   16.00	   20.48	-1627.55	   16.81
     40.0034	   19.00	   20.48	-1624.55	   16.80
     40.0368	   31.00	   20.48	-1612.55	   16.79
     40.0702	   25.00	   20.48	-1618.55	   16.78
     40.1037	   24.00	   20.48	-1619.54	   16.77
     40.1371	   16.00	   20.47	-1627.54	   16.75
     40.1705	   15.00	   20.47	-1628.54	   16.74
     40.2039	   19.00	   20.47	-1624.54	   16.73
     40.2374	   20.00	   20.47	-1623.54	   16.72
     40.2708	   17.00	   20.47	-1626.54	   16.71
     40.3042	   20.00	   20.47	-1623.54	   16.70
     40.3376	   19.00	   20.47	-1624.54	   16.68
     40.3710	   29.00	   20.47	-1614.54	   16.67
     40.4045	   19.00	   20.47	-1624.54	   16.66
     40.4379	   16.00	   20.47	-1627.54	   16.65
     40.4713	   20.00	   20.47	-1623.54	   16.64
     40.5047	   19.00	   20.47	-1624.54	   16.63
     40.5382	   20.00	   20.47	-1623.54	   16.61
     40.5716	   22.00	   20.48	-1621.55	   16.60
     40.6050	   18.00	   20.48	-1625.55	   16.59
     40.6384	   28.00	   20.48	-1615.55	   16.58
     40.6718	   20.00	   20.48	-1623.55	   16.57
     40.7053	   30.00	   20.49	-1613.55	   16.56
     40.7387	   25.00	   20.49	-1618.56	   16.55
     40.7721	   17.00	   20.49	-1626.56	   16.53
     40.8055	   17.00	   20.50	-1626.57	   16.52
     40.8390	   24.00	   20.50	-1619.57	   16.51
     40.8724	   15.00	   20.50	-1628.57	   16.50
     40.9058	   11.00	   20.51	-1632.58	   16.49
     40.9392	   20.00	   20.51	-1623.58	   16.48
     40.9726	   18.00	   20.52	-1625.59	   16.47
     41.0061	   17.00	   20.53	-1626.59	   16.45
     41.0395	   22.00	   20.53	-1621.60	   16.44
     41.0729	   20.00	   20.54	-1623.61	   16.43
     41.1063	   25.00	   20.55	-1618.61	   16.42
     41.1398	   22.00	   20.55	-1621.62	   16.41
     41.1732	   17.00	   20.56	-1626.63	   16.40
     41.2066	   28.00	   20.57	-1615.64	   16.39
     41.2400	   19.00	   20.58	-1624.65	   16.37
     41.2734	   23.00	   20.59	-1620.66	   16.36
     41.3069	   27.00	   20.60	-1616.67	   16.35
     41.3403	   27.00	   20.61	-1616.68	   16.34
     41.3737	   19.00	   20.62	-1624.69	   16.33
     41.4071	   22.00	   20.63	-1621.70	   16.32
     41.4406	   27.00	   20.64	-1616.71	   16.31
     41.4740	   15.00	   20.65	-1628.72	   16.30
     41.5074	   22.00	   20.67	-1621.74	   16.28
     41.5408	   23.00	   20.68	-1620.75	   16.27
     41.5742	   20.00	   20.70	-1623.77	   16.26
     41.6077	   12.00	   20.71	-1631.78	   16.25
     41.6411	   14.00	   20.73	-1629.80	   16.24
     41.6745	   21.00	   20.74	-1622.81	   16.23
     41.7079	   20.00	   20.76	-1623.83	   16.22
     41.7414	   20.00	   20.78	-1623.85	   16.21
     41.7748	   25.00	   20.80	-1618.87	   16.19
     41.8082	   18.00	   20.82	-1625.89	   16.18
     41.8416	   25.00	   20.84	-1618.91	   16.17
     41.8751	   16.00	   20.86	-1627.93	   16.16
     41.9085	   20.00	   20.88	-1623.95	   16.15
     41.9419	   27.00	   20.90	-1616.97	   16.14
     41.9753	   25.00	   20.93	-1619.00	   16.13
     42.0087	   23.00	   20.95	-1621.02	   16.12
     42.0422	   16.00	   20.98	-1628.05	   16.10
     42.0756	   24.00	   21.01	-1620.07	   16.09
     42.1090	   27.00	   21.03	-1617.10	   16.08
     42.1424	   24.00	   21.06	-1620.13	   16.07
     42.1759	   21.00	   21.09	-1623.16	   16.06
     42.2093	   22.00	   21.13	-1622.19	   16.05
     42.2427	   11.00	   21.16	-1633.23	   16.04
     42.2761	   29.00	   21.19	-1615.26	   16.03
     42.3095	   18.00	   21.23	-1626.30	   16.02
     42.3430	   17.00	   21.27	-1627.34	   16.00
     42.3764	   17.00	   21.31	-1627.37	   15.99
     42.4098	   22.00	   21.35	-1622.42	   15.98
     42.4432	   15.00	   21.39	-1629.46	   15.97
     42.4767	   18.00	   21.43	-1626.50	   15.96
     42.5101	   23.00	   21.48	-1621.55	   15.95
     42.5435	   25.00	   21.53	-1619.60	   15.94
     42.5769	   27.00	   21.58	-1617.64	   15.93
     42.6104	   22.00	   21.63	-1622.70	   15.92
     42.6438	   22.00	   21.68	-1622.75	   15.91
     42.6772	   22.00	   21.74	-1622.81	   15.89
     42.7106	   36.00	   21.80	-1608.87	   15.88
     42.7440	   21.00	   21.86	-1623.93	   15.87
     42.7775	   19.00	   21.92	-1625.99	   15.86
     42.8109	   22.00	   21.99	-1623.06	   15.85
     42.8443	   21.00	   22.06	-1624.13	   15.84
     42.8777	   25.00	   22.13	-1620.20	   15.83
     42.9112	   27.00	   22.20	-1618.27	   15.82
     42.9446	   22.00	   22.28	-1623.35	   15.81
     42.9780	   25.00	   22.36	-1620.43	   15.80
     43.0114	   15.00	   22.45	-1630.52	   15.78
     43.0448	   29.00	   22.54	-1616.61	   15.77
     43.0783	   20.00	   22.63	-1625.70	   15.76
     43.1117	   16.00	   22.73	-1629.80	   15.75
     43.1451	   22.00	   22.83	-1623.90	   15.74
     43.1785	   15.00	   22.94	-1631.01	   15.73
     43.2120	   22.00	   23.05	-1624.12	   15.72
     43.2454	   31.00	   23.17	-1615.24	   15.71
     43.2788	   20.00	   23.29	-1626.36	   15.70
     43.3122	   23.00	   23.42	-1623.49	   15.69
     43.3456	   19.00	   23.56	-1627.63	   15.68
     43.3791	   14.00	   23.70	-1632.77	   15.67
     43.4125	   30.00	   23.85	-1616.92	   15.65
     43.4459	   34.00	   24.01	-1613.08	   15.64
     43.4793	   24.00	   24.17	-1623.24	   15.63
     43.5128	   21.00	   24.35	-1626.42	   15.62
     43.5462	   16.00	   24.53	-1631.60	   15.61
     43.5796	   20.00	   24.72	-1627.79	   15.60
     43.6130	   32.00	   24.93	-1616.00	   15.59
     43.6464	   22.00	   25.14	-1626.21	   15.58
     43.6799	   24.00	   25.37	-1624.44	   15.57
     43.7133	   23.00	   25.61	-1625.68	   15.56
     43.7467	   25.00	   25.86	-1623.93	   15.55
     43.7801	   36.00	   26.13	-1613.20	   15.54
     43.8136	   41.00	   26.41	-1608.48	   15.53
     43.8470	   35.00	   26.71	-1614.78	   15.51
     43.8804	   39.00	   27.03	-1611.10	   15.50
     43.9138	   30.00	   27.37	-1620.44	   15.49
     43.9473	   44.00	   27.73	-1606.80	   15.48
     43.9807	   41.00	   28.12	-1610.19	   15.47
     44.0141	   48.00	   28.53	-1603.60	   15.46
     44.0475	   34.00	   28.97	-1618.04	   15.45
     44.0809	   51.00	   29.44	-1601.51	   15.44
     44.1144	   32.00	   29.94	-1621.01	   15.43
     44.1478	   49.00	   30.48	-1604.55	   15.42
     44.1812	   44.00	   31.06	-1610.13	   15.41
     44.2146	   38.00	   31.68	-1616.75	   15.40
     44.2481	   41.00	   32.35	-1614.42	   15.39
     44.2815	   43.00	   33.07	-1613.14	   15.38
     44.3149	   54.00	   33.85	-1602.92	   15.37
     44.3483	   48.00	   34.70	-1609.77	   15.35
     44.3817	   44.00	   35.62	-1614.69	   15.34
     44.4152	   45.00	   36.62	-1614.69	   15.33
     44.4486	   41.00	   37.72	-1619.79	   15.32
     44.4820	   48.00	   38.91	-1613.98	   15.31
     44.5154	   49.00	   40.22	-1614.29	   15.30
     44.5489	   50.00	   41.66	-1614.73	   15.29
     44.5823	   43.00	   43.25	-1623.32	   15.28
     44.6157	   50.00	   45.00	-1618.07	   15.27
     44.6491	   64.00	   46.95	-1606.02	   15.26
     44.6825	   68.00	   49.12	-1604.19	   15.25
     44.7160	   45.00	   51.55	-1629.62	   15.24
     44.7494	   48.00	   54.28	-1629.35	   15.23
     44.7828	   58.00	   57.36	-1622.43	   15.22
     44.8162	   63.00	   60.85	-1620.92	   15.21
     44.8497	   57.00	   64.83	-1630.90	   15.20
     44.8831	   54.00	   69.40	-1638.47	   15.19
     44.9165	   63.00	   74.66	-1634.73	   15.18
     44.9499	   68.00	   80.79	-1635.86	   15.17
     44.9834	   91.00	   87.95	-1620.02	   15.16
     45.0168	   88.00	   96.42	-1631.49	   15.14
     45.0502	   95.00	  106.52	-1634.59	   15.13
     45.0836	   99.00	  118.69	-1642.76	   15.12
     45.1170	  121.00	  133.55	-1635.62	   15.11
     45.1505	  139.00	  151.91	-1635.98	   15.10
     45.1839	  148.00	  175.01	-1650.08	   15.09
     45.2173	  223.00	  204.70	-1604.77	   15.08
     45.2507	  256.00	  244.06	-1611.13	   15.07
     45.2842	  315.00	  298.63	-1606.70	   15.06
     45.3176	  436.00	  378.42	-1565.49	   15.05
     45.3510	  531.00	  500.54	-1592.61	   15.04
     45.3844	  744.00	  690.73	-1569.80	   15.03
     45.4178	 1082.00	  980.21	-1521.28	   15.02
     45.4513	 1439.00	 1394.55	-1578.62	   15.01
     45.4847	 1830.00	 1919.60	-1712.67	   15.00
     45.5181	 2207.00	 2423.16	-1839.22	   14.99
     45.5515	 2434.00	 2652.69	-1841.76	   14.98
     45.5850	 2337.00	 2545.08	-1831.15	   14.97
     45.6184	 2259.00	 2309.51	-1673.58	   14.96
     45.6518	 1934.00	 2038.02	-1727.09	   14.95
     45.6852	 1661.00	 1676.81	-1638.88	   14.94
     45.7186	 1264.00	 1269.56	-1628.63	   14.93
     45.7521	 1036.00	  918.79	-1505.86	   14.92
     45.7855	  709.00	  660.57	-1574.63	   14.91
     45.8189	  535.00	  483.88	-1571.95	   14.90
     45.8523	  367.00	  366.68	-1622.75	   14.89
     45.8858	  306.00	  288.82	-1605.89	   14.88
     45.9192	  207.00	  235.56	-1651.63	   14.87
     45.9526	  167.00	  197.46	-1653.53	   14.86
     45.9860	  144.00	  168.93	-1648.00	   14.85
     46.0194	  126.00	  146.83	-1643.90	   14.84
     46.0529	  113.00	  129.26	-1639.33	   14.83
     46.0863	   78.00	  115.04	-1660.11	   14.82
     46.1197	   72.00	  103.38	-1654.45	   14.81
     46.1531	   82.00	   93.68	-1634.75	   14.80
     46.1866	   68.00	   85.54	-1640.61	   14.79
     46.2200	   60.00	   78.63	-1641.70	   14.78
     46.2534	   59.00	   72.73	-1636.80	   14.77
     46.2868	   54.00	   67.64	-1636.71	   14.76
     46.3203	   49.00	   63.22	-1637.29	   14.75
     46.3537	   45.00	   59.36	-1637.43	   14.74
     46.3871	   56.00	   55.97	-1623.03	   14.73
     46.4205	   46.00	   52.97	-1630.04	   14.72
     46.4539	   47.00	   50.31	-1626.38	   14.70
     46.4874	   37.00	   47.93	-1634.00	   14.69
     46.5208	   44.00	   45.81	-1624.88	   14.68
     46.5542	   42.00	   43.89	-1624.96	   14.67
     46.5876	   43.00	   42.17	-1622.24	   14.66
     46.6211	   43.00	   40.60	-1620.67	   14.65
     46.6545	   39.00	   39.18	-1623.25	   14.64
     46.6879	   42.00	   37.89	-1618.96	   14.63
     46.7213	   42.00	   36.70	-1617.77	   14.62
     46.7547	   32.00	   35.62	-1626.69	   14.61
     46.7882	   46.00	   34.62	-1611.69	   14.60
     46.8216	   41.00	   33.70	-1615.77	   14.59
     46.8550	   32.00	   32.85	-1623.92	   14.58
     46.8884	   36.00	   32.07	-1619.14	   14.58
     46.9219	   27.00	   31.34	-1627.41	   14.57
     46.9553	   47.00	   30.66	-1606.73	   14.56
     46.9887	   34.00	   30.03	-1619.10	   14.55
     47.0221	   32.00	   29.45	-1620.52	   14.54
     47.0555	   27.00	   28.97	-1625.03	   14.53
     47.0890	   37.00	   28.45	-1614.52	   14.52
     47.1224	   27.00	   27.97	-1624.04	   14.51
     47.1558	   31.00	   27.56	-1619.63	   14.50
     47.1892	   22.00	   27.13	-1628.20	   14.49
     47.2227	   31.00	   26.74	-1618.81	   14.48
     47.2561	   23.00	   26.36	-1626.43	   14.47
     47.2895	   21.00	   26.01	-1628.08	   14.46
     47.3229	   36.00	   25.67	-1612.74	   14.45
     47.3563	   33.00	   25.36	-1615.43	   14.44
     47.3898	   30.00	   25.06	-1618.13	   14.43
     47.4232	   28.00	   24.78	-1619.85	   14.42
     47.4566	   27.00	   24.51	-1620.58	   14.41
     47.4900	   27.00	   24.25	-1620.32	   14.40
     47.5235	   12.00	   24.01	-1635.08	   14.39
     47.5569	   27.00	   23.78	-1619.85	   14.38
     47.5903	   35.00	   23.56	-1611.63	   14.37
     47.6237	   20.00	   23.35	-1626.42	   14.36
     47.6572	   25.00	   23.15	-1621.22	   14.35
     47.6906	   32.00	   22.96	-1614.03	   14.34
     47.7240	   28.00	   22.78	-1617.85	   14.33
     47.7574	   30.00	   22.61	-1615.67	   14.32
     47.7908	   34.00	   22.44	-1611.51	   14.31
     47.8243	   25.00	   22.28	-1620.35	   14.30
     47.8577	   25.00	   22.13	-1620.20	   14.29
     47.8911	   20.00	   21.98	-1625.05	   14.28
     47.9245	   30.00	   21.84	-1614.91	   14.27
     47.9580	   27.00	   21.70	-1617.77	   14.26
     47.9914	   23.00	   21.57	-1621.64	   14.25
     48.0248	   20.00	   21.45	-1624.52	   14.24
     48.0582	   31.00	   21.33	-1613.40	   14.23
     48.0916	   31.00	   21.21	-1613.28	   14.22
     48.1251	   27.00	   21.10	-1617.17	   14.21
     48.1585	   17.00	   20.99	-1627.06	   14.20
     48.1919	   28.00	   20.89	-1615.96	   14.19
     48.2253	   31.00	   20.79	-1612.86	   14.18
     48.2588	   21.00	   20.69	-1622.76	   14.17
     48.2922	   24.00	   20.60	-1619.67	   14.16
     48.3256	   20.00	   20.51	-1623.58	   14.16
     48.3590	   23.00	   20.42	-1620.49	   14.15
     48.3924	   25.00	   20.33	-1618.40	   14.14
     48.4259	   22.00	   20.25	-1621.32	   14.13
     48.4593	   22.00	   20.17	-1621.24	   14.12
     48.4927	   25.00	   20.10	-1618.17	   14.11
     48.5261	   32.00	   20.02	-1611.09	   14.10
     48.5596	   22.00	   19.95	-1621.02	   14.09
     48.5930	   22.00	   19.88	-1620.95	   14.08
     48.6264	   15.00	   19.81	-1627.88	   14.07
     48.6598	   20.00	   19.75	-1622.81	   14.06
     48.6933	   20.00	   19.68	-1622.75	   14.05
     48.7267	   23.00	   19.62	-1619.69	   14.04
     48.7601	   25.00	   19.56	-1617.63	   14.03
     48.7935	   25.00	   19.50	-1617.57	   14.02
     48.8269	   15.00	   19.44	-1627.51	   14.01
     48.8604	   24.00	   19.39	-1618.46	   14.00
     48.8938	   25.00	   19.33	-1617.40	   13.99
     48.9272	   25.00	   19.28	-1617.35	   13.98
     48.9606	   22.00	   19.23	-1620.30	   13.97
     48.9941	   20.00	   19.18	-1622.25	   13.97
     49.0275	   28.00	   19.13	-1614.20	   13.96
     49.0609	   14.00	   19.08	-1628.15	   13.95
     49.0943	   20.00	   19.03	-1622.10	   13.94
     49.1277	   23.00	   18.99	-1619.06	   13.93
     49.1612	   17.00	   18.95	-1625.01	   13.92
     49.1946	   28.00	   18.90	-1613.97	   13.91
     49.2280	   29.00	   18.86	-1612.93	   13.90
     49.2614	   19.00	   18.82	-1622.89	   13.89
     49.2949	   12.00	   18.78	-1629.85	   13.88
     49.3283	   23.00	   18.74	-1618.81	   13.87
     49.3617	   25.00	   18.70	-1616.77	   13.86
     49.3951	   25.00	   18.66	-1616.73	   13.85
     49.4286	   17.00	   18.63	-1624.70	   13.84
     49.4620	   24.00	   18.59	-1617.66	   13.83
     49.4954	   20.00	   18.55	-1621.62	   13.82
     49.5288	   19.00	   18.52	-1622.59	   13.82
     49.5622	   17.00	   18.49	-1624.56	   13.81
     49.5957	   15.00	   18.45	-1626.52	   13.80
     49.6291	   17.00	   18.42	-1624.49	   13.79
     49.6625	   21.00	   18.39	-1620.46	   13.78
     49.6959	   18.00	   18.36	-1623.43	   13.77
     49.7294	   20.00	   18.33	-1621.40	   13.76
     49.7628	   29.00	   18.30	-1612.37	   13.75
     49.7962	   24.00	   18.27	-1617.34	   13.74
     49.8296	   24.00	   18.24	-1617.31	   13.73
     49.8630	   22.00	   18.21	-1619.28	   13.72
     49.8965	   17.00	   18.19	-1624.26	   13.71
     49.9299	   17.00	   18.16	-1624.23	   13.70
     49.9633	   23.00	   18.13	-1618.20	   13.70
     49.9967	   21.00	   18.11	-1620.18	   13.69
     50.0302	   12.00	   18.08	-1629.15	   13.68
     50.0636	   16.00	   18.06	-1625.13	   13.67
     50.0970	   14.00	   18.03	-1627.10	   13.66
     50.1304	   11.00	   18.01	-1630.08	   13.65
     50.1638	    9.00	   17.99	-1632.06	   13.64
     50.1973	   20.00	   17.96	-1621.03	   13.63
     50.2307	   19.00	   17.94	-1622.01	   13.62
     50.2641	   16.00	   17.92	-1624.99	   13.61
     50.2975	   19.00	   17.90	-1621.97	   13.60
     50.3310	   14.00	   17.88	-1626.95	   13.59
     50.3644	   21.00	   17.86	-1619.92	   13.59
     50.3978	   21.00	   17.84	-1619.90	   13.58
     50.4312	   25.00	   17.82	-1615.88	   13.57
     50.4646	   22.00	   17.80	-1618.86	   13.56
     50.4981	   19.00	   17.78	-1621.85	   13.55
     50.5315	   12.00	   17.76	-1628.83	   13.54
     50.5649	   18.00	   17.74	-1622.81	   13.53
     50.5983	   15.00	   17.72	-1625.79	   13.52
     50.6318	   21.00	   17.70	-1619.77	   13.51
     50.6652	   19.00	   17.69	-1621.76	   13.50
     50.6986	   14.00	   17.67	-1626.74	   13.50
     50.7320	   22.00	   17.65	-1618.72	   13.49
     50.7654	    9.00	   17.64	-1631.71	   13.48
     50.7989	   19.00	   17.62	-1621.69	   13.47
     50.8323	   22.00	   17.61	-1618.67	   13.46
     50.8657	   21.00	   17.59	-1619.66	   13.45
     50.8991	   16.00	   17.58	-1624.64	   13.44
     50.9326	   10.00	   17.56	-1630.63	   13.43
     50.9660	   20.00	   17.55	-1620.62	   13.42
     50.9994	   20.00	   17.53	-1620.60	   13.41
     51.0328	   11.00	   17.52	-1629.59	   13.41
     51.0663	   19.00	   17.51	-1621.58	   13.40
     51.0997	   29.00	   17.49	-1611.56	   13.39
     51.1331	   14.00	   17.48	-1626.55	   13.38
     51.1665	   11.00	   17.47	-1629.54	   13.37
     51.1999	   24.00	   17.46	-1616.53	   13.36
     51.2334	   22.00	   17.45	-1618.52	   13.35
     51.2668	   16.00	   17.44	-1624.50	   13.34
     51.3002	   10.00	   17.42	-1630.49	   13.33
     51.3336	   22.00	   17.41	-1618.48	   13.33
     51.3671	    5.00	   17.40	-1635.47	   13.32
     51.4005	   15.00	   17.39	-1625.46	   13.31
     51.4339	   20.00	   17.39	-1620.45	   13.30
     51.4673	   10.00	   17.38	-1630.45	   13.29
     51.5007	   17.00	   17.37	-1623.44	   13.28
     51.5342	   19.00	   17.36	-1621.43	   13.27
     51.5676	   17.00	   17.35	-1623.42	   13.26
     51.6010	   15.00	   17.35	-1625.41	   13.26
     51.6344	   11.00	   17.34	-1629.41	   13.25
     51.6679	    8.00	   17.33	-1632.40	   13.24
     51.7013	   10.00	   17.33	-1630.40	   13.23
     51.7347	   23.00	   17.32	-1617.39	   13.22
     51.7681	   16.00	   17.32	-1624.39	   13.21
     51.8015	   17.00	   17.31	-1623.38	   13.20
     51.8350	    9.00	   17.31	-1631.38	   13.19
     51.8684	    8.00	   17.31	-1632.37	   13.19
     51.9018	   21.00	   17.30	-1619.37	   13.18
     51.9352	   27.00	   17.30	-1613.37	   13.17
     51.9687	   16.00	   17.30	-1624.37	   13.16
     52.0021	   16.00	   17.30	-1624.37	   13.15
     52.0355	   25.00	   17.30	-1615.37	   13.14
     52.0689	   25.00	   17.30	-1615.37	   13.13
     52.1024	   21.00	   17.30	-1619.37	   13.12
     52.1358	   15.00	   17.30	-1625.37	   13.12
     52.1692	   19.00	   17.30	-1621.37	   13.11
     52.2026	   18.00	   17.31	-1622.38	   13.10
     52.2360	   16.00	   17.31	-1624.38	   13.09
     52.2695	   19.00	   17.32	-1621.39	   13.08
     52.3029	   24.00	   17.32	-1616.39	   13.07
     52.3363	   12.00	   17.33	-1628.40	   13.06
     52.3697	   17.00	   17.34	-1623.41	   13.06
     52.4032	   19.00	   17.35	-1621.42	   13.05
     52.4366	   14.00	   17.36	-1626.43	   13.04
     52.4700	   15.00	   17.37	-1625.44	   13.03
     52.5034	   14.00	   17.39	-1626.45	   13.02
     52.5368	   17.00	   17.40	-1623.47	   13.01
     52.5703	   15.00	   17.42	-1625.49	   13.00
     52.6037	   27.00	   17.44	-1613.51	   13.00
     52.6371	   25.00	   17.46	-1615.53	   12.99
     52.6705	   19.00	   17.48	-1621.55	   12.98
     52.7040	   15.00	   17.51	-1625.58	   12.97
     52.7374	   17.00	   17.54	-1623.61	   12.96
     52.7708	   12.00	   17.57	-1628.64	   12.95
     52.8042	   20.00	   17.60	-1620.67	   12.95
     52.8376	   24.00	   17.64	-1616.71	   12.94
     52.8711	   15.00	   17.68	-1625.75	   12.93
     52.9045	   19.00	   17.73	-1621.80	   12.92
     52.9379	   14.00	   17.78	-1626.85	   12.91
     52.9713	   22.00	   17.84	-1618.91	   12.90
     53.0048	   18.00	   17.90	-1622.97	   12.89
     53.0382	   18.00	   17.97	-1623.04	   12.89
     53.0716	   12.00	   18.05	-1629.12	   12.88
     53.1050	   21.00	   18.14	-1620.21	   12.87
     53.1385	    8.00	   18.24	-1633.31	   12.86
     53.1719	   15.00	   18.35	-1626.42	   12.85
     53.2053	   25.00	   18.48	-1616.55	   12.84
     53.2387	   14.00	   18.62	-1627.69	   12.84
     53.2721	   17.00	   18.78	-1624.85	   12.83
     53.3056	   22.00	   18.97	-1620.04	   12.82
     53.3390	   18.00	   19.19	-1624.25	   12.81
     53.3724	   15.00	   19.44	-1627.50	   12.80
     53.4058	   19.00	   19.73	-1623.80	   12.79
     53.4393	   22.00	   20.07	-1621.14	   12.79
     53.4727	   21.00	   20.48	-1622.55	   12.78
     53.5061	   24.00	   20.72	-1619.78	   12.77
     53.5395	   28.00	   21.32	-1616.39	   12.76
     53.5729	   29.00	   22.07	-1616.14	   12.75
     53.6064	   24.00	   23.01	-1622.08	   12.74
     53.6398	   22.00	   24.10	-1625.17	   12.74
     53.6732	   18.00	   25.74	-1630.81	   12.73
     53.7066	   42.00	   28.02	-1609.09	   12.72
     53.7401	   32.00	   31.29	-1622.36	   12.71
     53.7735	   32.00	   36.02	-1627.09	   12.70
     53.8069	   42.00	   42.79	-1623.86	   12.69
     53.8403	   62.00	   52.16	-1613.22	   12.69
     53.8737	   71.00	   64.18	-1616.25	   12.68
     53.9072	   81.00	   77.45	-1619.52	   12.67
     53.9406	  101.00	   87.75	-1609.82	   12.66
     53.9740	   98.00	   90.49	-1615.56	   12.65
     54.0074	   92.00	   86.58	-1617.65	   12.65
     54.0409	  103.00	   80.81	-1600.88	   12.64
     54.0743	   95.00	   75.13	-1603.20	   12.63
     54.1077	   62.00	   68.06	-1629.13	   12.62
     54.1411	   64.00	   58.89	-1617.96	   12.61
     54.1745	   46.00	   49.46	-1626.53	   12.60
     54.2080	   54.00	   41.51	-1610.58	   12.60
     54.2414	   38.00	   35.49	-1620.55	   12.59
     54.2748	   33.00	   31.14	-1621.21	   12.58
     54.3082	   37.00	   28.08	-1614.15	   12.57
     54.3417	   25.00	   25.93	-1624.00	   12.56
     54.3751	   25.00	   24.39	-1622.46	   12.56
     54.4085	   17.00	   23.27	-1629.34	   12.55
     54.4419	   22.00	   22.43	-1623.50	   12.54
     54.4754	   20.00	   21.78	-1624.85	   12.53
     54.5088	   27.00	   21.27	-1617.33	   12.52
     54.5422	   19.00	   20.86	-1624.93	   12.52
     54.5756	   28.00	   20.54	-1615.61	   12.51
     54.6090	   18.00	   20.28	-1625.35	   12.50
     54.6425	   29.00	   20.07	-1614.14	   12.49
     54.6759	   18.00	   19.91	-1624.98	   12.48
     54.7093	   20.00	   19.79	-1622.85	   12.48
     54.7427	   18.00	   19.69	-1624.76	   12.47
     54.7762	   27.00	   19.62	-1615.69	   12.46
     54.8096	   23.00	   19.58	-1619.65	   12.45
     54.8430	   31.00	   19.56	-1611.63	   12.44
     54.8764	   22.00	   19.56	-1620.63	   12.44
     54.9098	   12.00	   19.57	-1630.64	   12.43
     54.9433	   31.00	   19.61	-1611.68	   12.42
     54.9767	   20.00	   19.66	-1622.72	   12.41
     55.0101	   23.00	   19.72	-1619.79	   12.40
     55.0435	   18.00	   19.80	-1624.87	   12.40
     55.0770	   19.00	   19.90	-1623.97	   12.39
     55.1104	   24.00	   20.01	-1619.08	   12.38
     55.1438	   28.00	   20.14	-1615.21	   12.37
     55.1772	   28.00	   20.31	-1615.38	   12.36
     55.2106	   28.00	   20.47	-1615.54	   12.36
     55.2441	   30.00	   20.65	-1613.72	   12.35
     55.2775	   19.00	   20.86	-1624.92	   12.34
     55.3109	   25.00	   21.08	-1619.15	   12.33
     55.3443	   27.00	   21.34	-1617.41	   12.33
     55.3778	   25.00	   21.61	-1619.68	   12.32
     55.4112	   16.00	   21.91	-1628.98	   12.31
     55.4446	   23.00	   22.24	-1622.31	   12.30
     55.4780	   25.00	   22.61	-1620.67	   12.29
     55.5115	   25.00	   23.01	-1621.08	   12.29
     55.5449	   23.00	   23.45	-1623.52	   12.28
     55.5783	   12.00	   23.95	-1635.02	   12.27
     55.6117	   28.00	   24.49	-1619.56	   12.26
     55.6451	   18.00	   25.10	-1630.17	   12.26
     55.6786	   24.00	   25.78	-1624.85	   12.25
     55.7120	   30.00	   26.54	-1619.61	   12.24
     55.7454	   20.00	   27.39	-1630.46	   12.23
     55.7788	   22.00	   28.36	-1629.43	   12.22
     55.8123	   22.00	   29.44	-1630.51	   12.22
     55.8457	   25.00	   30.68	-1628.75	   12.21
     55.8791	   23.00	   32.10	-1632.17	   12.20
     55.9125	   46.00	   33.72	-1610.79	   12.19
     55.9459	   34.00	   35.60	-1624.67	   12.19
     55.9794	   36.00	   37.79	-1624.86	   12.18
     56.0128	   36.00	   40.36	-1627.43	   12.17
     56.0462	   34.00	   43.39	-1632.46	   12.16
     56.0796	   37.00	   47.02	-1633.09	   12.15
     56.1131	   51.00	   51.40	-1623.47	   12.15
     56.1465	   46.00	   56.75	-1633.82	   12.14
     56.1799	   73.00	   63.41	-1613.48	   12.13
     56.2133	   61.00	   71.87	-1633.94	   12.12
     56.2467	   83.00	   82.93	-1623.00	   12.12
     56.2802	   92.00	   97.85	-1628.92	   12.11
     56.3136	  122.00	  118.60	-1619.67	   12.10
     56.3470	  168.00	  148.05	-1603.12	   12.09
     56.3804	  194.00	  189.92	-1618.99	   12.09
     56.4139	  276.00	  248.46	-1595.53	   12.08
     56.4473	  367.00	  326.92	-1582.99	   12.07
     56.4807	  454.00	  423.85	-1592.92	   12.06
     56.5141	  504.00	  524.29	-1643.36	   12.06
     56.5476	  561.00	  594.19	-1656.26	   12.05
     56.5810	  579.00	  604.85	-1648.92	   12.04
     56.6144	  568.00	  570.20	-1625.27	   12.03
     56.6478	  546.00	  525.33	-1602.40	   12.03
     56.6812	  447.00	  482.67	-1658.74	   12.02
     56.7147	  418.00	  430.48	-1635.55	   12.01
     56.7481	  338.00	  361.83	-1646.90	   12.00
     56.7815	  291.00	  288.66	-1620.73	   12.00
     56.8149	  210.00	  224.76	-1637.83	   11.99
     56.8484	  167.00	  174.89	-1630.96	   11.98
     56.8818	  157.00	  138.01	-1604.08	   11.97
     56.9152	  116.00	  111.39	-1618.46	   11.97
     56.9486	  109.00	   92.25	-1606.32	   11.96
     56.9820	   60.00	   78.35	-1641.42	   11.95
     57.0155	   68.00	   68.03	-1623.10	   11.94
     57.0489	   54.00	   60.15	-1629.22	   11.94
     57.0823	   54.00	   53.95	-1623.02	   11.93
     57.1157	   35.00	   48.97	-1637.04	   11.92
     57.1492	   39.00	   44.89	-1628.96	   11.91
     57.1826	   41.00	   41.51	-1623.58	   11.91
     57.2160	   31.00	   38.66	-1630.73	   11.90
     57.2494	   33.00	   36.25	-1626.32	   11.89
     57.2828	   31.00	   34.18	-1626.25	   11.88
     57.3163	   34.00	   32.40	-1621.47	   11.88
     57.3497	   18.00	   30.85	-1635.92	   11.87
     57.3831	   30.00	   29.50	-1622.57	   11.86
     57.4165	   27.00	   28.31	-1624.38	   11.86
     57.4500	   17.00	   27.25	-1633.32	   11.85
     57.4834	   22.00	   26.32	-1627.39	   11.84
     57.5168	   21.00	   25.48	-1627.55	   11.83
     57.5502	   14.00	   24.74	-1633.81	   11.83
     57.5836	   22.00	   24.06	-1625.13	   11.82
     57.6171	   18.00	   23.45	-1628.52	   11.81
     57.6505	   19.00	   22.90	-1626.97	   11.80
     57.6839	   19.00	   22.40	-1626.47	   11.80
     57.7173	   21.00	   21.94	-1624.01	   11.79
     57.7508	   14.00	   21.52	-1630.59	   11.78
     57.7842	   21.00	   21.14	-1623.21	   11.78
     57.8176	   20.00	   20.79	-1623.86	   11.77
     57.8510	   19.00	   20.46	-1624.53	   11.76
     57.8845	   28.00	   20.16	-1615.23	   11.75
     57.9179	   16.00	   19.88	-1626.95	   11.75
     57.9513	   31.00	   19.62	-1611.69	   11.74
     57.9847	   18.00	   19.38	-1624.45	   11.73
     58.0181	    9.00	   19.16	-1633.22	   11.72
     58.0516	   22.00	   18.95	-1620.01	   11.72
     58.0850	    9.00	   18.75	-1632.82	   11.71
     58.1184	   11.00	   18.57	-1630.64	   11.70
     58.1518	   24.00	   18.39	-1617.46	   11.70
     58.1853	   11.00	   18.23	-1630.30	   11.69
     58.2187	   17.00	   18.08	-1624.15	   11.68
     58.2521	   19.00	   17.94	-1622.01	   11.67
     58.2855	   23.00	   17.80	-1617.87	   11.67
     58.3189	   10.00	   17.67	-1630.74	   11.66
     58.3524	   15.00	   17.55	-1625.62	   11.65
     58.3858	   17.00	   17.44	-1623.51	   11.65
     58.4192	   24.00	   17.33	-1616.40	   11.64
     58.4526	   17.00	   17.22	-1623.29	   11.63
     58.4861	   15.00	   17.13	-1625.20	   11.62
     58.5195	   24.00	   17.03	-1616.10	   11.62
     58.5529	   16.00	   16.94	-1624.01	   11.61
     58.5863	   18.00	   16.86	-1621.93	   11.60
     58.6197	   17.00	   16.78	-1622.85	   11.60
     58.6532	   16.00	   16.70	-1623.77	   11.59
     58.6866	   12.00	   16.63	-1627.70	   11.58
     58.7200	   16.00	   16.56	-1623.63	   11.58
     58.7534	   16.00	   16.49	-1623.56	   11.57
     58.7869	   14.00	   16.42	-1625.49	   11.56
     58.8203	    8.00	   16.36	-1631.43	   11.55
     58.8537	   17.00	   16.30	-1622.37	   11.55
     58.8871	   18.00	   16.24	-1621.31	   11.54
     58.9206	   21.00	   16.19	-1618.26	   11.53
     58.9540	   10.00	   16.14	-1629.20	   11.53
     58.9874	   11.00	   16.08	-1628.15	   11.52
     59.0208	   14.00	   16.04	-1625.10	   11.51
     59.0542	   10.00	   15.99	-1629.06	   11.51
     59.0877	   10.00	   15.94	-1629.01	   11.50
     59.1211	   18.00	   15.90	-1620.97	   11.49
     59.1545	   23.00	   15.85	-1615.92	   11.49
     59.1879	   20.00	   15.81	-1618.88	   11.48
     59.2214	   16.00	   15.77	-1622.84	   11.47
     59.2548	   11.00	   15.73	-1627.80	   11.46
     59.2882	   22.00	   15.70	-1616.77	   11.46
     59.3216	   10.00	   15.66	-1628.73	   11.45
     59.3550	   16.00	   15.63	-1622.70	   11.44
     59.3885	   10.00	   15.59	-1628.66	   11.44
     59.4219	   22.00	   15.56	-1616.63	   11.43
     59.4553	   12.00	   15.53	-1626.60	   11.42
     59.4887	   16.00	   15.50	-1622.56	   11.42
     59.5222	   12.00	   15.47	-1626.53	   11.41
     59.5556	    7.00	   15.44	-1631.50	   11.40
     59.5890	   16.00	   15.41	-1622.48	   11.40
     59.6224	    8.00	   15.38	-1630.45	   11.39
     59.6558	   20.00	   15.35	-1618.42	   11.38
     59.6893	   17.00	   15.33	-1621.39	   11.38
     59.7227	   16.00	   15.30	-1622.37	   11.37
     59.7561	   14.00	   15.27	-1624.34	   11.36
     59.7895	   19.00	   15.25	-1619.32	   11.36
     59.8230	   22.00	   15.23	-1616.30	   11.35
     59.8564	   10.00	   15.20	-1628.27	   11.34
     59.8898	   14.00	   15.18	-1624.25	   11.34
     59.9232	   11.00	   15.16	-1627.23	   11.33
     59.9566	   12.00	   15.14	-1626.21	   11.32
     59.9901	   20.00	   15.12	-1618.19	   11.32
     60.0235	   10.00	   15.10	-1628.16	   11.31
     60.0569	   23.00	   15.08	-1615.14	   11.30
     60.0903	   11.00	   15.06	-1627.12	   11.30
     60.1238	   12.00	   15.04	-1626.11	   11.29
     60.1572	   22.00	   15.02	-1616.09	   11.28
     60.1906	   10.00	   15.00	-1628.07	   11.28
     60.2240	   17.00	   14.98	-1621.05	   11.27
     60.2575	   12.00	   14.96	-1626.03	   11.26
     60.2909	   23.00	   14.95	-1615.02	   11.26
     60.3243	   10.00	   14.93	-1628.00	   11.25
     60.3577	   17.00	   14.91	-1620.98	   11.24
     60.3911	   19.00	   14.90	-1618.97	   11.24
     60.4246	   12.00	   14.88	-1625.95	   11.23
     60.4580	    9.00	   14.86	-1628.93	   11.22
     60.4914	   19.00	   14.85	-1618.92	   11.22
     60.5248	   16.00	   14.83	-1621.90	   11.21
     60.5583	   15.00	   14.82	-1622.89	   11.20
     60.5917	   12.00	   14.81	-1625.87	   11.20
     60.6251	   17.00	   14.79	-1620.86	   11.19
     60.6585	   15.00	   14.78	-1622.85	   11.18
     60.6919	   11.00	   14.76	-1626.83	   11.18
     60.7254	   16.00	   14.75	-1621.82	   11.17
     60.7588	   17.00	   14.74	-1620.81	   11.16
     60.7922	   11.00	   14.73	-1626.80	   11.16
     60.8256	   10.00	   14.71	-1627.78	   11.15
     60.8591	   11.00	   14.70	-1626.77	   11.14
     60.8925	   16.00	   14.69	-1621.76	   11.14
     60.9259	   22.00	   14.68	-1615.75	   11.13
     60.9593	    9.00	   14.67	-1628.74	   11.13
     60.9927	   17.00	   14.66	-1620.73	   11.12
     61.0262	   11.00	   14.64	-1626.71	   11.11
     61.0596	   12.00	   14.63	-1625.70	   11.11
     61.0930	    7.00	   14.62	-1630.69	   11.10
     61.1264	    5.00	   14.61	-1632.68	   11.09
     61.1599	    9.00	   14.60	-1628.67	   11.09
     61.1933	   17.00	   14.59	-1620.66	   11.08
     61.2267	   15.00	   14.58	-1622.65	   11.07
     61.2601	   16.00	   14.57	-1621.64	   11.07
     61.2935	   19.00	   14.56	-1618.63	   11.06
     61.3270	   16.00	   14.55	-1621.62	   11.06
     61.3604	   10.00	   14.54	-1627.61	   11.05
     61.3938	    9.00	   14.53	-1628.60	   11.04
     61.4272	   14.00	   14.52	-1623.59	   11.04
     61.4607	   17.00	   14.52	-1620.59	   11.03
     61.4941	   19.00	   14.51	-1618.58	   11.02
     61.5275	   14.00	   14.50	-1623.57	   11.02
     61.5609	   16.00	   14.49	-1621.56	   11.01
     61.5944	   11.00	   14.48	-1626.55	   11.00
     61.6278	   11.00	   14.47	-1626.54	   11.00
     61.6612	   17.00	   14.47	-1620.54	   10.99
     61.6946	   14.00	   14.46	-1623.53	   10.99
     61.7280	   16.00	   14.45	-1621.52	   10.98
     61.7615	    9.00	   14.45	-1628.51	   10.97
     61.7949	    9.00	   14.44	-1628.51	   10.97
     61.8283	   21.00	   14.43	-1616.50	   10.96
     61.8617	   19.00	   14.42	-1618.49	   10.95
     61.8952	   10.00	   14.42	-1627.49	   10.95
     61.9286	   14.00	   14.41	-1623.48	   10.94
     61.9620	   16.00	   14.41	-1621.47	   10.94
     61.9954	   12.00	   14.40	-1625.47	   10.93
     62.0288	   14.00	   14.39	-1623.46	   10.92
     62.0623	   11.00	   14.39	-1626.46	   10.92
     62.0957	   16.00	   14.38	-1621.45	   10.91
     62.1291	   12.00	   14.38	-1625.45	   10.91
     62.1625	   15.00	   14.37	-1622.44	   10.90
     62.1960	   15.00	   14.37	-1622.44	   10.89
     62.2294	   22.00	   14.36	-1615.43	   10.89
     62.2628	    5.00	   14.36	-1632.43	   10.88
     62.2962	   14.00	   14.35	-1623.42	   10.87
     62.3296	   18.00	   14.35	-1619.42	   10.87
     62.3631	   17.00	   14.35	-1620.41	   10.86
     62.3965	   14.00	   14.34	-1623.41	   10.86
     62.4299	   11.00	   14.34	-1626.41	   10.85
     62.4633	   11.00	   14.33	-1626.40	   10.84
     62.4968	   12.00	   14.33	-1625.40	   10.84
     62.5302	   11.00	   14.38	-1626.45	   10.83
     62.5636	   17.00	   14.38	-1620.45	   10.83
     62.5970	   21.00	   14.38	-1616.45	   10.82
     62.6305	   17.00	   14.38	-1620.45	   10.81
     62.6639	   17.00	   14.38	-1620.45	   10.81
     62.6973	   20.00	   14.40	-1617.47	   10.80
     62.7307	   12.00	   14.40	-1625.47	   10.80
     62.7641	   11.00	   14.40	-1626.47	   10.79
     62.7976	    9.00	   14.40	-1628.47	   10.78
     62.8310	   16.00	   14.40	-1621.47	   10.78
     62.8644	   19.00	   14.40	-1618.47	   10.77
     62.8978	   14.00	   14.40	-1623.47	   10.77
     62.9313	   15.00	   14.40	-1622.47	   10.76
     62.9647	   15.00	   14.40	-1622.47	   10.75
     62.9981	   18.00	   14.40	-1619.47	   10.75
     63.0315	   12.00	   14.40	-1625.47	   10.74
     63.0649	   14.00	   14.41	-1623.47	   10.74
     63.0984	   17.00	   14.40	-1620.47	   10.73
     63.1318	   16.00	   14.40	-1621.47	   10.72
     63.1652	   15.00	   14.41	-1622.47	   10.72
     63.1986	   10.00	   14.41	-1627.48	   10.71
     63.2321	   12.00	   14.41	-1625.48	   10.71
     63.2655	   17.00	   14.41	-1620.48	   10.70
     63.2989	    9.00	   14.42	-1628.49	   10.69
     63.3323	   16.00	   14.42	-1621.49	   10.69
     63.3657	   12.00	   14.43	-1625.50	   10.68
     63.3992	    9.00	   14.43	-1628.50	   10.68
     63.4326	    7.00	   14.44	-1630.51	   10.67
     63.4660	   14.00	   14.45	-1623.52	   10.67
     63.4994	   11.00	   14.45	-1626.52	   10.66
     63.5329	    9.00	   14.46	-1628.53	   10.65
     63.5663	   20.00	   14.47	-1617.54	   10.65
     63.5997	   17.00	   14.48	-1620.55	   10.64
     63.6331	   12.00	   14.49	-1625.56	   10.64
     63.6665	   17.00	   14.50	-1620.57	   10.63
     63.7000	   15.00	   14.51	-1622.58	   10.63
     63.7334	   15.00	   14.52	-1622.59	   10.62
     63.7668	   14.00	   14.53	-1623.60	   10.61
     63.8002	   18.00	   14.55	-1619.62	   10.61
     63.8337	   10.00	   14.56	-1627.63	   10.60
     63.8671	   17.00	   14.58	-1620.65	   10.60
     63.9005	   16.00	   14.59	-1621.66	   10.59
     63.9339	   14.00	   14.61	-1623.68	   10.58
     63.9674	   16.00	   14.63	-1621.70	   10.58
     64.0008	    9.00	   14.65	-1628.72	   10.57
     64.0342	   10.00	   14.67	-1627.74	   10.57
     64.0676	   20.00	   14.69	-1617.76	   10.56
     64.1010	   11.00	   14.71	-1626.78	   10.56
     64.1345	   18.00	   14.74	-1619.81	   10.55
     64.1679	   20.00	   14.76	-1617.83	   10.55
     64.2013	   18.00	   14.79	-1619.86	   10.54
     64.2347	   19.00	   14.82	-1618.89	   10.53
     64.2682	   21.00	   14.85	-1616.92	   10.53
     64.3016	   22.00	   14.88	-1615.95	   10.52
     64.3350	    9.00	   14.91	-1628.98	   10.52
     64.3684	   16.00	   14.95	-1622.02	   10.51
     64.4018	   16.00	   14.99	-1622.06	   10.51
     64.4353	   18.00	   15.03	-1620.10	   10.50
     64.4687	   18.00	   15.07	-1620.14	   10.49
     64.5021	    9.00	   15.12	-1629.19	   10.49
     64.5355	   18.00	   15.17	-1620.24	   10.48
     64.5690	   19.00	   15.22	-1619.29	   10.48
     64.6024	   19.00	   15.28	-1619.35	   10.47
     64.6358	   24.00	   15.34	-1614.41	   10.47
     64.6692	   15.00	   15.40	-1623.47	   10.46
     64.7027	   23.00	   15.47	-1615.54	   10.46
     64.7361	   15.00	   15.54	-1623.61	   10.45
     64.7695	   16.00	   15.62	-1622.68	   10.44
     64.8029	   15.00	   15.70	-1623.77	   10.44
     64.8363	   12.00	   15.79	-1626.86	   10.43
     64.8698	   17.00	   15.88	-1621.95	   10.43
     64.9032	   18.00	   15.98	-1621.05	   10.42
     64.9366	   14.00	   16.09	-1625.16	   10.42
     64.9700	   22.00	   16.21	-1617.28	   10.41
     65.0034	   11.00	   16.34	-1628.41	   10.41
     65.0369	   12.00	   16.47	-1627.54	   10.40
     65.0703	   17.00	   16.62	-1622.69	   10.40
     65.1037	   19.00	   16.78	-1620.85	   10.39
     65.1371	   15.00	   16.96	-1625.03	   10.38
     65.1706	   18.00	   17.15	-1622.22	   10.38
     65.2040	   14.00	   17.36	-1626.43	   10.37
     65.2374	   18.00	   17.58	-1622.65	   10.37
     65.2708	   21.00	   17.83	-1619.90	   10.36
     65.3043	   15.00	   18.11	-1626.18	   10.36
     65.3377	   17.00	   18.41	-1624.48	   10.35
     65.3711	   19.00	   18.74	-1622.81	   10.35
     65.4045	   15.00	   19.11	-1627.18	   10.34
     65.4379	   16.00	   19.52	-1626.59	   10.34
     65.4714	   17.00	   19.98	-1626.04	   10.33
     65.5048	   20.00	   20.49	-1623.56	   10.33
     65.5382	   20.00	   21.06	-1624.13	   10.32
     65.5716	   29.00	   21.72	-1615.79	   10.32
     65.6051	   20.00	   22.46	-1625.53	   10.31
     65.6385	   22.00	   23.30	-1624.37	   10.30
     65.6719	   19.00	   24.27	-1628.34	   10.30
     65.7053	   23.00	   25.39	-1625.46	   10.29
     65.7387	   25.00	   26.70	-1624.77	   10.29
     65.7722	   29.00	   28.23	-1622.30	   10.28
     65.8056	   25.00	   30.05	-1628.12	   10.28
     65.8390	   24.00	   32.22	-1631.28	   10.27
     65.8724	   31.00	   34.84	-1626.91	   10.27
     65.9059	   36.00	   38.08	-1625.15	   10.26
     65.9393	   39.00	   42.14	-1626.21	   10.26
     65.9727	   50.00	   47.34	-1620.41	   10.25
     66.0061	   49.00	   54.16	-1628.23	   10.25
     66.0396	   50.00	   63.24	-1636.31	   10.24
     66.0730	   63.00	   75.42	-1635.48	   10.24
     66.1064	   94.00	   91.67	-1620.74	   10.23
     66.1398	  104.00	  113.21	-1632.28	   10.23
     66.1732	  132.00	  140.81	-1631.88	   10.22
     66.2067	  150.00	  174.06	-1647.13	   10.22
     66.2401	  224.00	  209.60	-1608.67	   10.21
     66.2735	  229.00	  239.31	-1633.38	   10.21
     66.3069	  261.00	  253.31	-1615.38	   10.20
     66.3404	  269.00	  249.01	-1603.08	   10.20
     66.3738	  200.00	  234.28	-1657.35	   10.19
     66.4072	  259.00	  218.55	-1582.62	   10.19
     66.4406	  219.00	  204.93	-1609.00	   10.18
     66.4740	  221.00	  190.25	-1592.32	   10.18
     66.5075	  179.00	  170.50	-1614.56	   10.17
     66.5409	  126.00	  146.21	-1643.28	   10.17
     66.5743	  129.00	  121.53	-1615.60	   10.16
     66.6077	   76.00	   99.80	-1646.87	   10.16
     66.6412	   78.00	   82.17	-1627.24	   10.15
     66.6746	   61.00	   68.46	-1630.53	   10.15
     66.7080	   61.00	   58.00	-1620.07	   10.14
     66.7414	   48.00	   50.07	-1625.14	   10.14
     66.7748	   36.00	   44.03	-1631.10	   10.13
     66.8083	   25.00	   39.38	-1637.45	   10.13
     66.8417	   38.00	   35.74	-1620.81	   10.12
     66.8751	   28.00	   32.83	-1627.90	   10.12
     66.9085	   28.00	   30.47	-1625.54	   10.11
     66.9420	   21.00	   28.52	-1630.59	   10.11
     66.9754	   18.00	   26.88	-1631.95	   10.10
     67.0088	   19.00	   25.49	-1629.56	   10.10
     67.0422	   16.00	   24.30	-1631.37	   10.09
     67.0757	   22.00	   23.28	-1624.35	   10.09
     67.1091	   27.00	   22.39	-1618.46	   10.08
     67.1425	   17.00	   21.61	-1627.68	   10.08
     67.1759	   20.00	   20.93	-1624.00	   10.07
     67.2093	   17.00	   20.32	-1626.39	   10.07
     67.2428	   20.00	   19.79	-1622.86	   10.06
     67.2762	   12.00	   19.31	-1630.38	   10.06
     67.3096	   16.00	   18.88	-1625.95	   10.05
     67.3430	   20.00	   18.49	-1621.56	   10.05
     67.3764	   12.00	   18.14	-1629.21	   10.04
     67.4099	   20.00	   17.82	-1620.89	   10.04
     67.4433	   10.00	   17.54	-1630.61	   10.03
     67.4767	   17.00	   17.27	-1623.34	   10.03
     67.5101	   19.00	   17.03	-1621.10	   10.02
     67.5436	   14.00	   16.81	-1625.88	   10.02
     67.5770	   16.00	   16.61	-1623.68	   10.01
     67.6104	   18.00	   16.43	-1621.49	   10.01
     67.6438	   20.00	   16.25	-1619.32	   10.00
     67.6773	   21.00	   16.09	-1618.16	   10.00
     67.7107	   18.00	   15.95	-1621.02	    9.99
     67.7441	   14.00	   15.81	-1624.88	    9.99
     67.7775	   21.00	   15.68	-1617.75	    9.98
     67.8109	   15.00	   15.56	-1623.63	    9.98
     67.8444	   14.00	   15.45	-1624.52	    9.97
     67.8778	    9.00	   15.35	-1629.42	    9.97
     67.9112	   25.00	   15.25	-1613.32	    9.97
     67.9446	   24.00	   15.16	-1614.23	    9.96
     67.9781	   18.00	   15.07	-1620.14	    9.96
     68.0115	   17.00	   14.99	-1621.06	    9.95
     68.0449	   23.00	   14.91	-1614.98	    9.95
     68.0783	   14.00	   14.84	-1623.91	    9.94
     68.1117	    7.00	   14.77	-1630.84	    9.94
     68.1452	    8.00	   14.71	-1629.78	    9.93
     68.1786	   12.00	   14.65	-1625.72	    9.93
     68.2120	   18.00	   14.59	-1619.66	    9.92
     68.2454	   12.00	   14.54	-1625.61	    9.92
     68.2789	   16.00	   14.49	-1621.56	    9.91
     68.3123	   17.00	   14.44	-1620.51	    9.91
     68.3457	   16.00	   14.39	-1621.46	    9.90
     68.3791	   17.00	   14.35	-1620.41	    9.90
     68.4126	   18.00	   14.30	-1619.37	    9.90
     68.4460	   14.00	   14.26	-1623.33	    9.89
     68.4794	   15.00	   14.22	-1622.29	    9.89
     68.5128	   11.00	   14.19	-1626.26	    9.88
     68.5462	   11.00	   14.15	-1626.22	    9.88
     68.5797	   18.00	   14.12	-1619.19	    9.87
     68.6131	   11.00	   14.09	-1626.16	    9.87
     68.6465	   20.00	   14.06	-1617.13	    9.86
     68.6799	   24.00	   14.03	-1613.10	    9.86
     68.7134	   17.00	   14.00	-1620.07	    9.85
     68.7468	   20.00	   13.97	-1617.04	    9.85
     68.7802	   15.00	   13.95	-1622.02	    9.85
     68.8136	   15.00	   13.92	-1621.99	    9.84
     68.8470	    7.00	   13.90	-1629.97	    9.84
     68.8805	   14.00	   13.88	-1622.95	    9.83
     68.9139	   17.00	   13.85	-1619.92	    9.83
     68.9473	   17.00	   13.83	-1619.90	    9.82
     68.9807	   15.00	   13.81	-1621.88	    9.82
     69.0142	   18.00	   13.80	-1618.86	    9.81
     69.0476	   20.00	   13.78	-1616.85	    9.81
     69.0810	   10.00	   13.76	-1626.83	    9.81
     69.1144	   17.00	   13.74	-1619.81	    9.80
     69.1478	   20.00	   13.73	-1616.80	    9.80
     69.1813	   15.00	   13.71	-1621.78	    9.79
     69.2147	   21.00	   13.70	-1615.76	    9.79
     69.2481	   14.00	   13.68	-1622.75	    9.78
     69.2815	   19.00	   13.67	-1617.74	    9.78
     69.3150	   18.00	   13.69	-1618.76	    9.77
     69.3484	   19.00	   13.67	-1617.74	    9.77
     69.3818	   15.00	   13.66	-1621.73	    9.77
     69.4152	   14.00	   13.65	-1622.72	    9.76
     69.4487	   20.00	   13.64	-1616.71	    9.76
     69.4821	   21.00	   13.63	-1615.70	    9.75
     69.5155	   11.00	   13.63	-1625.70	    9.75
     69.5489	   16.00	   13.63	-1620.69	    9.74
     69.5823	   10.00	   13.62	-1626.69	    9.74
     69.6158	   16.00	   13.61	-1620.68	    9.74
     69.6492	   15.00	   13.60	-1621.67	    9.73
     69.6826	   27.00	   13.59	-1609.66	    9.73
     69.7160	   22.00	   13.58	-1614.65	    9.72
     69.7495	   15.00	   13.58	-1621.65	    9.72
     69.7829	   15.00	   13.57	-1621.64	    9.71
     69.8163	   15.00	   13.56	-1621.63	    9.71
     69.8497	   18.00	   13.56	-1618.63	    9.71
     69.8831	   15.00	   13.55	-1621.62	    9.70
     69.9166	   16.00	   13.55	-1620.62	    9.70
     69.9500	   11.00	   13.54	-1625.61	    9.69
     69.9834	   22.00	   13.54	-1614.61	    9.69
     70.0168	   25.00	   13.53	-1611.60	    9.68
     70.0503	   22.00	   13.53	-1614.60	    9.68
     70.0837	   21.00	   13.53	-1615.60	    9.68
     70.1171	   18.00	   13.52	-1618.59	    9.67
     70.1505	   15.00	   13.52	-1621.59	    9.67
     70.1839	   18.00	   13.52	-1618.59	    9.66
     70.2174	    8.00	   13.52	-1628.59	    9.66
     70.2508	   17.00	   13.52	-1619.59	    9.66
     70.2842	   12.00	   13.52	-1624.58	    9.65
     70.3176	    9.00	   13.51	-1627.58	    9.65
     70.3511	   15.00	   13.51	-1621.58	    9.64
     70.3845	   21.00	   13.51	-1615.58	    9.64
     70.4179	   18.00	   13.51	-1618.58	    9.64
     70.4513	   14.00	   13.51	-1622.58	    9.63
     70.4847	   11.00	   13.51	-1625.58	    9.63
     70.5182	   20.00	   13.52	-1616.59	    9.62
     70.5516	   19.00	   13.52	-1617.59	    9.62
     70.5850	   16.00	   13.52	-1620.59	    9.61
     70.6184	   14.00	   13.52	-1622.59	    9.61
     70.6519	    9.00	   13.52	-1627.59	    9.61
     70.6853	   18.00	   13.53	-1618.60	    9.60
     70.7187	   10.00	   13.53	-1626.60	    9.60
     70.7521	   27.00	   13.53	-1609.60	    9.59
     70.7856	   12.00	   13.54	-1624.61	    9.59
     70.8190	   11.00	   13.54	-1625.61	    9.59
     70.8524	   18.00	   13.55	-1618.62	    9.58
     70.8858	   10.00	   13.55	-1626.62	    9.58
     70.9192	   22.00	   13.56	-1614.63	    9.57
     70.9527	    9.00	   13.57	-1627.64	    9.57
     70.9861	   10.00	   13.57	-1626.64	    9.57
     71.0195	   16.00	   13.58	-1620.65	    9.56
     71.0529	   15.00	   13.59	-1621.66	    9.56
     71.0863	   19.00	   13.60	-1617.67	    9.55
     71.1198	   10.00	   13.61	-1626.68	    9.55
     71.1532	   14.00	   13.62	-1622.68	    9.55
     71.1866	   21.00	   13.63	-1615.69	    9.54
     71.2200	   17.00	   13.64	-1619.71	    9.54
     71.2535	   21.00	   13.65	-1615.72	    9.54
     71.2869	   17.00	   13.66	-1619.73	    9.53
     71.3203	   24.00	   13.67	-1612.74	    9.53
     71.3537	   23.00	   13.69	-1613.76	    9.52
     71.3872	   19.00	   13.70	-1617.77	    9.52
     71.4206	   16.00	   13.71	-1620.78	    9.52
     71.4540	   19.00	   13.73	-1617.80	    9.51
     71.4874	   16.00	   13.75	-1620.82	    9.51
     71.5208	   14.00	   13.76	-1622.83	    9.50
     71.5543	   11.00	   13.78	-1625.85	    9.50
     71.5877	   15.00	   13.80	-1621.87	    9.50
     71.6211	   14.00	   13.82	-1622.89	    9.49
     71.6545	   19.00	   13.84	-1617.91	    9.49
     71.6880	   19.00	   13.87	-1617.94	    9.49
     71.7214	   10.00	   13.90	-1626.97	    9.48
     71.7548	   19.00	   13.92	-1617.99	    9.48
     71.7882	   12.00	   13.95	-1625.02	    9.47
     71.8217	   22.00	   13.98	-1615.05	    9.47
     71.8551	   15.00	   14.01	-1622.08	    9.47
     71.8885	   15.00	   14.04	-1622.11	    9.46
     71.9219	   11.00	   14.08	-1626.14	    9.46
     71.9553	   16.00	   14.11	-1621.18	    9.46
     71.9888	   19.00	   14.15	-1618.22	    9.45
     72.0222	   23.00	   14.19	-1614.26	    9.45
     72.0556	   21.00	   14.23	-1616.30	    9.44
     72.0890	   15.00	   14.28	-1622.35	    9.44
     72.1225	   19.00	   14.33	-1618.40	    9.44
     72.1559	   23.00	   14.39	-1614.45	    9.43
     72.1893	   20.00	   14.44	-1617.51	    9.43
     72.2227	   27.00	   14.51	-1610.58	    9.43
     72.2561	   24.00	   14.57	-1613.64	    9.42
     72.2896	   19.00	   14.65	-1618.72	    9.42
     72.3230	   17.00	   14.73	-1620.80	    9.42
     72.3564	   23.00	   14.82	-1614.89	    9.41
     72.3898	   19.00	   14.91	-1618.98	    9.41
     72.4233	   18.00	   15.02	-1620.09	    9.40
     72.4567	   19.00	   15.14	-1619.21	    9.40
     72.4901	   29.00	   15.27	-1609.34	    9.40
     72.5235	   22.00	   15.42	-1616.49	    9.39
     72.5569	   19.00	   15.59	-1619.66	    9.39
     72.5904	   20.00	   15.78	-1618.85	    9.39
     72.6238	   23.00	   16.00	-1616.07	    9.38
     72.6572	   25.00	   16.26	-1614.33	    9.38
     72.6906	   22.00	   16.56	-1617.63	    9.38
     72.7241	   27.00	   16.92	-1612.99	    9.37
     72.7575	   24.00	   17.36	-1616.43	    9.37
     72.7909	   22.00	   17.90	-1618.97	    9.37
     72.8243	   18.00	   18.59	-1623.66	    9.36
     72.8577	   23.00	   19.46	-1619.53	    9.36
     72.8912	   23.00	   20.58	-1620.65	    9.36
     72.9246	   36.00	   22.02	-1609.09	    9.35
     72.9580	   28.00	   23.85	-1618.92	    9.35
     72.9914	   27.00	   26.13	-1622.20	    9.34
     73.0249	   33.00	   28.83	-1618.90	    9.34
     73.0583	   37.00	   31.78	-1617.85	    9.34
     73.0917	   45.00	   34.51	-1612.58	    9.33
     73.1251	   54.00	   36.33	-1605.40	    9.33
     73.1586	   49.00	   36.78	-1610.85	    9.33
     73.1920	   37.00	   36.05	-1622.12	    9.32
     73.2254	   50.00	   34.82	-1607.89	    9.32
     73.2588	   39.00	   33.65	-1617.72	    9.32
     73.2922	   45.00	   32.69	-1610.76	    9.31
     73.3257	   42.00	   31.70	-1612.77	    9.31
     73.3591	   39.00	   30.37	-1614.44	    9.31
     73.3925	   33.00	   28.64	-1618.71	    9.30
     73.4259	   35.00	   26.74	-1614.81	    9.30
     73.4594	   32.00	   24.96	-1616.03	    9.30
     73.4928	   25.00	   23.44	-1621.51	    9.29
     73.5262	   28.00	   22.23	-1617.30	    9.29
     73.5596	   35.00	   21.30	-1609.37	    9.29
     73.5930	   27.00	   20.61	-1616.68	    9.28
     73.6265	   20.00	   20.11	-1623.18	    9.28
     73.6599	   28.00	   19.76	-1614.83	    9.28
     73.6933	   27.00	   19.53	-1615.59	    9.27
     73.7267	   29.00	   19.38	-1613.45	    9.27
     73.7602	   25.00	   19.31	-1617.38	    9.27
     73.7936	   25.00	   19.30	-1617.36	    9.26
     73.8270	   17.00	   19.33	-1625.40	    9.26
     73.8604	   21.00	   19.41	-1621.48	    9.26
     73.8938	   21.00	   19.52	-1621.59	    9.25
     73.9273	   33.00	   19.68	-1609.74	    9.25
     73.9607	   18.00	   19.86	-1624.93	    9.25
     73.9941	   24.00	   20.08	-1619.15	    9.25
     74.0275	   22.00	   20.33	-1621.40	    9.24
     74.0610	   30.00	   20.61	-1613.68	    9.24
     74.0944	   30.00	   20.93	-1614.00	    9.24
     74.1278	   20.00	   21.28	-1624.35	    9.23
     74.1612	   30.00	   21.68	-1614.75	    9.23
     74.1947	   28.00	   22.11	-1617.18	    9.23
     74.2281	   22.00	   22.59	-1623.66	    9.22
     74.2615	   27.00	   23.12	-1619.19	    9.22
     74.2949	   19.00	   23.70	-1627.77	    9.22
     74.3283	   28.00	   24.34	-1619.41	    9.21
     74.3618	   18.00	   25.05	-1630.12	    9.21
     74.3952	   33.00	   25.84	-1615.91	    9.21
     74.4286	   31.00	   26.71	-1618.78	    9.20
     74.4620	   30.00	   27.68	-1620.74	    9.20
     74.4955	   24.00	   28.75	-1627.82	    9.20
     74.5289	   29.00	   29.95	-1624.02	    9.19
     74.5623	   41.00	   31.30	-1613.37	    9.19
     74.5957	   38.00	   32.82	-1617.88	    9.19
     74.6291	   38.00	   34.53	-1619.60	    9.19
     74.6626	   36.00	   36.47	-1623.54	    9.18
     74.6960	   39.00	   38.68	-1622.75	    9.18
     74.7294	   54.00	   41.23	-1610.30	    9.18
     74.7628	   46.00	   44.16	-1621.23	    9.17
     74.7963	   42.00	   47.56	-1628.63	    9.17
     74.8297	   59.00	   51.55	-1615.62	    9.17
     74.8631	   55.00	   56.27	-1624.34	    9.16
     74.8965	   69.00	   61.92	-1615.99	    9.16
     74.9299	   62.00	   68.76	-1629.83	    9.16
     74.9634	   74.00	   77.18	-1626.25	    9.16
     74.9968	   86.00	   87.71	-1624.78	    9.15
     75.0302	  102.00	  101.03	-1622.10	    9.15
     75.0636	  133.00	  118.07	-1608.14	    9.15
     75.0971	  131.00	  139.98	-1632.05	    9.14
     75.1305	  172.00	  168.11	-1619.17	    9.14
     75.1639	  197.00	  203.90	-1629.97	    9.14
     75.1973	  256.00	  248.55	-1615.62	    9.14
     75.2308	  282.00	  302.23	-1643.30	    9.13
     75.2642	  329.00	  362.39	-1656.45	    9.13
     75.2976	  406.00	  421.55	-1638.62	    9.13
     75.3310	  411.00	  466.91	-1678.98	    9.12
     75.3644	  468.00	  486.22	-1641.28	    9.12
     75.3979	  439.00	  477.90	-1661.96	    9.12
     75.4313	  453.00	  452.82	-1622.89	    9.12
     75.4647	  444.00	  424.61	-1603.68	    9.11
     75.4981	  373.00	  400.48	-1650.55	    9.11
     75.5316	  347.00	  379.25	-1655.32	    9.11
     75.5650	  314.00	  354.61	-1663.68	    9.10
     75.5984	  342.00	  321.56	-1602.63	    9.10
     75.6318	  277.00	  281.21	-1627.28	    9.10
     75.6652	  246.00	  239.05	-1616.12	    9.10
     75.6987	  210.00	  200.12	-1613.18	    9.09
     75.7321	  175.00	  166.89	-1614.96	    9.09
     75.7655	  162.00	  139.72	-1600.79	    9.09
     75.7989	   99.00	  118.02	-1642.09	    9.08
     75.8324	   99.00	  100.85	-1624.92	    9.08
     75.8658	   86.00	   87.29	-1624.36	    9.08
     75.8992	   65.00	   76.54	-1634.61	    9.08
     75.9326	   61.00	   67.96	-1630.02	    9.07
     75.9660	   46.00	   61.02	-1638.09	    9.07
     75.9995	   61.00	   55.33	-1617.40	    9.07
     76.0329	   57.00	   50.61	-1616.68	    9.07
     76.0663	   34.00	   46.64	-1635.71	    9.06
     76.0997	   35.00	   43.27	-1631.33	    9.06
     76.1332	   27.00	   40.37	-1636.44	    9.06
     76.1666	   28.00	   37.86	-1632.93	    9.05
     76.2000	   24.00	   35.67	-1634.74	    9.05
     76.2334	   37.00	   33.75	-1619.82	    9.05
     76.2668	   29.00	   32.06	-1626.13	    9.05
     76.3003	   38.00	   30.55	-1615.62	    9.04
     76.3337	   30.00	   29.22	-1622.29	    9.04
     76.3671	   31.00	   28.02	-1620.09	    9.04
     76.4005	   34.00	   26.95	-1616.01	    9.04
     76.4340	   24.00	   25.98	-1625.05	    9.03
     76.4674	   23.00	   25.10	-1625.17	    9.03
     76.5008	   22.00	   24.30	-1625.37	    9.03
     76.5342	   24.00	   23.58	-1622.65	    9.03
     76.5676	   21.00	   22.92	-1624.99	    9.02
     76.6011	   23.00	   22.31	-1622.38	    9.02
     76.6345	   25.00	   21.75	-1619.82	    9.02
     76.6679	   25.00	   21.24	-1619.31	    9.02
     76.7013	   22.00	   20.77	-1621.84	    9.01
     76.7348	   30.00	   20.33	-1613.40	    9.01
     76.7682	   28.00	   19.93	-1615.00	    9.01
     76.8016	   20.00	   19.56	-1622.62	    9.01
     76.8350	   24.00	   19.21	-1618.28	    9.00
     76.8685	   19.00	   18.88	-1622.95	    9.00
     76.9019	   19.00	   18.58	-1622.65	    9.00
     76.9353	   25.00	   18.30	-1616.37	    9.00
     76.9687	   21.00	   18.03	-1620.10	    8.99
     77.0021	   22.00	   17.79	-1618.85	    8.99
     77.0356	   30.00	   17.55	-1610.62	    8.99
     77.0690	   17.00	   17.33	-1623.40	    8.99
     77.1024	   25.00	   17.13	-1615.20	    8.98
     77.1358	   25.00	   16.93	-1615.00	    8.98
     77.1693	   18.00	   16.75	-1621.82	    8.98
     77.2027	   24.00	   16.58	-1615.65	    8.98
     77.2361	   25.00	   16.42	-1614.49	    8.97
     77.2695	   12.00	   16.26	-1627.33	    8.97
     77.3029	   10.00	   16.12	-1629.19	    8.97
     77.3364	   21.00	   15.98	-1618.05	    8.97
     77.3698	   17.00	   15.85	-1621.92	    8.96
     77.4032	   20.00	   15.72	-1618.79	    8.96
     77.4366	   18.00	   15.58	-1620.65	    8.96
     77.4701	   22.00	   15.46	-1616.53	    8.96
     77.5035	   24.00	   15.36	-1614.43	    8.95
     77.5369	   29.00	   15.26	-1609.33	    8.95
     77.5703	   20.00	   15.16	-1618.23	    8.95
     77.6037	   17.00	   15.07	-1621.14	    8.95
     77.6372	   23.00	   14.98	-1615.05	    8.95
     77.6706	   18.00	   14.88	-1619.95	    8.94
     77.7040	   15.00	   14.80	-1622.87	    8.94
     77.7374	   15.00	   14.72	-1622.79	    8.94
     77.7709	   27.00	   14.65	-1610.72	    8.94
     77.8043	   24.00	   14.58	-1613.65	    8.93
     77.8377	   21.00	   14.51	-1616.58	    8.93
     77.8711	   19.00	   14.45	-1618.51	    8.93
     77.9046	   24.00	   14.38	-1613.45	    8.93
     77.9380	   21.00	   14.32	-1616.39	    8.93
     77.9714	   11.00	   14.27	-1626.34	    8.92
     78.0048	   16.00	   14.21	-1621.28	    8.92
     78.0382	   24.00	   14.16	-1613.23	    8.92
     78.0717	   17.00	   14.11	-1620.18	    8.92
     78.1051	   17.00	   14.06	-1620.13	    8.91
     78.1385	   19.00	   14.01	-1618.08	    8.91
     78.1719	   18.00	   13.97	-1619.04	    8.91
     78.2054	   17.00	   13.92	-1619.99	    8.91
     78.2388	   17.00	   13.88	-1619.95	    8.91
     78.2722	   18.00	   13.84	-1618.91	    8.90
     78.3056	   14.00	   13.80	-1622.87	    8.90
     78.3391	   15.00	   13.77	-1621.84	    8.90
     78.3725	   11.00	   13.73	-1625.80	    8.90
     78.4059	   20.00	   13.70	-1616.77	    8.90
     78.4393	   17.00	   13.66	-1619.73	    8.89
     78.4727	   11.00	   13.63	-1625.70	    8.89
     78.5062	   22.00	   13.60	-1614.67	    8.89
     78.5396	   23.00	   13.57	-1613.64	    8.89
     78.5730	   18.00	   13.54	-1618.61	    8.88
     78.6064	   23.00	   13.52	-1613.58	    8.88
     78.6398	   22.00	   13.49	-1614.56	    8.88
     78.6733	   12.00	   13.46	-1624.53	    8.88
     78.7067	   22.00	   13.44	-1614.51	    8.88
     78.7401	   15.00	   13.42	-1621.48	    8.87
     78.7735	   17.00	   13.39	-1619.46	    8.87
     78.8070	   17.00	   13.37	-1619.44	    8.87
     78.8404	   15.00	   13.35	-1621.42	    8.87
     78.8738	   15.00	   13.33	-1621.40	    8.87
     78.9072	   20.00	   13.31	-1616.38	    8.86
     78.9407	   16.00	   13.29	-1620.36	    8.86
     78.9741	   17.00	   13.27	-1619.34	    8.86
     79.0075	   22.00	   13.25	-1614.32	    8.86
     79.0409	   27.00	   13.24	-1609.31	    8.86
     79.0743	   22.00	   13.22	-1614.29	    8.85
     79.1078	   16.00	   13.21	-1620.28	    8.85
     79.1412	   16.00	   13.19	-1620.26	    8.85
     79.1746	   16.00	   13.18	-1620.25	    8.85
     79.2080	   14.00	   13.16	-1622.23	    8.85
     79.2415	   11.00	   13.15	-1625.22	    8.85
     79.2749	   17.00	   13.14	-1619.21	    8.84
     79.3083	   20.00	   13.13	-1616.19	    8.84
     79.3417	   11.00	   13.11	-1625.18	    8.84
     79.3751	   20.00	   13.10	-1616.17	    8.84
     79.4086	   15.00	   13.09	-1621.16	    8.84
     79.4420	    7.00	   13.08	-1629.15	    8.83
     79.4754	   16.00	   13.07	-1620.14	    8.83
     79.5088	   15.00	   13.07	-1621.13	    8.83
     79.5423	   16.00	   13.06	-1620.13	    8.83
     79.5757	   20.00	   13.05	-1616.12	    8.83
     79.6091	   20.00	   13.04	-1616.11	    8.82
     79.6425	   10.00	   13.04	-1626.10	    8.82
     79.6759	   16.00	   13.03	-1620.10	    8.82
     79.7094	   18.00	   13.02	-1618.09	    8.82
     79.7428	   15.00	   13.02	-1621.09	    8.82
     79.7762	   12.00	   13.01	-1624.08	    8.82
     79.8096	   19.00	   13.01	-1617.08	    8.81
     79.8431	   16.00	   13.00	-1620.07	    8.81
     79.8765	   22.00	   13.00	-1614.07	    8.81
     79.9099	   11.00	   13.00	-1625.07	    8.81
     79.9433	   12.00	   13.00	-1624.07	    8.81
     79.9767	   15.00	   12.99	-1621.06	    8.81
     80.0102	   14.00	   12.99	-1622.06	    8.80
     80.0436	   12.00	   12.99	-1624.06	    8.80
     80.0770	   18.00	   12.99	-1618.06	    8.80
     80.1104	   16.00	   12.99	-1620.06	    8.80
     80.1439	   12.00	   12.99	-1624.06	    8.80
     80.1773	   20.00	   12.99	-1616.06	    8.80
     80.2107	   19.00	   12.99	-1617.06	    8.79
     80.2441	   12.00	   12.99	-1624.06	    8.79
     80.2776	   23.00	   13.00	-1613.07	    8.79
     80.3110	   14.00	   13.00	-1622.07	    8.79
     80.3444	   16.00	   13.00	-1620.07	    8.79
     80.3778	   18.00	   13.01	-1618.08	    8.79
     80.4112	   15.00	   13.01	-1621.08	    8.78
     80.4447	   19.00	   13.02	-1617.08	    8.78
     80.4781	   23.00	   13.02	-1613.09	    8.78
     80.5115	   14.00	   13.03	-1622.10	    8.78
     80.5449	   30.00	   13.03	-1606.10	    8.78
     80.5784	   21.00	   13.04	-1615.11	    8.78
     80.6118	   24.00	   13.05	-1612.12	    8.77
     80.6452	   20.00	   13.06	-1616.12	    8.77
     80.6786	   14.00	   13.06	-1622.13	    8.77
     80.7121	   19.00	   13.07	-1617.14	    8.77
     80.7455	   11.00	   13.08	-1625.15	    8.77
     80.7789	   18.00	   13.09	-1618.16	    8.77
     80.8123	   22.00	   13.11	-1614.18	    8.77
     80.8457	   16.00	   13.12	-1620.19	    8.76
     80.8792	   19.00	   13.13	-1617.20	    8.76
     80.9126	   21.00	   13.14	-1615.21	    8.76
     80.9460	   10.00	   13.16	-1626.23	    8.76
     80.9794	   17.00	   13.17	-1619.24	    8.76
     81.0128	   22.00	   13.19	-1614.26	    8.76
     81.0463	   20.00	   13.21	-1616.28	    8.76
     81.0797	   11.00	   13.22	-1625.29	    8.75
     81.1131	   19.00	   13.24	-1617.31	    8.75
     81.1465	   19.00	   13.26	-1617.33	    8.75
     81.1800	   22.00	   13.28	-1614.35	    8.75
     81.2134	   21.00	   13.31	-1615.37	    8.75
     81.2468	   25.00	   13.33	-1611.40	    8.75
     81.2802	   12.00	   13.35	-1624.42	    8.75
     81.3137	   18.00	   13.38	-1618.45	    8.74
     81.3471	   14.00	   13.40	-1622.47	    8.74
     81.3805	   15.00	   13.43	-1621.50	    8.74
     81.4139	   16.00	   13.46	-1620.53	    8.74
     81.4473	   16.00	   13.49	-1620.56	    8.74
     81.4808	   20.00	   13.52	-1616.59	    8.74
     81.5142	   16.00	   13.55	-1620.62	    8.74
     81.5476	   24.00	   13.59	-1612.66	    8.73
     81.5810	   20.00	   13.63	-1616.69	    8.73
     81.6145	   23.00	   13.66	-1613.73	    8.73
     81.6479	   17.00	   13.70	-1619.77	    8.73
     81.6813	   16.00	   13.75	-1620.82	    8.73
     81.7147	   15.00	   13.80	-1621.87	    8.73
     81.7481	   15.00	   13.84	-1621.91	    8.73
     81.7816	   14.00	   13.89	-1622.96	    8.73
     81.8150	   12.00	   13.94	-1625.01	    8.72
     81.8484	   15.00	   14.00	-1622.07	    8.72
     81.8818	   18.00	   14.05	-1619.12	    8.72
     81.9153	   19.00	   14.11	-1618.18	    8.72
     81.9487	   18.00	   14.18	-1619.25	    8.72
     81.9821	   27.00	   14.24	-1610.31	    8.72
     82.0155	   12.00	   14.31	-1625.38	    8.72
     82.0490	   22.00	   14.38	-1615.45	    8.72
     82.0824	   14.00	   14.46	-1623.53	    8.71
     82.1158	   21.00	   14.54	-1616.61	    8.71
     82.1492	   22.00	   14.62	-1615.69	    8.71
     82.1826	   22.00	   14.71	-1615.78	    8.71
     82.2161	   19.00	   14.81	-1618.88	    8.71
     82.2495	   18.00	   14.91	-1619.98	    8.71
     82.2829	   14.00	   15.01	-1624.08	    8.71
     82.3163	   16.00	   15.12	-1622.19	    8.71
     82.3497	   12.00	   15.24	-1626.31	    8.71
     82.3832	   25.00	   15.37	-1613.44	    8.70
     82.4166	   10.00	   15.50	-1628.57	    8.70
     82.4500	   20.00	   15.64	-1618.71	    8.70
     82.4834	   16.00	   15.79	-1622.86	    8.70
     82.5169	   20.00	   15.95	-1619.02	    8.70
     82.5503	   21.00	   16.12	-1618.19	    8.70
     82.5837	   20.00	   16.30	-1619.37	    8.70
     82.6171	   16.00	   16.50	-1623.57	    8.70
     82.6506	   10.00	   16.71	-1629.78	    8.70
     82.6840	   15.00	   16.93	-1625.00	    8.69
     82.7174	   25.00	   17.17	-1615.24	    8.69
     82.7508	   19.00	   17.43	-1621.50	    8.69
     82.7842	   14.00	   17.70	-1626.77	    8.69
     82.8177	   18.00	   18.00	-1623.07	    8.69
     82.8511	   23.00	   18.33	-1618.39	    8.69
     82.8845	   22.00	   18.68	-1619.74	    8.69
     82.9179	   19.00	   19.06	-1623.12	    8.69
     82.9514	   23.00	   19.47	-1619.54	    8.69
     82.9848	   21.00	   19.92	-1621.99	    8.69
     83.0182	   34.00	   20.41	-1609.48	    8.68
     83.0516	   19.00	   20.95	-1625.02	    8.68
     83.0851	   28.00	   21.54	-1616.61	    8.68
     83.1185	   19.00	   22.19	-1626.26	    8.68
     83.1519	   25.00	   22.91	-1620.98	    8.68
     83.1853	   38.00	   23.71	-1608.78	    8.68
     83.2187	   24.00	   24.59	-1623.66	    8.68
     83.2522	   23.00	   25.58	-1625.65	    8.68
     83.2856	   27.00	   26.69	-1622.76	    8.68
     83.3190	   31.00	   27.94	-1620.01	    8.68
     83.3524	   28.00	   29.35	-1624.42	    8.68
     83.3858	   31.00	   30.95	-1623.02	    8.67
     83.4193	   31.00	   32.79	-1624.86	    8.67
     83.4527	   35.00	   34.90	-1622.97	    8.67
     83.4861	   45.00	   37.35	-1615.42	    8.67
     83.5195	   30.00	   40.21	-1633.28	    8.67
     83.5530	   58.00	   43.59	-1608.66	    8.67
     83.5864	   47.00	   47.63	-1623.70	    8.67
     83.6198	   52.00	   52.50	-1623.57	    8.67
     83.6532	   50.00	   58.45	-1631.52	    8.67
     83.6867	   71.00	   65.76	-1617.83	    8.67
     83.7201	   74.00	   74.81	-1623.88	    8.67
     83.7535	   95.00	   86.05	-1614.12	    8.67
     83.7869	  105.00	  100.01	-1618.08	    8.66
     83.8203	  119.00	  117.22	-1621.29	    8.66
     83.8538	  164.00	  138.15	-1597.22	    8.66
     83.8872	  180.00	  163.00	-1606.07	    8.66
     83.9206	  191.00	  191.26	-1623.33	    8.66
     83.9540	  219.00	  221.05	-1625.12	    8.66
     83.9875	  248.00	  248.56	-1623.63	    8.66
     84.0209	  273.00	  268.53	-1618.60	    8.66
     84.0543	  267.00	  276.76	-1632.83	    8.66
     84.0877	  265.00	  273.00	-1631.07	    8.66
     84.1211	  270.00	  261.31	-1614.38	    8.66
     84.1546	  257.00	  247.10	-1613.17	    8.66
     84.1880	  263.00	  234.22	-1594.29	    8.66
     84.2214	  220.00	  223.66	-1626.73	    8.66
     84.2548	  206.00	  213.90	-1630.97	    8.65
     84.2883	  218.00	  202.29	-1607.36	    8.65
     84.3217	  170.00	  186.92	-1639.99	    8.65
     84.3551	  178.00	  168.06	-1613.13	    8.65
     84.3885	  140.00	  147.66	-1630.73	    8.65
     84.4220	  145.00	  127.86	-1605.93	    8.65
     84.4554	  125.00	  110.08	-1608.15	    8.65
     84.4888	  103.00	   94.84	-1614.91	    8.65
     84.5222	   74.00	   82.14	-1631.21	    8.65
     84.5556	   72.00	   71.70	-1622.77	    8.65
     84.5891	   60.00	   63.18	-1626.25	    8.65
     84.6225	   57.00	   56.23	-1622.29	    8.65
     84.6559	   47.00	   50.54	-1626.61	    8.65
     84.6893	   36.00	   45.87	-1632.94	    8.65
     84.7227	   42.00	   42.00	-1623.07	    8.65
     84.7562	   44.00	   38.77	-1617.83	    8.65
     84.7896	   23.00	   36.03	-1636.10	    8.65
     84.8230	   33.00	   33.71	-1623.78	    8.64
     84.8564	   24.00	   31.70	-1630.77	    8.64
     84.8899	   30.00	   29.97	-1623.03	    8.64
     84.9233	   24.00	   28.45	-1627.52	    8.64
     84.9567	   20.00	   27.11	-1630.18	    8.64
     84.9901	   21.00	   25.93	-1628.00	    8.64
     85.0236	   25.00	   24.88	-1622.95	    8.64
     85.0570	   37.00	   23.94	-1610.01	    8.64
     85.0904	   18.00	   23.10	-1628.17	    8.64
     85.1238	   28.00	   22.34	-1617.41	    8.64
     85.1572	   31.00	   21.66	-1613.73	    8.64
     85.1907	   24.00	   21.04	-1620.11	    8.64
     85.2241	   19.00	   20.47	-1624.54	    8.64
     85.2575	   21.00	   19.96	-1622.03	    8.64
     85.2909	   18.00	   19.49	-1624.56	    8.64
     85.3244	   20.00	   19.06	-1622.13	    8.64
     85.3578	   24.00	   18.66	-1617.73	    8.64
     85.3912	   18.00	   18.30	-1623.37	    8.64
     85.4246	   17.00	   17.96	-1624.03	    8.64
     85.4581	   18.00	   17.65	-1622.72	    8.64
     85.4915	   17.00	   17.36	-1623.43	    8.64
     85.5249	   17.00	   17.09	-1623.16	    8.64
     85.5583	   19.00	   16.84	-1620.91	    8.64
     85.5917	   21.00	   16.61	-1618.68	    8.64
     85.6252	   19.00	   16.39	-1620.46	    8.64
     85.6586	   14.00	   16.19	-1625.26	    8.63
     85.6920	   19.00	   16.00	-1620.07	    8.63
     85.7254	   17.00	   15.82	-1621.89	    8.63
     85.7589	   15.00	   15.65	-1623.72	    8.63
     85.7923	   20.00	   15.49	-1618.56	    8.63
     85.8257	   17.00	   15.34	-1621.41	    8.63
     85.8591	   15.00	   15.20	-1623.27	    8.63
     85.8925	   16.00	   15.07	-1622.14	    8.63
     85.9260	   18.00	   14.95	-1620.02	    8.63
     85.9594	   14.00	   14.83	-1623.90	    8.63
     85.9928	   18.00	   14.72	-1619.79	    8.63
     86.0262	   18.00	   14.61	-1619.68	    8.63
     86.0596	   14.00	   14.51	-1623.58	    8.63
     86.0931	   22.00	   14.42	-1615.49	    8.63
     86.1265	   23.00	   14.33	-1614.40	    8.63
     86.1599	   16.00	   14.24	-1621.31	    8.63
     86.1933	   18.00	   14.16	-1619.23	    8.63
     86.2268	   15.00	   14.08	-1622.15	    8.63
     86.2602	   19.00	   14.01	-1618.08	    8.63
     86.2936	   17.00	   13.94	-1620.01	    8.63
     86.3270	   11.00	   13.87	-1625.94	    8.63
     86.3605	    9.00	   13.81	-1627.88	    8.63
     86.3939	   10.00	   13.75	-1626.82	    8.63
     86.4273	   17.00	   13.69	-1619.76	    8.63
     86.4607	   12.00	   13.63	-1624.70	    8.63
     86.4941	   18.00	   13.58	-1618.65	    8.63
     86.5276	   19.00	   13.53	-1617.60	    8.63
     86.5610	   15.00	   13.48	-1621.55	    8.63
     86.5944	   16.00	   13.43	-1620.50	    8.63
     86.6278	   16.00	   13.38	-1620.45	    8.63
     86.6613	   22.00	   13.34	-1614.41	    8.63
     86.6947	   18.00	   13.30	-1618.37	    8.63
     86.7281	   18.00	   13.26	-1618.33	    8.63
     86.7615	   21.00	   13.22	-1615.29	    8.63
     86.7950	   17.00	   13.18	-1619.25	    8.63
     86.8284	   16.00	   13.15	-1620.22	    8.63
     86.8618	   14.00	   13.11	-1622.18	    8.63
     86.8952	   22.00	   13.08	-1614.15	    8.63
     86.9286	   11.00	   13.05	-1625.12	    8.63
     86.9621	   14.00	   13.02	-1622.09	    8.63
     86.9955	    7.00	   12.99	-1629.06	    8.63
     87.0289	   18.00	   12.96	-1618.03	    8.63
     87.0623	   17.00	   12.93	-1619.00	    8.63
     87.0957	   12.00	   12.91	-1623.97	    8.63
     87.1292	   20.00	   12.88	-1615.95	    8.63
     87.1626	   11.00	   12.86	-1624.93	    8.63
     87.1960	    7.00	   12.83	-1628.90	    8.63
     87.2294	   15.00	   12.81	-1620.88	    8.63
     87.2629	    9.00	   12.79	-1626.86	    8.63
     87.2963	    8.00	   12.77	-1627.84	    8.63
     87.3297	   12.00	   12.76	-1623.83	    8.63
     87.3631	   28.00	   12.74	-1607.81	    8.63
     87.3966	   20.00	   12.72	-1615.79	    8.63
     87.4300	   17.00	   12.70	-1618.77	    8.63
     87.4634	   11.00	   12.69	-1624.76	    8.63
     87.4968	   12.00	   12.67	-1623.74	    8.63
     87.5302	   15.00	   12.65	-1620.72	    8.63
     87.5637	   11.00	   12.65	-1624.71	    8.63
     87.5971	   11.00	   12.63	-1624.70	    8.63
     87.6305	   12.00	   12.62	-1623.68	    8.63
     87.6639	   10.00	   12.60	-1625.67	    8.63
     87.6974	   21.00	   12.59	-1614.66	    8.63
     87.7308	   19.00	   12.58	-1616.64	    8.63
     87.7642	   10.00	   12.56	-1625.63	    8.63
     87.7976	   14.00	   12.55	-1621.62	    8.63
     87.8311	   17.00	   12.54	-1618.61	    8.63
     87.8645	   11.00	   12.53	-1624.60	    8.63
     87.8979	   16.00	   12.52	-1619.59	    8.63
     87.9313	   15.00	   12.51	-1620.58	    8.63
     87.9647	   17.00	   12.50	-1618.57	    8.63
     87.9982	   24.00	   12.49	-1611.56	    8.63
     88.0316	   16.00	   12.48	-1619.55	    8.63
     88.0650	   12.00	   12.47	-1623.54	    8.63
     88.0984	   14.00	   12.47	-1621.54	    8.64
     88.1319	   12.00	   12.46	-1623.53	    8.64
     88.1653	   12.00	   12.45	-1623.52	    8.64
     88.1987	   12.00	   12.39	-1623.46	    8.64
     88.2321	    9.00	   12.38	-1626.45	    8.64
     88.2655	    9.00	   12.38	-1626.45	    8.64
     88.2990	   12.00	   12.37	-1623.44	    8.64
     88.3324	   11.00	   12.37	-1624.44	    8.64
     88.3658	   17.00	   12.37	-1618.44	    8.64
     88.3992	   17.00	   12.36	-1618.43	    8.64
     88.4326	    6.00	   12.36	-1629.43	    8.64
     88.4661	   11.00	   12.33	-1624.40	    8.64
     88.4995	   14.00	   12.33	-1621.40	    8.64
     88.5329	   15.00	   12.33	-1620.40	    8.64
     88.5663	    6.00	   12.33	-1629.40	    8.64
     88.5998	   12.00	   12.33	-1623.40	    8.64
     88.6332	   19.00	   12.33	-1616.40	    8.64
     88.6666	   19.00	   12.33	-1616.40	    8.64
     88.7000	   12.00	   12.33	-1623.40	    8.64
     88.7335	    9.00	   12.33	-1626.40	    8.64
     88.7669	   11.00	   12.33	-1624.40	    8.64
     88.8003	    9.00	   12.34	-1626.41	    8.64
     88.8337	    5.00	   12.34	-1630.41	    8.64
     88.8671	   17.00	   12.35	-1618.42	    8.64
     88.9006	    9.00	   12.35	-1626.42	    8.65
     88.9340	   12.00	   12.36	-1623.43	    8.65
     88.9674	   18.00	   12.37	-1617.44	    8.65
     89.0008	   15.00	   12.38	-1620.45	    8.65
     89.0343	   11.00	   12.39	-1624.46	    8.65
     89.0677	   14.00	   12.40	-1621.47	    8.65
     89.1011	   19.00	   12.41	-1616.48	    8.65
     89.1345	   14.00	   12.42	-1621.49	    8.65
     89.1680	    8.00	   12.44	-1627.51	    8.65
     89.2014	    7.00	   12.46	-1628.53	    8.65
     89.2348	    9.00	   12.47	-1626.54	    8.65
     89.2682	   14.00	   12.50	-1621.56	    8.65
     89.3016	   15.00	   12.52	-1620.59	    8.65
     89.3351	    8.00	   12.54	-1627.61	    8.65
     89.3685	   25.00	   12.57	-1610.64	    8.65
     89.4019	   14.00	   12.60	-1621.67	    8.65
     89.4353	   15.00	   12.63	-1620.70	    8.65
     89.4688	   15.00	   12.67	-1620.74	    8.65
     89.5022	   12.00	   12.71	-1623.78	    8.66
     89.5356	   15.00	   12.76	-1620.83	    8.66
     89.5690	   18.00	   12.81	-1617.88	    8.66
     89.6024	    9.00	   12.87	-1626.94	    8.66
     89.6359	   12.00	   12.93	-1624.00	    8.66
     89.6693	    7.00	   13.00	-1629.07	    8.66
     89.7027	   12.00	   13.08	-1624.15	    8.66
     89.7361	    8.00	   13.17	-1628.24	    8.66
     89.7696	   15.00	   13.28	-1621.35	    8.66
     89.8030	   16.00	   13.39	-1620.46	    8.66
     89.8364	   17.00	   13.53	-1619.60	    8.66
     89.8698	   16.00	   13.68	-1620.75	    8.66
     89.9032	   27.00	   13.87	-1609.93	    8.66
     89.9367	   15.00	   14.08	-1622.15	    8.66
     89.9701	   15.00	   14.33	-1622.40	    8.67
     90.0035	    6.00	   14.62	-1631.69	    8.67
     90.0369	   17.00	   14.98	-1621.05	    8.67
     90.0704	   16.00	   15.41	-1622.48	    8.67
     90.1038	   17.00	   15.94	-1622.00	    8.67
     90.1372	   15.00	   16.57	-1624.64	    8.67
     90.1706	   16.00	   17.34	-1624.41	    8.67
     90.2040	   19.00	   18.28	-1622.35	    8.67
     90.2375	   23.00	   19.40	-1619.47	    8.67
     90.2709	   20.00	   20.71	-1623.78	    8.67
     90.3043	   22.00	   22.22	-1623.29	    8.67
     90.3377	   24.00	   23.86	-1622.93	    8.67
     90.3712	   33.00	   25.51	-1615.58	    8.68
     90.4046	   33.00	   26.96	-1617.03	    8.68
     90.4380	   41.00	   27.96	-1610.03	    8.68
     90.4714	   28.00	   28.34	-1623.41	    8.68
     90.5049	   33.00	   28.11	-1618.18	    8.68
     90.5383	   30.00	   27.47	-1620.54	    8.68
     90.5717	   22.00	   26.67	-1627.74	    8.68
     90.6051	   31.00	   25.91	-1617.98	    8.68
     90.6385	   31.00	   25.27	-1617.34	    8.68
     90.6720	   38.00	   24.74	-1609.80	    8.68
     90.7054	   32.00	   24.19	-1615.26	    8.68
     90.7388	   28.00	   23.51	-1618.58	    8.69
     90.7722	   19.00	   22.63	-1626.70	    8.69
     90.8056	   34.00	   21.58	-1610.65	    8.69
     90.8391	   24.00	   20.44	-1619.51	    8.69
     90.8725	   15.00	   19.32	-1627.39	    8.69
     90.9059	   15.00	   18.30	-1626.37	    8.69
     90.9393	   27.00	   17.40	-1613.47	    8.69
     90.9728	   20.00	   16.63	-1619.70	    8.69
     91.0062	   22.00	   15.98	-1617.05	    8.69
     91.0396	   18.00	   15.44	-1620.51	    8.69
     91.0730	   16.00	   14.99	-1622.06	    8.70
     91.1065	   14.00	   14.61	-1623.68	    8.70
     91.1399	   20.00	   14.30	-1617.37	    8.70
     91.1733	   12.00	   14.04	-1625.11	    8.70
     91.2067	   18.00	   13.81	-1618.88	    8.70
     91.2401	   12.00	   13.63	-1624.69	    8.70
     91.2736	   20.00	   13.46	-1616.53	    8.70
     91.3070	   10.00	   13.32	-1626.39	    8.70
     91.3404	   12.00	   13.20	-1624.27	    8.70
     91.3738	   12.00	   13.09	-1624.16	    8.71
     91.4073	    8.00	   13.00	-1628.07	    8.71
     91.4407	   12.00	   12.92	-1623.99	    8.71
     91.4741	   15.00	   12.84	-1620.91	    8.71
     91.5075	   15.00	   12.77	-1620.84	    8.71
     91.5410	   11.00	   12.71	-1624.78	    8.71
     91.5744	   14.00	   12.66	-1621.73	    8.71
     91.6078	   15.00	   12.61	-1620.68	    8.71
     91.6412	   15.00	   12.57	-1620.64	    8.71
     91.6746	   11.00	   12.53	-1624.60	    8.72
     91.7081	   16.00	   12.49	-1619.56	    8.72
     91.7415	   10.00	   12.46	-1625.53	    8.72
     91.7749	   15.00	   12.42	-1620.49	    8.72
     91.8083	   16.00	   12.40	-1619.47	    8.72
     91.8418	   10.00	   12.37	-1625.44	    8.72
     91.8752	   12.00	   12.35	-1623.42	    8.72
     91.9086	   15.00	   12.32	-1620.39	    8.72
     91.9420	   15.00	   12.30	-1620.37	    8.73
     91.9754	   12.00	   12.28	-1623.35	    8.73
     92.0089	   10.00	   12.27	-1625.33	    8.73
     92.0423	   10.00	   12.25	-1625.32	    8.73
     92.0757	   21.00	   12.23	-1614.30	    8.73
     92.1091	    9.00	   12.22	-1626.29	    8.73
     92.1426	   16.00	   12.21	-1619.28	    8.73
     92.1760	   17.00	   12.19	-1618.26	    8.73
     92.2094	   19.00	   12.18	-1616.25	    8.74
     92.2428	   12.00	   12.17	-1623.24	    8.74
     92.2762	   12.00	   12.16	-1623.23	    8.74
     92.3097	   10.00	   12.15	-1625.22	    8.74
     92.3431	    6.00	   12.14	-1629.21	    8.74
     92.3765	   11.00	   12.14	-1624.21	    8.74
     92.4099	   12.00	   12.14	-1623.20	    8.74
     92.4434	    3.00	   12.13	-1632.20	    8.75
     92.4768	   12.00	   12.12	-1623.19	    8.75
     92.5102	    9.00	   12.11	-1626.18	    8.75
     92.5436	    9.00	   12.11	-1626.18	    8.75
     92.5770	    9.00	   12.10	-1626.17	    8.75
     92.6105	   16.00	   12.10	-1619.17	    8.75
     92.6439	   10.00	   12.10	-1625.17	    8.75
     92.6773	    9.00	   12.09	-1626.16	    8.76
     92.7107	   12.00	   12.09	-1623.16	    8.76
     92.7442	    9.00	   12.08	-1626.15	    8.76
     92.7776	   12.00	   12.08	-1623.15	    8.76
     92.8110	    7.00	   12.08	-1628.15	    8.76
     92.8444	   12.00	   12.07	-1623.14	    8.76
     92.8779	   15.00	   12.07	-1620.14	    8.76
     92.9113	   17.00	   12.07	-1618.14	    8.77
     92.9447	    6.00	   12.06	-1629.13	    8.77
     92.9781	   14.00	   12.06	-1621.13	    8.77
     93.0115	   14.00	   12.06	-1621.13	    8.77
     93.0450	   19.00	   12.06	-1616.13	    8.77
     93.0784	   10.00	   12.05	-1625.12	    8.77
     93.1118	   10.00	   12.05	-1625.12	    8.78
     93.1452	   14.00	   12.05	-1621.12	    8.78
     93.1786	    9.00	   12.05	-1626.12	    8.78
     93.2121	    9.00	   12.05	-1626.12	    8.78
     93.2455	   15.00	   12.05	-1620.12	    8.78
     93.2789	   12.00	   12.04	-1623.11	    8.78
     93.3123	   10.00	   12.04	-1625.11	    8.78
     93.3458	   14.00	   12.04	-1621.11	    8.79
     93.3792	   10.00	   12.04	-1625.11	    8.79
     93.4126	   14.00	   12.04	-1621.11	    8.79
     93.4460	   11.00	   12.04	-1624.11	    8.79
     93.4795	   16.00	   12.04	-1619.11	    8.79
     93.5129	   14.00	   12.04	-1621.11	    8.79
     93.5463	   10.00	   12.04	-1625.11	    8.80
     93.5797	   14.00	   12.04	-1621.11	    8.80
     93.6131	   15.00	   12.04	-1620.11	    8.80
     93.6466	    9.00	   12.04	-1626.11	    8.80
     93.6800	   10.00	   12.04	-1625.11	    8.80
     93.7134	    9.00	   12.04	-1626.11	    8.80
     93.7468	    8.00	   12.04	-1627.11	    8.81
     93.7803	   14.00	   12.04	-1621.11	    8.81
     93.8137	   11.00	   12.04	-1624.11	    8.81
     93.8471	   12.00	   12.04	-1623.11	    8.81
     93.8805	   16.00	   12.04	-1619.11	    8.81
     93.9140	    7.00	   12.04	-1628.11	    8.82
     93.9474	    8.00	   12.04	-1627.11	    8.82
     93.9808	   15.00	   12.04	-1620.11	    8.82
     94.0142	    7.00	   12.04	-1628.11	    8.82
     94.0476	   10.00	   12.04	-1625.11	    8.82
     94.0811	   14.00	   12.05	-1621.11	    8.82
     94.1145	    3.00	   12.05	-1632.12	    8.83
     94.1479	   14.00	   12.05	-1621.12	    8.83
     94.1813	    9.00	   12.05	-1626.12	    8.83
     94.2148	   17.00	   12.05	-1618.12	    8.83
     94.2482	    9.00	   12.05	-1626.12	    8.83
     94.2816	   20.00	   12.05	-1615.12	    8.83
     94.3150	   15.00	   12.05	-1620.12	    8.84
     94.3484	   11.00	   12.05	-1624.12	    8.84
     94.3819	   12.00	   12.06	-1623.13	    8.84
     94.4153	   16.00	   12.06	-1619.13	    8.84
     94.4487	   11.00	   12.06	-1624.13	    8.84
     94.4821	   10.00	   12.06	-1625.13	    8.85
     94.5155	    9.00	   12.06	-1626.13	    8.85
     94.5490	   10.00	   12.06	-1625.13	    8.85
     94.5824	   14.00	   12.07	-1621.14	    8.85
     94.6158	   10.00	   12.07	-1625.14	    8.85
     94.6492	   10.00	   12.07	-1625.14	    8.86
     94.6827	   12.00	   12.07	-1623.14	    8.86
     94.7161	   12.00	   12.07	-1623.14	    8.86
     94.7495	   10.00	   12.08	-1625.14	    8.86
     94.7829	   12.00	   12.08	-1623.15	    8.86
     94.8164	   10.00	   12.08	-1625.15	    8.87
     94.8498	   12.00	   12.08	-1623.15	    8.87
     94.8832	   15.00	   12.08	-1620.15	    8.87
     94.9166	    9.00	   12.09	-1626.16	    8.87
     94.9500	   17.00	   12.09	-1618.16	    8.87
     94.9835	   14.00	   12.09	-1621.16	    8.88
     95.0169	   14.00	   12.09	-1621.16	    8.88
     95.0503	    7.00	   12.10	-1628.16	    8.88
     95.0837	   10.00	   12.10	-1625.17	    8.88
     95.1172	    8.00	   12.10	-1627.17	    8.88
     95.1506	    9.00	   12.10	-1626.17	    8.89
     95.1840	   11.00	   12.11	-1624.18	    8.89
     95.2174	   15.00	   12.11	-1620.18	    8.89
     95.2509	   11.00	   12.11	-1624.18	    8.89
     95.2843	   11.00	   12.11	-1624.18	    8.89
     95.3177	    9.00	   12.12	-1626.19	    8.90
     95.3511	   10.00	   12.12	-1625.19	    8.90
     95.3845	   10.00	   12.12	-1625.19	    8.90
     95.4180	   11.00	   12.13	-1624.20	    8.90
     95.4514	   15.00	   12.13	-1620.20	    8.90
     95.4848	   17.00	   12.13	-1618.20	    8.91
     95.5182	   15.00	   12.14	-1620.21	    8.91
     95.5517	    6.00	   12.14	-1629.21	    8.91
     95.5851	    7.00	   12.14	-1628.21	    8.91
     95.6185	   10.00	   12.15	-1625.22	    8.92
     95.6519	    5.00	   12.15	-1630.22	    8.92
     95.6853	   10.00	   12.15	-1625.22	    8.92
     95.7188	   10.00	   12.16	-1625.23	    8.92
     95.7522	   16.00	   12.16	-1619.23	    8.92
     95.7856	    7.00	   12.16	-1628.23	    8.93
     95.8190	    9.00	   12.17	-1626.24	    8.93
     95.8525	   12.00	   12.17	-1623.24	    8.93
     95.8859	   18.00	   12.17	-1617.24	    8.93
     95.9193	   12.00	   12.18	-1623.25	    8.94
     95.9527	   12.00	   12.18	-1623.25	    8.94
     95.9861	   12.00	   12.19	-1623.25	    8.94
     96.0196	   15.00	   12.19	-1620.26	    8.94
     96.0530	   15.00	   12.19	-1620.26	    8.94
     96.0864	    9.00	   12.20	-1626.27	    8.95
     96.1198	   17.00	   12.20	-1618.27	    8.95
     96.1533	   11.00	   12.21	-1624.28	    8.95
     96.1867	   15.00	   12.22	-1620.29	    8.95
     96.2201	    9.00	   12.22	-1626.29	    8.96
     96.2535	   17.00	   12.23	-1618.30	    8.96
     96.2870	   10.00	   12.23	-1625.30	    8.96
     96.3204	    9.00	   12.24	-1626.31	    8.96
     96.3538	    7.00	   12.25	-1628.32	    8.97
     96.3872	   11.00	   12.25	-1624.32	    8.97
     96.4206	   11.00	   12.26	-1624.33	    8.97
     96.4541	   12.00	   12.26	-1623.33	    8.97
     96.4875	   14.00	   12.27	-1621.34	    8.98
     96.5209	   10.00	   12.27	-1625.34	    8.98
     96.5543	   15.00	   12.28	-1620.35	    8.98
     96.5878	   17.00	   12.28	-1618.35	    8.98
     96.6212	   14.00	   12.29	-1621.36	    8.98
     96.6546	   16.00	   12.29	-1619.36	    8.99
     96.6880	    6.00	   12.30	-1629.37	    8.99
     96.7215	   12.00	   12.30	-1623.37	    8.99
     96.7549	    6.00	   12.31	-1629.38	    8.99
     96.7883	    9.00	   12.31	-1626.38	    9.00
     96.8217	   16.00	   12.32	-1619.39	    9.00
     96.8551	   14.00	   12.33	-1621.39	    9.00
     96.8885	   16.00	   12.33	-1619.40	    9.00
     96.9220	   16.00	   12.34	-1619.41	    9.01
     96.9554	   15.00	   12.34	-1620.41	    9.01
     96.9888	    9.00	   12.35	-1626.42	    9.01
     97.0222	   14.00	   12.36	-1621.43	    9.01
     97.0557	    8.00	   12.36	-1627.43	    9.02
     97.0891	    9.00	   12.37	-1626.44	    9.02
     97.1225	    9.00	   12.38	-1626.44	    9.02
     97.1559	   15.00	   12.38	-1620.45	    9.02
     97.1894	   12.00	   12.39	-1623.46	    9.03
     97.2228	   15.00	   12.40	-1620.47	    9.03
     97.2562	    9.00	   12.40	-1626.47	    9.03
     97.2896	   14.00	   12.41	-1621.48	    9.03
     97.3230	    9.00	   12.42	-1626.49	    9.04
     97.3565	   12.00	   12.43	-1623.49	    9.04
     97.3899	   15.00	   12.43	-1620.50	    9.04
     97.4233	    5.00	   12.44	-1630.51	    9.05
     97.4567	   10.00	   12.45	-1625.52	    9.05
     97.4902	   15.00	   12.46	-1620.53	    9.05
     97.5236	   10.00	   12.46	-1625.53	    9.05
     97.5570	   16.00	   12.47	-1619.54	    9.06
     97.5904	   14.00	   12.48	-1621.55	    9.06
     97.6239	   14.00	   12.49	-1621.56	    9.06
     97.6573	   19.00	   12.50	-1616.57	    9.06
     97.6907	   10.00	   12.51	-1625.58	    9.07
     97.7241	   17.00	   12.52	-1618.59	    9.07
     97.7575	   10.00	   12.53	-1625.60	    9.07
     97.7910	   19.00	   12.54	-1616.61	    9.07
     97.8244	   16.00	   12.55	-1619.62	    9.08
     97.8578	    9.00	   12.56	-1626.63	    9.08
     97.8912	   10.00	   12.57	-1625.64	    9.08
     97.9247	   12.00	   12.58	-1623.65	    9.09
     97.9581	   11.00	   12.59	-1624.66	    9.09
     97.9915	   17.00	   12.60	-1618.67	    9.09
     98.0249	   19.00	   12.61	-1616.68	    9.09
     98.0583	    6.00	   12.62	-1629.69	    9.10
     98.0918	   20.00	   12.64	-1615.70	    9.10
     98.1252	   16.00	   12.65	-1619.72	    9.10
     98.1586	    9.00	   12.66	-1626.73	    9.11
     98.1920	    9.00	   12.67	-1626.74	    9.11
     98.2255	   12.00	   12.69	-1623.76	    9.11
     98.2589	    9.00	   12.70	-1626.77	    9.11
     98.2923	   10.00	   12.71	-1625.78	    9.12
     98.3257	   12.00	   12.73	-1623.80	    9.12
     98.3591	   11.00	   12.74	-1624.81	    9.12
     98.3926	   17.00	   12.76	-1618.83	    9.13
     98.4260	   17.00	   12.77	-1618.84	    9.13
     98.4594	    7.00	   12.79	-1628.86	    9.13
     98.4928	   20.00	   12.81	-1615.87	    9.13
     98.5263	   17.00	   12.82	-1618.89	    9.14
     98.5597	   12.00	   12.84	-1623.91	    9.14
     98.5931	   11.00	   12.86	-1624.93	    9.14
     98.6265	   16.00	   12.88	-1619.95	    9.15
     98.6600	   17.00	   12.90	-1618.97	    9.15
     98.6934	   14.00	   12.92	-1621.98	    9.15
     98.7268	   18.00	   12.94	-1618.01	    9.15
     98.7602	   12.00	   12.93	-1623.99	    9.16
     98.7936	   14.00	   12.95	-1622.02	    9.16
     98.8271	   15.00	   12.97	-1621.04	    9.16
     98.8605	   11.00	   12.99	-1625.06	    9.17
     98.8939	   15.00	   13.02	-1621.09	    9.17
     98.9273	    8.00	   13.04	-1628.11	    9.17
     98.9608	   17.00	   13.07	-1619.14	    9.18
     98.9942	   15.00	   13.10	-1621.17	    9.18
     99.0276	   10.00	   13.13	-1626.19	    9.18
     99.0610	   11.00	   13.16	-1625.22	    9.18
     99.0944	   17.00	   13.17	-1619.24	    9.19
     99.1279	   16.00	   13.20	-1620.27	    9.19
     99.1613	   15.00	   13.24	-1621.30	    9.19
     99.1947	    7.00	   13.27	-1629.34	    9.20
     99.2281	    9.00	   13.31	-1627.38	    9.20
     99.2616	   12.00	   13.34	-1624.41	    9.20
     99.2950	   18.00	   13.38	-1618.45	    9.21
     99.3284	   16.00	   13.43	-1620.50	    9.21
     99.3618	   11.00	   13.47	-1625.54	    9.21
     99.3952	   12.00	   13.52	-1624.58	    9.22
     99.4287	    9.00	   13.56	-1627.63	    9.22
     99.4621	   12.00	   13.61	-1624.68	    9.22
     99.4955	   12.00	   13.67	-1624.74	    9.22
     99.5289	   14.00	   13.72	-1622.79	    9.23
     99.5624	   17.00	   13.78	-1619.85	    9.23
     99.5958	   11.00	   13.84	-1625.91	    9.23
     99.6292	   17.00	   13.91	-1619.98	    9.24
     99.6626	   15.00	   13.98	-1622.05	    9.24
     99.6960	    9.00	   14.05	-1628.12	    9.24
     99.7295	   11.00	   14.13	-1626.20	    9.25
     99.7629	   14.00	   14.21	-1623.28	    9.25
     99.7963	   10.00	   14.30	-1627.37	    9.25
     99.8297	   18.00	   14.40	-1619.46	    9.26
     99.8632	   16.00	   14.50	-1621.56	    9.26
     99.8966	   17.00	   14.60	-1620.67	    9.26
     99.9300	   18.00	   14.72	-1619.79	    9.27
     99.9634	   11.00	   14.84	-1626.91	    9.27
     99.9969	   19.00	   14.97	-1619.04	    9.27
    100.0303	   18.00	   15.11	-1620.18	    9.28
    100.0637	    9.00	   15.27	-1629.34	    9.28
    100.0971	   11.00	   15.43	-1627.50	    9.28
    100.1305	   21.00	   15.61	-1617.68	    9.29
    100.1640	   14.00	   15.81	-1624.88	    9.29
    100.1974	   11.00	   16.02	-1628.09	    9.29
    100.2308	   20.00	   16.25	-1619.32	    9.30
    100.2642	   17.00	   16.51	-1622.58	    9.30
    100.2977	   18.00	   16.79	-1621.86	    9.30
    100.3311	   19.00	   17.09	-1621.16	    9.31
    100.3645	   19.00	   17.43	-1621.50	    9.31
    100.3979	   15.00	   17.81	-1625.88	    9.31
    100.4314	   17.00	   18.23	-1624.30	    9.32
    100.4648	   20.00	   18.70	-1621.77	    9.32
    100.4982	   21.00	   19.22	-1621.29	    9.32
    100.5316	   17.00	   19.82	-1625.89	    9.33
    100.5650	   11.00	   20.49	-1632.56	    9.33
    100.5985	   23.00	   21.27	-1621.34	    9.33
    100.6319	   12.00	   22.15	-1633.22	    9.34
    100.6653	   18.00	   23.18	-1628.25	    9.34
    100.6987	   28.00	   24.37	-1619.44	    9.34
    100.7321	   29.00	   25.76	-1619.83	    9.35
    100.7656	   30.00	   27.39	-1620.46	    9.35
    100.7990	   46.00	   29.31	-1606.38	    9.35
    100.8324	   33.00	   31.56	-1621.63	    9.36
    100.8658	   37.00	   34.20	-1620.27	    9.36
    100.8993	   25.00	   37.30	-1635.36	    9.36
    100.9327	   43.00	   40.89	-1620.96	    9.37
    100.9661	   44.00	   45.02	-1624.09	    9.37
    100.9995	   47.00	   49.67	-1625.74	    9.37
    101.0329	   52.00	   54.78	-1625.85	    9.38
    101.0664	   63.00	   60.13	-1620.20	    9.38
    101.0998	   63.00	   65.37	-1625.44	    9.39
    101.1332	   68.00	   69.99	-1625.06	    9.39
    101.1666	   74.00	   73.42	-1622.48	    9.39
    101.2001	   68.00	   75.21	-1630.28	    9.40
    101.2335	   78.00	   75.27	-1620.34	    9.40
    101.2669	   57.00	   73.88	-1639.95	    9.40
    101.3003	   70.00	   71.58	-1624.65	    9.41
    101.3338	   61.00	   68.96	-1631.03	    9.41
    101.3672	   74.00	   66.47	-1615.54	    9.41
    101.4006	   63.00	   64.33	-1624.40	    9.42
    101.4340	   45.00	   62.56	-1640.63	    9.42
    101.4674	   46.00	   60.97	-1638.04	    9.42
    101.5009	   46.00	   59.28	-1636.35	    9.43
    101.5343	   60.00	   57.19	-1620.26	    9.43
    101.5677	   66.00	   54.54	-1611.61	    9.44
    101.6011	   49.00	   51.37	-1625.44	    9.44
    101.6346	   47.00	   47.84	-1623.91	    9.44
    101.6680	   42.00	   44.22	-1625.29	    9.45
    101.7014	   36.00	   40.70	-1627.77	    9.45
    101.7348	   35.00	   37.45	-1625.51	    9.45
    101.7682	   21.00	   34.52	-1636.59	    9.46
    101.8017	   33.00	   31.94	-1622.01	    9.46
    101.8351	   30.00	   29.70	-1622.77	    9.47
    101.8685	   31.00	   27.77	-1619.84	    9.47
    101.9019	   24.00	   26.11	-1625.18	    9.47
    101.9354	   27.00	   24.69	-1620.76	    9.48
    101.9688	   20.00	   23.47	-1626.54	    9.48
    102.0022	   21.00	   22.41	-1624.48	    9.48
    102.0356	   19.00	   21.51	-1625.58	    9.49
    102.0690	   20.00	   20.72	-1623.79	    9.49
    102.1025	   24.00	   20.04	-1619.11	    9.50
    102.1359	   20.00	   19.44	-1622.51	    9.50
    102.1693	   12.00	   18.92	-1629.99	    9.50
    102.2027	   11.00	   18.45	-1630.52	    9.51
    102.2362	   16.00	   18.04	-1625.11	    9.51
    102.2696	   15.00	   17.68	-1625.74	    9.51
    102.3030	   24.00	   17.35	-1616.42	    9.52
    102.3364	   14.00	   17.05	-1626.12	    9.52
    102.3699	   12.00	   16.78	-1627.85	    9.53
    102.4033	   19.00	   16.54	-1620.61	    9.53
    102.4367	    8.00	   16.32	-1631.39	    9.53
    102.4701	   14.00	   16.12	-1625.19	    9.54
    102.5035	   19.00	   15.94	-1620.01	    9.54
    102.5370	   12.00	   15.77	-1626.84	    9.55
    102.5704	   14.00	   15.62	-1624.69	    9.55
    102.6038	   17.00	   15.48	-1621.55	    9.55
    102.6372	   12.00	   15.35	-1626.42	    9.56
    102.6707	   22.00	   15.23	-1616.30	    9.56
    102.7041	   14.00	   15.12	-1624.19	    9.56
    102.7375	   18.00	   15.02	-1620.09	    9.57
    102.7709	   16.00	   14.92	-1621.99	    9.57
    102.8044	   11.00	   14.84	-1626.91	    9.58
    102.8378	   21.00	   14.76	-1616.82	    9.58
    102.8712	   20.00	   14.68	-1617.75	    9.58
    102.9046	   19.00	   14.61	-1618.68	    9.59
    102.9380	   19.00	   14.54	-1618.61	    9.59
    102.9715	   11.00	   14.48	-1626.55	    9.60
    103.0049	   15.00	   14.43	-1622.49	    9.60
    103.0383	   11.00	   14.37	-1626.44	    9.60
    103.0717	   16.00	   14.32	-1621.39	    9.61
    103.1051	   14.00	   14.28	-1623.34	    9.61
    103.1386	   19.00	   14.23	-1618.30	    9.62
    103.1720	   16.00	   14.19	-1621.26	    9.62
    103.2054	   19.00	   14.15	-1618.22	    9.62
    103.2388	   16.00	   14.12	-1621.19	    9.63
    103.2723	   16.00	   14.08	-1621.15	    9.63
    103.3057	   14.00	   14.05	-1623.12	    9.64
    103.3391	   15.00	   14.02	-1622.09	    9.64
    103.3725	   21.00	   14.00	-1616.06	    9.65
    103.4059	   14.00	   13.97	-1623.04	    9.65
    103.4394	   11.00	   13.95	-1626.01	    9.65
    103.4728	   18.00	   13.92	-1618.99	    9.66
    103.5062	   11.00	   13.90	-1625.97	    9.66
    103.5396	   17.00	   13.88	-1619.95	    9.67
    103.5731	   11.00	   13.86	-1625.93	    9.67
    103.6065	   12.00	   13.85	-1624.92	    9.67
    103.6399	   16.00	   13.83	-1620.90	    9.68
    103.6733	   16.00	   13.82	-1620.89	    9.68
    103.7068	    7.00	   13.80	-1629.87	    9.69
    103.7402	   20.00	   13.79	-1616.86	    9.69
    103.7736	   19.00	   13.78	-1617.85	    9.70
    103.8070	   18.00	   13.77	-1618.84	    9.70
    103.8404	   20.00	   13.76	-1616.83	    9.70
    103.8739	   21.00	   13.75	-1615.82	    9.71
    103.9073	   14.00	   13.74	-1622.81	    9.71
    103.9407	   15.00	   13.73	-1621.80	    9.72
    103.9741	   16.00	   13.72	-1620.79	    9.72
    104.0076	   11.00	   13.72	-1625.79	    9.72
    104.0410	   19.00	   13.71	-1617.78	    9.73
    104.0744	    9.00	   13.71	-1627.78	    9.73
    104.1078	   20.00	   13.70	-1616.77	    9.74
    104.1413	   14.00	   13.70	-1622.77	    9.74
    104.1747	   17.00	   13.70	-1619.77	    9.75
    104.2081	   19.00	   13.69	-1617.76	    9.75
    104.2415	   12.00	   13.69	-1624.76	    9.76
    104.2749	   16.00	   13.69	-1620.76	    9.76
    104.3084	   12.00	   13.69	-1624.76	    9.76
    104.3418	   22.00	   13.69	-1614.76	    9.77
    104.3752	   10.00	   13.69	-1626.76	    9.77
    104.4086	   15.00	   13.69	-1621.76	    9.78
    104.4420	   15.00	   13.69	-1621.76	    9.78
    104.4755	    9.00	   13.69	-1627.76	    9.79
    104.5089	   17.00	   13.69	-1619.76	    9.79
    104.5423	   11.00	   13.70	-1625.77	    9.79
    104.5757	   16.00	   13.70	-1620.77	    9.80
    104.6092	   15.00	   13.70	-1621.77	    9.80
    104.6426	   15.00	   13.71	-1621.78	    9.81
    104.6760	   19.00	   13.71	-1617.78	    9.81
    104.7094	   17.00	   13.71	-1619.78	    9.82
    104.7429	   15.00	   13.72	-1621.79	    9.82
    104.7763	   18.00	   13.73	-1618.79	    9.83
    104.8097	   19.00	   13.73	-1617.80	    9.83
    104.8431	   18.00	   13.74	-1618.81	    9.83
    104.8765	   15.00	   13.74	-1621.81	    9.84
    104.9100	   18.00	   13.75	-1618.82	    9.84
    104.9434	   17.00	   13.76	-1619.83	    9.85
    104.9768	   16.00	   13.77	-1620.84	    9.85
    105.0102	   20.00	   13.77	-1616.84	    9.86
    105.0437	   17.00	   13.78	-1619.85	    9.86
    105.0771	   15.00	   13.79	-1621.86	    9.87
    105.1105	    6.00	   13.80	-1630.87	    9.87
    105.1439	    6.00	   13.81	-1630.88	    9.87
    105.1774	   15.00	   13.82	-1621.89	    9.88
    105.2108	   11.00	   13.83	-1625.90	    9.88
    105.2442	   12.00	   13.84	-1624.91	    9.89
    105.2776	   19.00	   13.86	-1617.92	    9.89
    105.3110	   19.00	   13.87	-1617.94	    9.90
    105.3445	   17.00	   13.88	-1619.95	    9.90
    105.3779	   20.00	   13.89	-1616.96	    9.91
    105.4113	   15.00	   13.91	-1621.98	    9.91
    105.4447	   18.00	   13.92	-1618.99	    9.92
    105.4781	   23.00	   13.94	-1614.00	    9.92
    105.5116	   22.00	   13.95	-1615.02	    9.93
    105.5450	   15.00	   13.97	-1622.04	    9.93
    105.5784	   22.00	   13.98	-1615.05	    9.93
    105.6118	   17.00	   14.00	-1620.07	    9.94
    105.6453	   17.00	   14.02	-1620.09	    9.94
    105.6787	   21.00	   14.03	-1616.10	    9.95
    105.7121	   12.00	   14.05	-1625.12	    9.95
    105.7455	   17.00	   14.07	-1620.14	    9.96
    105.7789	   15.00	   14.09	-1622.16	    9.96
    105.8124	   20.00	   14.11	-1617.18	    9.97
    105.8458	   11.00	   14.14	-1626.21	    9.97
    105.8792	   24.00	   14.16	-1613.23	    9.98
    105.9126	   19.00	   14.18	-1618.25	    9.98
    105.9461	   14.00	   14.21	-1623.28	    9.99
    105.9795	   24.00	   14.23	-1613.30	    9.99
    106.0129	   14.00	   14.26	-1623.33	   10.00
    106.0463	   14.00	   14.29	-1623.35	   10.00
    106.0798	   21.00	   14.31	-1616.38	   10.01
    106.1132	   16.00	   14.34	-1621.41	   10.01
    106.1466	   14.00	   14.37	-1623.44	   10.02
    106.1800	   16.00	   14.41	-1621.48	   10.02
    106.2134	   18.00	   14.44	-1619.51	   10.02
    106.2469	   20.00	   14.48	-1617.55	   10.03
    106.2803	   10.00	   14.51	-1627.58	   10.03
    106.3137	   19.00	   14.55	-1618.62	   10.04
    106.3471	   18.00	   14.59	-1619.66	   10.04
    106.3806	   12.00	   14.63	-1625.70	   10.05
    106.4140	   15.00	   14.68	-1622.75	   10.05
    106.4474	   21.00	   14.73	-1616.79	   10.06
    106.4808	   16.00	   14.77	-1621.84	   10.06
    106.5143	   19.00	   14.83	-1618.90	   10.07
    106.5477	   19.00	   14.88	-1618.95	   10.07
    106.5811	   17.00	   14.94	-1621.01	   10.08
    106.6145	   18.00	   15.00	-1620.07	   10.08
    106.6479	   15.00	   15.07	-1623.14	   10.09
    106.6814	   19.00	   15.14	-1619.21	   10.09
    106.7148	   19.00	   15.21	-1619.28	   10.10
    106.7482	   18.00	   15.29	-1620.36	   10.10
    106.7816	   17.00	   15.37	-1621.44	   10.11
    106.8150	   19.00	   15.46	-1619.53	   10.11
    106.8485	   17.00	   15.56	-1621.63	   10.12
    106.8819	   20.00	   15.67	-1618.73	   10.12
    106.9153	   16.00	   15.78	-1622.85	   10.13
    106.9487	   15.00	   15.90	-1623.97	   10.13
    106.9822	   14.00	   16.04	-1625.11	   10.14
    107.0156	   22.00	   16.18	-1617.25	   10.14
    107.0490	   17.00	   16.35	-1622.42	   10.15
    107.0824	   17.00	   16.52	-1622.59	   10.15
    107.1159	   16.00	   16.72	-1623.79	   10.16
    107.1493	   24.00	   16.94	-1616.01	   10.16
    107.1827	   27.00	   17.19	-1613.26	   10.17
    107.2161	   12.00	   17.46	-1628.53	   10.17
    107.2495	   25.00	   17.78	-1615.85	   10.18
    107.2830	   17.00	   18.13	-1624.20	   10.18
    107.3164	   22.00	   18.54	-1619.61	   10.19
    107.3498	   22.00	   19.00	-1620.07	   10.19
    107.3832	   14.00	   19.53	-1628.60	   10.20
    107.4167	   17.00	   20.14	-1626.21	   10.20
    107.4501	   18.00	   20.83	-1625.90	   10.21
    107.4835	   24.00	   21.63	-1620.70	   10.21
    107.5169	   20.00	   22.53	-1625.60	   10.22
    107.5504	   22.00	   23.55	-1624.62	   10.22
    107.5838	   32.00	   24.68	-1615.75	   10.23
    107.6172	   36.00	   25.91	-1612.98	   10.23
    107.6506	   39.00	   27.22	-1611.29	   10.24
    107.6840	   39.00	   28.53	-1612.60	   10.24
    107.7175	   42.00	   29.77	-1610.84	   10.25
    107.7509	   38.00	   30.84	-1615.91	   10.26
    107.7843	   35.00	   31.62	-1619.69	   10.26
    107.8177	   38.00	   32.04	-1617.11	   10.27
    107.8512	   39.00	   32.11	-1616.17	   10.27
    107.8846	   37.00	   31.86	-1617.93	   10.28
    107.9180	   43.00	   31.40	-1611.47	   10.28
    107.9514	   44.00	   30.86	-1609.93	   10.29
    107.9848	   42.00	   30.32	-1611.38	   10.29
    108.0183	   31.00	   29.84	-1621.91	   10.30
    108.0517	   35.00	   29.45	-1617.52	   10.30
    108.0851	   33.00	   29.14	-1619.21	   10.31
    108.1185	   36.00	   28.86	-1615.93	   10.31
    108.1519	   37.00	   28.56	-1614.63	   10.32
    108.1854	   19.00	   28.18	-1632.25	   10.32
    108.2188	   31.00	   27.69	-1619.76	   10.33
    108.2522	   25.00	   27.09	-1625.16	   10.33
    108.2856	   31.00	   26.40	-1618.47	   10.34
    108.3191	   30.00	   25.67	-1618.74	   10.34
    108.3525	   33.00	   24.94	-1615.01	   10.35
    108.3859	   22.00	   24.25	-1625.32	   10.36
    108.4193	   24.00	   23.63	-1622.70	   10.36
    108.4528	   21.00	   23.08	-1625.15	   10.37
    108.4862	   16.00	   22.62	-1629.69	   10.37
    108.5196	   18.00	   22.24	-1627.31	   10.38
    108.5530	   21.00	   21.93	-1624.00	   10.38
    108.5864	   23.00	   21.70	-1621.77	   10.39
    108.6199	   22.00	   21.53	-1622.60	   10.39
    108.6533	   21.00	   21.41	-1623.48	   10.40
    108.6867	   28.00	   21.36	-1616.42	   10.40
    108.7201	   20.00	   21.35	-1624.41	   10.41
    108.7536	   25.00	   21.38	-1619.45	   10.41
    108.7870	   23.00	   21.46	-1621.53	   10.42
    108.8204	   31.00	   21.58	-1613.65	   10.43
    108.8538	   24.00	   21.74	-1620.81	   10.43
    108.8873	   17.00	   21.94	-1628.01	   10.44
    108.9207	   28.00	   22.18	-1617.25	   10.44
    108.9541	   22.00	   22.46	-1623.53	   10.45
    108.9875	   22.00	   22.78	-1623.85	   10.45
    109.0209	   28.00	   23.15	-1618.22	   10.46
    109.0544	   23.00	   23.56	-1623.63	   10.46
    109.0878	   38.00	   24.03	-1609.10	   10.47
    109.1212	   16.00	   24.55	-1631.62	   10.48
    109.1546	   27.00	   25.13	-1621.20	   10.48
    109.1880	   34.00	   25.78	-1614.85	   10.49
    109.2215	   21.00	   26.50	-1628.57	   10.49
    109.2549	   25.00	   27.31	-1625.38	   10.50
    109.2883	   44.00	   28.22	-1607.29	   10.50
    109.3217	   31.00	   29.25	-1621.32	   10.51
    109.3552	   33.00	   30.40	-1620.47	   10.51
    109.3886	   33.00	   31.70	-1621.77	   10.52
    109.4220	   27.00	   33.18	-1629.25	   10.53
    109.4554	   38.00	   34.86	-1619.93	   10.53
    109.4889	   35.00	   36.77	-1624.84	   10.54
    109.5223	   41.00	   38.97	-1621.04	   10.54
    109.5557	   42.00	   41.48	-1622.55	   10.55
    109.5891	   47.00	   44.37	-1620.44	   10.55
    109.6225	   44.00	   47.70	-1626.77	   10.56
    109.6560	   43.00	   51.51	-1631.58	   10.57
    109.6894	   64.00	   55.90	-1614.97	   10.57
    109.7228	   57.00	   60.91	-1626.98	   10.58
    109.7562	   69.00	   66.61	-1620.68	   10.58
    109.7897	   81.00	   73.05	-1615.12	   10.59
    109.8231	   69.00	   80.22	-1634.29	   10.59
    109.8565	   86.00	   88.06	-1625.13	   10.60
    109.8899	   92.00	   96.40	-1627.47	   10.61
    109.9233	   92.00	  104.94	-1636.01	   10.61
    109.9568	  106.00	  113.18	-1630.25	   10.62
    109.9902	  117.00	  120.50	-1626.57	   10.62
    110.0236	  127.00	  126.22	-1622.29	   10.63
    110.0570	  113.00	  129.78	-1639.85	   10.63
    110.0905	  127.00	  130.94	-1627.01	   10.64
    110.1239	  125.00	  129.86	-1627.93	   10.65
    110.1573	  121.00	  127.03	-1629.10	   10.65
    110.1907	  116.00	  123.15	-1630.22	   10.66
    110.2242	  121.00	  118.92	-1620.99	   10.66
    110.2576	  125.00	  114.86	-1612.93	   10.67
    110.2910	  117.00	  111.28	-1617.35	   10.67
    110.3244	   97.00	  108.25	-1634.32	   10.68
    110.3578	  119.00	  105.66	-1609.73	   10.69
    110.3913	  104.00	  103.21	-1622.28	   10.69
    110.4247	   86.00	  100.55	-1637.62	   10.70
    110.4581	  106.00	   97.33	-1614.40	   10.70
    110.4915	  100.00	   93.35	-1616.42	   10.71
    110.5249	   89.00	   88.60	-1622.66	   10.72
    110.5584	   85.00	   83.23	-1621.30	   10.72
    110.5918	   79.00	   77.53	-1621.60	   10.73
    110.6252	   82.00	   71.78	-1612.85	   10.73
    110.6586	   74.00	   66.22	-1615.29	   10.74
    110.6921	   61.00	   61.02	-1623.09	   10.74
    110.7255	   69.00	   56.25	-1610.32	   10.75
    110.7589	   49.00	   51.96	-1626.03	   10.76
    110.7923	   58.00	   48.15	-1613.22	   10.76
    110.8258	   59.00	   44.77	-1608.84	   10.77
    110.8592	   37.00	   41.80	-1627.87	   10.77
    110.8926	   37.00	   39.19	-1625.26	   10.78
    110.9260	   36.00	   36.90	-1623.97	   10.79
    110.9594	   52.00	   34.89	-1605.96	   10.79
    110.9929	   27.00	   33.12	-1629.19	   10.80
    111.0263	   33.00	   31.56	-1621.63	   10.80
    111.0597	   30.00	   30.19	-1623.26	   10.81
    111.0931	   36.00	   28.97	-1616.04	   10.82
    111.1266	   36.00	   27.88	-1614.95	   10.82
    111.1600	   18.00	   26.91	-1631.98	   10.83
    111.1934	   29.00	   26.05	-1620.12	   10.83
    111.2268	   24.00	   25.27	-1624.34	   10.84
    111.2603	   25.00	   24.57	-1622.63	   10.85
    111.2937	   31.00	   23.93	-1616.00	   10.85
    111.3271	   25.00	   23.35	-1621.42	   10.86
    111.3605	   39.00	   22.82	-1606.89	   10.87
    111.3939	   23.00	   22.34	-1622.41	   10.87
    111.4274	   30.00	   21.90	-1614.97	   10.88
    111.4608	   16.00	   21.49	-1628.56	   10.88
    111.4942	   21.00	   21.12	-1623.19	   10.89
    111.5276	   36.00	   20.78	-1607.84	   10.90
    111.5611	   18.00	   20.46	-1625.53	   10.90
    111.5945	   27.00	   20.16	-1616.23	   10.91
    111.6279	   20.00	   19.89	-1622.96	   10.91
    111.6613	   22.00	   19.63	-1620.70	   10.92
    111.6947	   20.00	   19.40	-1622.46	   10.93
    111.7282	   24.00	   19.17	-1618.24	   10.93
    111.7616	   19.00	   18.97	-1623.04	   10.94
    111.7950	   20.00	   18.78	-1621.84	   10.95
    111.8284	   22.00	   18.60	-1619.66	   10.95
    111.8618	   16.00	   18.43	-1625.50	   10.96
    111.8953	   11.00	   18.27	-1630.34	   10.96
    111.9287	   21.00	   18.12	-1620.19	   10.97
    111.9621	   17.00	   17.98	-1624.05	   10.98
    111.9955	   20.00	   17.85	-1620.92	   10.98
    112.0290	   21.00	   17.72	-1619.79	   10.99
    112.0624	   18.00	   17.61	-1622.67	   11.00
    112.0958	   14.00	   17.50	-1626.56	   11.00
    112.1292	   17.00	   17.39	-1623.46	   11.01
    112.1627	   15.00	   17.29	-1625.36	   11.01
    112.1961	   15.00	   17.20	-1625.27	   11.02
    112.2295	   16.00	   17.11	-1624.18	   11.03
    112.2629	   14.00	   17.03	-1626.10	   11.03
    112.2963	   24.00	   16.95	-1616.02	   11.04
    112.3298	   22.00	   16.87	-1617.94	   11.05
    112.3632	   29.00	   16.80	-1610.87	   11.05
    112.3966	   18.00	   16.74	-1621.80	   11.06
    112.4300	   22.00	   16.67	-1617.74	   11.06
    112.4635	   18.00	   16.61	-1621.68	   11.07
    112.4969	   31.00	   16.55	-1608.62	   11.08
    112.5303	   18.00	   16.50	-1621.57	   11.08
    112.5637	   20.00	   16.45	-1619.52	   11.09
    112.5972	   18.00	   16.40	-1621.47	   11.10
    112.6306	   18.00	   16.35	-1621.42	   11.10
    112.6640	   18.00	   16.30	-1621.37	   11.11
    112.6974	   18.00	   16.26	-1621.33	   11.12
    112.7308	   18.00	   16.22	-1621.29	   11.12
    112.7643	   18.00	   16.18	-1621.25	   11.13
    112.7977	   24.00	   16.15	-1615.22	   11.14
    112.8311	    6.00	   16.11	-1633.18	   11.14
    112.8645	   20.00	   16.08	-1619.15	   11.15
    112.8979	   22.00	   16.05	-1617.11	   11.15
    112.9314	   30.00	   16.02	-1609.08	   11.16
    112.9648	   21.00	   15.99	-1618.06	   11.17
    112.9982	   20.00	   15.96	-1619.03	   11.17
    113.0316	   21.00	   15.93	-1618.00	   11.18
    113.0651	   12.00	   15.91	-1626.98	   11.19
    113.0985	   11.00	   15.89	-1627.95	   11.19
    113.1319	   17.00	   15.86	-1621.93	   11.20
    113.1653	   24.00	   15.84	-1614.91	   11.21
    113.1988	   30.00	   15.82	-1608.89	   11.21
    113.2322	   15.00	   15.80	-1623.87	   11.22
    113.2656	   20.00	   15.78	-1618.85	   11.23
    113.2990	   17.00	   15.77	-1621.84	   11.23
    113.3324	   16.00	   15.75	-1622.82	   11.24
    113.3659	   16.00	   15.73	-1622.80	   11.25
    113.3993	   14.00	   15.72	-1624.79	   11.25
    113.4327	   16.00	   15.71	-1622.78	   11.26
    113.4661	   14.00	   15.69	-1624.76	   11.27
    113.4996	   16.00	   15.68	-1622.75	   11.27
    113.5330	   17.00	   15.67	-1621.74	   11.28
    113.5664	   16.00	   15.66	-1622.73	   11.29
    113.5998	   23.00	   15.65	-1615.72	   11.29
    113.6333	   23.00	   15.64	-1615.71	   11.30
    113.6667	   19.00	   15.63	-1619.70	   11.31
    113.7001	   18.00	   15.62	-1620.69	   11.31
    113.7335	   17.00	   15.61	-1621.68	   11.32
    113.7669	   17.00	   15.61	-1621.68	   11.33
    113.8004	   15.00	   15.60	-1623.67	   11.33
    113.8338	   21.00	   15.59	-1617.66	   11.34
    113.8672	   25.00	   15.59	-1613.66	   11.35
    113.9006	   35.00	   15.58	-1603.65	   11.35
    113.9341	   14.00	   15.58	-1624.65	   11.36
    113.9675	   27.00	   15.58	-1611.64	   11.37
    114.0009	   18.00	   15.57	-1620.64	   11.37
    114.0343	   21.00	   15.57	-1617.64	   11.38
    114.0677	   22.00	   15.57	-1616.64	   11.39
    114.1012	   15.00	   15.56	-1623.63	   11.39
    114.1346	   18.00	   15.56	-1620.63	   11.40
    114.1680	   17.00	   15.56	-1621.63	   11.41
    114.2014	   24.00	   15.56	-1614.63	   11.41
    114.2348	   29.00	   15.56	-1609.63	   11.42
    114.2683	   14.00	   15.56	-1624.63	   11.43
    114.3017	   18.00	   15.56	-1620.63	   11.43
    114.3351	   17.00	   15.56	-1621.63	   11.44
    114.3685	   21.00	   15.56	-1617.63	   11.45
    114.4020	   20.00	   15.56	-1618.63	   11.45
    114.4354	   17.00	   15.57	-1621.63	   11.46
    114.4688	   15.00	   15.57	-1623.64	   11.47
    114.5022	   17.00	   15.57	-1621.64	   11.48
    114.5357	   22.00	   15.57	-1616.64	   11.48
    114.5691	   25.00	   15.58	-1613.65	   11.49
    114.6025	   14.00	   15.58	-1624.65	   11.50
    114.6359	    5.00	   15.58	-1633.65	   11.50
    114.6693	   21.00	   15.59	-1617.66	   11.51
    114.7028	   18.00	   15.59	-1620.66	   11.52
    114.7362	   27.00	   15.60	-1611.67	   11.52
    114.7696	   23.00	   15.60	-1615.67	   11.53
    114.8030	   11.00	   15.61	-1627.68	   11.54
    114.8365	   20.00	   15.61	-1618.68	   11.54
    114.8699	   22.00	   15.62	-1616.69	   11.55
    114.9033	   22.00	   15.63	-1616.70	   11.56
    114.9367	   20.00	   15.63	-1618.70	   11.57
    114.9702	   16.00	   15.64	-1622.71	   11.57
    115.0036	   18.00	   15.65	-1620.72	   11.58
    115.0370	   18.00	   15.66	-1620.72	   11.59
    115.0704	   18.00	   15.66	-1620.73	   11.59
    115.1038	   14.00	   15.67	-1624.74	   11.60
    115.1373	   17.00	   15.68	-1621.75	   11.61
    115.1707	   19.00	   15.69	-1619.76	   11.61
    115.2041	   16.00	   15.70	-1622.77	   11.62
    115.2375	   27.00	   15.71	-1611.78	   11.63
    115.2710	   19.00	   15.72	-1619.79	   11.64
    115.3044	   15.00	   15.73	-1623.80	   11.64
    115.3378	   23.00	   15.74	-1615.81	   11.65
    115.3712	   20.00	   15.75	-1618.82	   11.66
    115.4046	   17.00	   15.76	-1621.83	   11.66
    115.4381	   20.00	   15.78	-1618.84	   11.67
    115.4715	   16.00	   15.79	-1622.86	   11.68
    115.5049	   16.00	   15.80	-1622.87	   11.69
    115.5383	   17.00	   15.81	-1621.88	   11.69
    115.5718	   10.00	   15.83	-1628.90	   11.70
    115.6052	   23.00	   15.84	-1615.91	   11.71
    115.6386	   19.00	   15.85	-1619.92	   11.71
    115.6720	   17.00	   15.87	-1621.94	   11.72
    115.7054	   10.00	   15.88	-1628.95	   11.73
    115.7389	   16.00	   15.90	-1622.97	   11.74
    115.7723	   11.00	   15.91	-1627.98	   11.74
    115.8057	   14.00	   15.93	-1625.00	   11.75
    115.8391	   16.00	   15.95	-1623.02	   11.76
    115.8726	   17.00	   15.96	-1622.03	   11.76
    115.9060	    7.00	   15.98	-1632.05	   11.77
    115.9394	   11.00	   16.00	-1628.07	   11.78
    115.9728	   23.00	   16.02	-1616.09	   11.79
    116.0063	   15.00	   16.04	-1624.11	   11.79
    116.0397	   14.00	   16.06	-1625.13	   11.80
    116.0731	   18.00	   16.08	-1621.15	   11.81
    116.1065	   18.00	   16.10	-1621.17	   11.82
    116.1399	   25.00	   16.12	-1614.19	   11.82
    116.1734	   23.00	   16.14	-1616.21	   11.83
    116.2068	   21.00	   16.16	-1618.23	   11.84
    116.2402	   15.00	   16.19	-1624.26	   11.84
    116.2736	   22.00	   16.21	-1617.28	   11.85
    116.3071	   12.00	   16.23	-1627.30	   11.86
    116.3405	   14.00	   16.26	-1625.33	   11.87
    116.3739	   16.00	   16.28	-1623.35	   11.87
    116.4073	   18.00	   16.31	-1621.38	   11.88
    116.4408	   21.00	   16.34	-1618.41	   11.89
    116.4742	   10.00	   16.37	-1629.44	   11.90
    116.5076	   12.00	   16.39	-1627.46	   11.90
    116.5410	   23.00	   16.42	-1616.49	   11.91
    116.5744	   21.00	   16.45	-1618.52	   11.92
    116.6078	   23.00	   16.49	-1616.56	   11.93
    116.6413	   16.00	   16.52	-1623.59	   11.93
    116.6747	   12.00	   16.55	-1627.62	   11.94
    116.7081	   18.00	   16.59	-1621.66	   11.95
    116.7415	   15.00	   16.62	-1624.69	   11.95
    116.7750	   28.00	   16.66	-1611.73	   11.96
    116.8084	   16.00	   16.70	-1623.77	   11.97
    116.8418	   19.00	   16.74	-1620.80	   11.98
    116.8752	   27.00	   16.78	-1612.85	   11.98
    116.9087	   15.00	   16.82	-1624.89	   11.99
    116.9421	   18.00	   16.86	-1621.93	   12.00
    116.9755	   22.00	   16.91	-1617.97	   12.01
    117.0089	   22.00	   16.95	-1618.02	   12.01
    117.0423	   20.00	   17.00	-1620.07	   12.02
    117.0758	   14.00	   17.05	-1626.12	   12.03
    117.1092	   12.00	   17.10	-1628.17	   12.04
    117.1426	   19.00	   17.15	-1621.22	   12.04
    117.1760	   16.00	   17.21	-1624.28	   12.05
    117.2095	   17.00	   17.27	-1623.34	   12.06
    117.2429	   16.00	   17.33	-1624.40	   12.07
    117.2763	   17.00	   17.39	-1623.46	   12.07
    117.3097	   27.00	   17.45	-1613.52	   12.08
    117.3432	   19.00	   17.52	-1621.59	   12.09
    117.3766	   22.00	   17.59	-1618.66	   12.10
    117.4100	   30.00	   17.66	-1610.73	   12.11
    117.4434	   25.00	   17.74	-1615.81	   12.11
    117.4768	   30.00	   17.82	-1610.89	   12.12
    117.5103	   18.00	   17.90	-1622.97	   12.13
    117.5437	   16.00	   17.99	-1625.06	   12.14
    117.5771	   29.00	   18.08	-1612.15	   12.14
    117.6105	   19.00	   18.17	-1622.24	   12.15
    117.6440	   22.00	   18.27	-1619.34	   12.16
    117.6774	   25.00	   18.38	-1616.45	   12.17
    117.7108	   21.00	   18.49	-1620.56	   12.17
    117.7442	   20.00	   18.60	-1621.67	   12.18
    117.7776	   16.00	   18.72	-1625.79	   12.19
    117.8111	   25.00	   18.85	-1616.92	   12.20
    117.8445	   19.00	   18.98	-1623.05	   12.20
    117.8779	   17.00	   19.13	-1625.20	   12.21
    117.9113	   20.00	   19.28	-1622.34	   12.22
    117.9448	   21.00	   19.43	-1621.50	   12.23
    117.9782	   17.00	   19.60	-1625.67	   12.24
    118.0116	   21.00	   19.78	-1621.85	   12.24
    118.0450	   15.00	   19.97	-1628.04	   12.25
    118.0784	   23.00	   20.17	-1620.24	   12.26
    118.1119	   22.00	   20.38	-1621.45	   12.27
    118.1453	   21.00	   20.61	-1622.68	   12.27
    118.1787	   15.00	   20.85	-1628.92	   12.28
    118.2121	   21.00	   21.11	-1623.18	   12.29
    118.2456	   27.00	   21.38	-1617.45	   12.30
    118.2790	   20.00	   21.68	-1624.75	   12.31
    118.3124	   29.00	   22.00	-1616.07	   12.31
    118.3458	   21.00	   22.34	-1624.41	   12.32
    118.3793	   42.00	   22.71	-1603.78	   12.33
    118.4127	   28.00	   23.11	-1618.18	   12.34
    118.4461	   30.00	   23.55	-1616.62	   12.34
    118.4795	   28.00	   24.02	-1619.09	   12.35
    118.5129	   29.00	   24.53	-1618.60	   12.36
    118.5464	   23.00	   25.09	-1625.16	   12.37
    118.5798	   21.00	   25.70	-1627.77	   12.38
    118.6132	   27.00	   26.37	-1622.44	   12.38
    118.6466	   18.00	   27.11	-1632.18	   12.39
    118.6801	   36.00	   27.93	-1615.00	   12.40
    118.7135	   23.00	   28.83	-1628.90	   12.41
    118.7469	   22.00	   29.83	-1630.90	   12.42
    118.7803	   28.00	   30.95	-1626.02	   12.42
    118.8137	   44.00	   32.19	-1611.26	   12.43
    118.8472	   30.00	   33.59	-1626.66	   12.44
    118.8806	   29.00	   35.15	-1629.22	   12.45
    118.9140	   44.00	   36.90	-1615.97	   12.46
    118.9474	   34.00	   38.86	-1627.93	   12.46
    118.9809	   38.00	   41.06	-1626.13	   12.47
    119.0143	   50.00	   43.53	-1616.60	   12.48
    119.0477	   39.00	   46.29	-1630.36	   12.49
    119.0811	   41.00	   49.38	-1631.45	   12.50
    119.1145	   72.00	   52.80	-1603.87	   12.50
    119.1480	   50.00	   56.58	-1629.65	   12.51
    119.1814	   62.00	   60.72	-1621.79	   12.52
    119.2148	   68.00	   65.18	-1620.25	   12.53
    119.2482	   62.00	   69.90	-1630.97	   12.54
    119.2817	   90.00	   74.78	-1607.85	   12.54
    119.3151	   81.00	   79.65	-1621.71	   12.55
    119.3485	   88.00	   84.28	-1619.35	   12.56
    119.3819	   74.00	   88.42	-1637.49	   12.57
    119.4153	   70.00	   91.78	-1644.85	   12.58
    119.4488	   88.00	   94.14	-1629.21	   12.58
    119.4822	  101.00	   95.35	-1617.42	   12.59
    119.5156	  101.00	   95.41	-1617.48	   12.60
    119.5490	   92.00	   94.46	-1625.53	   12.61
    119.5825	   98.00	   92.74	-1617.81	   12.62
    119.6159	  110.00	   90.52	-1603.59	   12.63
    119.6493	   87.00	   88.10	-1624.17	   12.63
    119.6827	   96.00	   85.70	-1612.77	   12.64
    119.7162	   82.00	   83.49	-1624.56	   12.65
    119.7496	   79.00	   81.55	-1625.62	   12.66
    119.7830	   73.00	   79.89	-1629.96	   12.67
    119.8164	   79.00	   78.43	-1622.50	   12.67
    119.8498	   88.00	   77.08	-1612.15	   12.68
    119.8833	   75.00	   75.67	-1623.74	   12.69
    119.9167	   72.00	   74.08	-1625.14	   12.70
    119.9501	   70.00	   72.16	-1625.23	   12.71
    119.9835	   70.00	   69.87	-1622.94	   12.72
    120.0170	   72.00	   67.21	-1618.28	   12.72
    120.0504	   79.00	   64.23	-1608.30	   12.73
    120.0838	   66.00	   61.05	-1618.12	   12.74
    120.1172	   57.00	   57.78	-1623.85	   12.75
    120.1507	   50.00	   54.53	-1627.59	   12.76
    120.1841	   55.00	   51.39	-1619.46	   12.77
    120.2175	   39.00	   48.42	-1632.49	   12.77
    120.2509	   42.00	   45.66	-1626.73	   12.78
    120.2843	   34.00	   43.13	-1632.20	   12.79
    120.3178	   48.00	   40.82	-1615.89	   12.80
    120.3512	   35.00	   38.73	-1626.80	   12.81
    120.3846	   38.00	   36.85	-1621.92	   12.81
    120.4180	   38.00	   35.17	-1620.24	   12.82
    120.4514	   38.00	   33.65	-1618.72	   12.83
    120.4849	   42.00	   32.30	-1613.37	   12.84
    120.5183	   34.00	   31.08	-1620.15	   12.85
    120.5517	   32.00	   29.99	-1621.06	   12.86
    120.5851	   32.00	   29.01	-1620.08	   12.87
    120.6186	   30.00	   28.13	-1621.20	   12.87
    120.6520	   27.00	   27.33	-1623.40	   12.88
    120.6854	   36.00	   26.61	-1613.68	   12.89
    120.7188	   19.00	   25.96	-1630.03	   12.90
    120.7522	   32.00	   25.38	-1616.45	   12.91
    120.7857	   33.00	   24.84	-1614.91	   12.92
    120.8191	   21.00	   24.35	-1626.42	   12.92
    120.8525	   23.00	   23.91	-1623.98	   12.93
    120.8859	   18.00	   23.50	-1628.57	   12.94
    120.9194	   22.00	   23.13	-1624.20	   12.95
    120.9528	   22.00	   22.78	-1623.85	   12.96
    120.9862	   30.00	   22.46	-1615.53	   12.97
    121.0196	   21.00	   22.17	-1624.24	   12.97
    121.0531	   23.00	   21.90	-1621.97	   12.98
    121.0865	   22.00	   21.65	-1622.72	   12.99
    121.1199	   32.00	   21.41	-1612.48	   13.00
    121.1533	   27.00	   21.19	-1617.26	   13.01
    121.1867	   24.00	   20.99	-1620.06	   13.02
    121.2202	   27.00	   20.80	-1616.87	   13.03
    121.2536	   27.00	   20.62	-1616.69	   13.03
    121.2870	   20.00	   20.45	-1623.52	   13.04
    121.3204	   35.00	   20.30	-1608.37	   13.05
    121.3539	   16.00	   20.15	-1627.22	   13.06
    121.3873	   21.00	   20.02	-1622.09	   13.07
    121.4207	   23.00	   19.89	-1619.96	   13.08
    121.4541	   21.00	   19.77	-1621.84	   13.09
    121.4875	   24.00	   19.66	-1618.72	   13.09
    121.5210	   22.00	   19.55	-1620.62	   13.10
    121.5544	   15.00	   19.45	-1627.52	   13.11
    121.5878	   30.00	   19.35	-1612.42	   13.12
    121.6212	   25.00	   19.26	-1617.33	   13.13
    121.6547	   32.00	   19.18	-1610.25	   13.14
    121.6881	   18.00	   19.10	-1624.17	   13.15
    121.7215	   24.00	   19.02	-1618.09	   13.16
    121.7549	   22.00	   18.95	-1620.02	   13.16
    121.7883	   25.00	   18.89	-1616.96	   13.17
    121.8218	   22.00	   18.82	-1619.89	   13.18
    121.8552	   24.00	   18.76	-1617.83	   13.19
    121.8886	   30.00	   18.70	-1611.77	   13.20
    121.9220	   18.00	   18.65	-1623.72	   13.21
    121.9555	   23.00	   18.60	-1618.67	   13.22
    121.9889	   27.00	   18.55	-1614.62	   13.23
    122.0223	   30.00	   18.50	-1611.57	   13.23
    122.0557	   24.00	   18.46	-1617.53	   13.24
    122.0892	   20.00	   18.42	-1621.49	   13.25
    122.1226	   18.00	   18.38	-1623.45	   13.26
    122.1560	   17.00	   18.34	-1624.41	   13.27
    122.1894	   15.00	   18.31	-1626.38	   13.28
    122.2228	   18.00	   18.28	-1623.34	   13.29
    122.2563	   19.00	   18.24	-1622.31	   13.30
    122.2897	   20.00	   18.21	-1621.28	   13.30
    122.3231	   24.00	   18.19	-1617.25	   13.31
    122.3565	   21.00	   18.16	-1620.23	   13.32
    122.3900	   19.00	   18.13	-1622.20	   13.33
    122.4234	   29.00	   18.11	-1612.18	   13.34
    122.4568	   19.00	   18.09	-1622.16	   13.35
    122.4902	   19.00	   18.06	-1622.13	   13.36
    122.5237	   16.00	   18.04	-1625.11	   13.37
    122.5571	   24.00	   18.03	-1617.09	   13.37
    122.5905	   20.00	   18.01	-1621.08	   13.38
    122.6239	   20.00	   17.99	-1621.06	   13.39
    122.6573	   16.00	   17.97	-1625.04	   13.40
    122.6908	   18.00	   17.96	-1623.03	   13.41
    122.7242	   19.00	   17.95	-1622.01	   13.42
    122.7576	   20.00	   17.93	-1621.00	   13.43
    122.7910	   16.00	   17.92	-1624.99	   13.44
    122.8244	   20.00	   17.91	-1620.98	   13.45
    122.8579	   20.00	   17.90	-1620.97	   13.46
    122.8913	   16.00	   17.89	-1624.96	   13.46
    122.9247	   17.00	   17.88	-1623.95	   13.47
    122.9581	   21.00	   17.87	-1619.94	   13.48
    122.9916	   19.00	   17.86	-1621.93	   13.49
    123.0250	   18.00	   17.85	-1622.92	   13.50
    123.0584	   24.00	   17.85	-1616.92	   13.51
    123.0918	   18.00	   17.84	-1622.91	   13.52
    123.1252	   15.00	   17.84	-1625.91	   13.53
    123.1587	   19.00	   17.83	-1621.90	   13.54
    123.1921	   32.00	   17.83	-1608.90	   13.55
    123.2255	   12.00	   17.83	-1628.89	   13.55
    123.2589	   16.00	   17.82	-1624.89	   13.56
    123.2924	   22.00	   17.82	-1618.89	   13.57
    123.3258	   21.00	   17.82	-1619.89	   13.58
    123.3592	   18.00	   17.82	-1622.89	   13.59
    123.3926	   10.00	   17.82	-1630.88	   13.60
    123.4261	   24.00	   17.82	-1616.88	   13.61
    123.4595	   25.00	   17.82	-1615.88	   13.62
    123.4929	   25.00	   17.82	-1615.88	   13.63
    123.5263	   25.00	   17.82	-1615.89	   13.64
    123.5597	   23.00	   17.82	-1617.89	   13.65
    123.5932	   28.00	   17.82	-1612.89	   13.65
    123.6266	   24.00	   17.82	-1616.89	   13.66
    123.6600	   19.00	   17.82	-1621.89	   13.67
    123.6934	   18.00	   17.83	-1622.90	   13.68
    123.7269	   16.00	   17.83	-1624.90	   13.69
    123.7603	   16.00	   17.83	-1624.90	   13.70
    123.7937	   20.00	   17.84	-1620.91	   13.71
    123.8271	   31.00	   17.84	-1609.91	   13.72
    123.8605	   21.00	   17.85	-1619.92	   13.73
    123.8940	   21.00	   17.85	-1619.92	   13.74
    123.9274	   28.00	   17.86	-1612.93	   13.75
    123.9608	   25.00	   17.86	-1615.93	   13.76
    123.9942	   21.00	   17.87	-1619.94	   13.76
    124.0277	   22.00	   17.88	-1618.95	   13.77
    124.0611	   24.00	   17.88	-1616.95	   13.78
    124.0945	   21.00	   17.89	-1619.96	   13.79
    124.1279	   21.00	   17.90	-1619.97	   13.80
    124.1613	   16.00	   17.91	-1624.98	   13.81
    124.1948	   15.00	   17.92	-1625.99	   13.82
    124.2282	   24.00	   17.92	-1616.99	   13.83
    124.2616	   21.00	   17.93	-1620.00	   13.84
    124.2950	   15.00	   17.94	-1626.01	   13.85
    124.3285	   17.00	   17.95	-1624.02	   13.86
    124.3619	   21.00	   17.96	-1620.03	   13.87
    124.3953	   30.00	   17.97	-1611.04	   13.88
    124.4287	   16.00	   17.99	-1625.05	   13.89
    124.4622	   21.00	   18.00	-1620.07	   13.89
    124.4956	   14.00	   18.01	-1627.08	   13.90
    124.5290	   21.00	   18.02	-1620.09	   13.91
    124.5624	   19.00	   18.03	-1622.10	   13.92
    124.5958	   23.00	   18.05	-1618.11	   13.93
    124.6293	   20.00	   18.06	-1621.13	   13.94
    124.6627	   18.00	   18.07	-1623.14	   13.95
    124.6961	   27.00	   18.09	-1614.16	   13.96
    124.7295	   27.00	   18.10	-1614.17	   13.97
    124.7630	   20.00	   18.12	-1621.18	   13.98
    124.7964	   21.00	   18.13	-1620.20	   13.99
    124.8298	   20.00	   18.15	-1621.22	   14.00
    124.8632	   18.00	   18.16	-1623.23	   14.01
    124.8967	   24.00	   18.18	-1617.25	   14.02
    124.9301	   20.00	   18.20	-1621.27	   14.03
    124.9635	   18.00	   18.21	-1623.28	   14.04
    124.9969	   18.00	   18.23	-1623.30	   14.05
    125.0303	   27.00	   18.25	-1614.32	   14.06
    125.0638	   27.00	   18.27	-1614.34	   14.06
    125.0972	   21.00	   18.29	-1620.36	   14.07
    125.1306	   16.00	   18.31	-1625.38	   14.08
    125.1640	   21.00	   18.33	-1620.40	   14.09
    125.1974	   20.00	   18.35	-1621.42	   14.10
    125.2309	   20.00	   18.37	-1621.44	   14.11
    125.2643	   20.00	   18.40	-1621.47	   14.12
    125.2977	   17.00	   18.42	-1624.49	   14.13
    125.3311	   18.00	   18.45	-1623.51	   14.14
    125.3646	   16.00	   18.47	-1625.54	   14.15
    125.3980	   17.00	   18.50	-1624.57	   14.16
    125.4314	   31.00	   18.52	-1610.59	   14.17
    125.4648	   17.00	   18.55	-1624.62	   14.18
    125.4982	   24.00	   18.58	-1617.65	   14.19
    125.5317	   17.00	   18.61	-1624.68	   14.20
    125.5651	   22.00	   18.64	-1619.71	   14.21
    125.5985	   21.00	   18.67	-1620.74	   14.22
    125.6319	   21.00	   18.71	-1620.78	   14.23
    125.6654	   31.00	   18.74	-1610.81	   14.24
    125.6988	   21.00	   18.78	-1620.85	   14.25
    125.7322	   30.00	   18.82	-1611.88	   14.26
    125.7656	   18.00	   18.85	-1623.92	   14.27
    125.7991	   24.00	   18.90	-1617.96	   14.28
    125.8325	   20.00	   18.94	-1622.01	   14.29
    125.8659	   19.00	   18.98	-1623.05	   14.30
    125.8993	   24.00	   19.03	-1618.10	   14.30
    125.9327	   24.00	   19.08	-1618.15	   14.31
    125.9662	   27.00	   19.13	-1615.20	   14.32
    125.9996	   19.00	   19.19	-1623.25	   14.33
    126.0330	   19.00	   19.24	-1623.31	   14.34
    126.0664	   34.00	   19.30	-1608.37	   14.35
    126.0999	   29.00	   19.37	-1613.44	   14.36
    126.1333	   25.00	   19.44	-1617.51	   14.37
    126.1667	   11.00	   19.51	-1631.58	   14.38
    126.2001	   21.00	   19.59	-1621.66	   14.39
    126.2336	   38.00	   19.67	-1604.74	   14.40
    126.2670	   29.00	   19.76	-1613.83	   14.41
    126.3004	   25.00	   19.86	-1617.93	   14.42
    126.3338	   25.00	   19.96	-1618.03	   14.43
    126.3672	   12.00	   20.08	-1631.15	   14.44
    126.4007	   16.00	   20.20	-1627.27	   14.45
    126.4341	   22.00	   20.33	-1621.40	   14.46
    126.4675	   20.00	   20.47	-1623.54	   14.47
    126.5009	   16.00	   20.63	-1627.70	   14.48
    126.5343	   25.00	   20.80	-1618.87	   14.49
    126.5678	   30.00	   20.98	-1614.05	   14.50
    126.6012	   32.00	   21.19	-1612.26	   14.51
    126.6346	   32.00	   21.41	-1612.48	   14.52
    126.6680	   24.00	   21.65	-1620.71	   14.53
    126.7015	   24.00	   21.91	-1620.97	   14.54
    126.7349	   21.00	   22.19	-1624.26	   14.55
    126.7683	   28.00	   22.49	-1617.56	   14.56
    126.8017	   24.00	   22.81	-1621.88	   14.57
    126.8352	   29.00	   23.16	-1617.23	   14.58
    126.8686	   29.00	   23.52	-1617.59	   14.59
    126.9020	   19.00	   23.89	-1627.96	   14.60
    126.9354	   30.00	   24.26	-1617.33	   14.61
    126.9688	   20.00	   24.62	-1627.69	   14.62
    127.0023	   24.00	   24.97	-1624.04	   14.63
    127.0357	   24.00	   25.28	-1624.35	   14.64
    127.0691	   34.00	   25.54	-1614.61	   14.65
    127.1025	   22.00	   25.74	-1626.81	   14.66
    127.1360	   25.00	   25.88	-1623.95	   14.67
    127.1694	   15.00	   25.95	-1634.02	   14.68
    127.2028	   33.00	   25.96	-1616.03	   14.69
    127.2362	   30.00	   25.91	-1618.98	   14.70
    127.2697	   33.00	   25.83	-1615.90	   14.71
    127.3031	   27.00	   25.73	-1621.80	   14.72
    127.3365	   42.00	   25.62	-1606.68	   14.73
    127.3699	   31.00	   25.50	-1617.57	   14.74
    127.4033	   25.00	   25.41	-1623.47	   14.75
    127.4368	   43.00	   25.32	-1605.39	   14.76
    127.4702	   29.00	   25.26	-1619.33	   14.77
    127.5036	   29.00	   25.21	-1619.28	   14.78
    127.5370	   23.00	   25.18	-1625.25	   14.79
    127.5704	   31.00	   25.16	-1617.23	   14.80
    127.6039	   28.00	   25.13	-1620.20	   14.81
    127.6373	   25.00	   25.10	-1623.17	   14.82
    127.6707	   28.00	   25.06	-1620.13	   14.83
    127.7041	   28.00	   25.00	-1620.07	   14.84
    127.7376	   31.00	   24.92	-1616.99	   14.85
    127.7710	   36.00	   24.83	-1611.90	   14.86
    127.8044	   30.00	   24.71	-1617.78	   14.87
    127.8378	   25.00	   24.59	-1622.66	   14.88
    127.8712	   20.00	   24.47	-1627.54	   14.89
    127.9047	   23.00	   24.34	-1624.41	   14.90
    127.9381	   34.00	   24.23	-1613.30	   14.91
    127.9715	   44.00	   24.12	-1603.19	   14.92
    128.0049	   20.00	   24.03	-1627.10	   14.93
    128.0384	   23.00	   23.96	-1624.03	   14.94
    128.0718	   23.00	   23.91	-1623.98	   14.95
    128.1052	   21.00	   23.88	-1625.95	   14.96
    128.1386	   18.00	   23.86	-1628.93	   14.97
    128.1721	   25.00	   23.87	-1621.94	   14.98
    128.2055	   21.00	   23.89	-1625.96	   15.00
    128.2389	   27.00	   23.94	-1620.01	   15.01
    128.2723	   22.00	   24.00	-1625.07	   15.02
    128.3057	   27.00	   24.08	-1620.15	   15.03
    128.3392	   24.00	   24.18	-1623.25	   15.04
    128.3726	   29.00	   24.30	-1618.36	   15.05
    128.4060	   30.00	   24.43	-1617.50	   15.06
    128.4394	   31.00	   24.59	-1616.65	   15.07
    128.4729	   17.00	   24.76	-1630.83	   15.08
    128.5063	   25.00	   24.95	-1623.02	   15.09
    128.5397	   24.00	   25.16	-1624.23	   15.10
    128.5731	   24.00	   25.40	-1624.47	   15.11
    128.6066	   21.00	   25.66	-1627.73	   15.12
    128.6400	   25.00	   25.94	-1624.01	   15.13
    128.6734	   19.00	   26.24	-1630.31	   15.14
    128.7068	   28.00	   26.58	-1621.65	   15.15
    128.7402	   24.00	   26.94	-1626.01	   15.16
    128.7737	   27.00	   27.34	-1623.41	   15.17
    128.8071	   41.00	   27.77	-1609.84	   15.18
    128.8405	   32.00	   28.24	-1619.31	   15.19
    128.8739	   35.00	   28.75	-1616.82	   15.20
    128.9073	   25.00	   29.31	-1627.38	   15.21
    128.9408	   28.00	   29.92	-1624.99	   15.22
    128.9742	   24.00	   30.59	-1629.66	   15.23
    129.0076	   25.00	   31.32	-1629.39	   15.24
    129.0410	   41.00	   32.12	-1614.19	   15.25
    129.0745	   43.00	   33.00	-1613.07	   15.27
    129.1079	   36.00	   33.97	-1621.04	   15.28
    129.1413	   41.00	   35.02	-1617.09	   15.29
    129.1747	   36.00	   36.19	-1623.26	   15.30
    129.2082	   27.00	   37.46	-1633.53	   15.31
    129.2416	   34.00	   38.86	-1627.93	   15.32
    129.2750	   47.00	   40.40	-1616.47	   15.33
    129.3084	   39.00	   42.09	-1626.16	   15.34
    129.3418	   49.00	   43.93	-1618.00	   15.35
    129.3753	   55.00	   45.95	-1614.02	   15.36
    129.4087	   58.00	   48.14	-1613.21	   15.37
    129.4421	   48.00	   50.52	-1625.59	   15.38
    129.4755	   44.00	   53.08	-1632.15	   15.39
    129.5090	   65.00	   55.82	-1613.89	   15.40
    129.5424	   56.00	   58.72	-1625.79	   15.41
    129.5758	   68.00	   61.75	-1616.82	   15.42
    129.6092	   73.00	   64.87	-1614.94	   15.43
    129.6426	   62.00	   68.01	-1629.08	   15.45
    129.6761	   70.00	   71.09	-1624.15	   15.46
    129.7095	   76.00	   74.00	-1621.07	   15.47
    129.7429	   82.00	   76.63	-1617.70	   15.48
    129.7763	   73.00	   78.86	-1628.93	   15.49
    129.8098	   76.00	   80.60	-1627.67	   15.50
    129.8432	   64.00	   81.77	-1640.83	   15.51
    129.8766	   92.00	   82.33	-1613.39	   15.52
    129.9100	   81.00	   82.30	-1624.37	   15.53
    129.9435	   83.00	   81.74	-1621.81	   15.54
    129.9769	   86.00	   80.75	-1617.82	   15.55
    130.0103	   98.00	   79.45	-1604.52	   15.56
    130.0437	   63.00	   77.96	-1638.02	   15.57
    130.0771	   79.00	   76.38	-1620.45	   15.58
    130.1106	   78.00	   74.83	-1619.90	   15.60
    130.1440	   84.00	   73.36	-1612.43	   15.61
    130.1774	   68.00	   72.03	-1627.10	   15.62
    130.2108	   71.00	   70.84	-1622.91	   15.63
    130.2442	   64.00	   69.80	-1628.87	   15.64
    130.2777	   83.00	   68.87	-1608.94	   15.65
    130.3111	   73.00	   68.01	-1618.08	   15.66
    130.3445	   60.00	   67.16	-1630.23	   15.67
    130.3779	   76.00	   66.25	-1613.32	   15.68
    130.4114	   73.00	   65.23	-1615.30	   15.69
    130.4448	   74.00	   64.05	-1613.12	   15.70
    130.4782	   72.00	   62.68	-1613.75	   15.71
    130.5116	   58.00	   61.11	-1626.18	   15.72
    130.5451	   37.00	   59.36	-1645.43	   15.74
    130.5785	   63.00	   57.45	-1617.52	   15.75
    130.6119	   48.00	   55.43	-1630.50	   15.76
    130.6453	   54.00	   53.36	-1622.43	   15.77
    130.6787	   47.00	   51.27	-1627.34	   15.78
    130.7122	   61.00	   49.22	-1611.29	   15.79
    130.7456	   55.00	   47.23	-1615.30	   15.80
    130.7790	   38.00	   45.32	-1630.39	   15.81
    130.8124	   38.00	   43.52	-1628.59	   15.82
    130.8459	   48.00	   41.84	-1616.91	   15.83
    130.8793	   43.00	   40.27	-1620.34	   15.84
    130.9127	   43.00	   38.82	-1618.89	   15.86
    130.9461	   46.00	   37.48	-1614.55	   15.87
    130.9796	   48.00	   36.25	-1611.32	   15.88
    131.0130	   43.00	   35.12	-1615.19	   15.89
    131.0464	   35.00	   34.08	-1622.15	   15.90
    131.0798	   35.00	   33.13	-1621.20	   15.91
    131.1132	   42.00	   32.26	-1613.33	   15.92
    131.1467	   37.00	   31.47	-1617.53	   15.93
    131.1801	   37.00	   30.74	-1616.81	   15.94
    131.2135	   25.00	   30.07	-1628.14	   15.95
    131.2469	   30.00	   29.46	-1622.52	   15.97
    131.2803	   24.00	   28.89	-1627.96	   15.98
    131.3138	   32.00	   28.38	-1619.44	   15.99
    131.3472	   34.00	   27.90	-1616.97	   16.00
    131.3806	   30.00	   27.46	-1620.53	   16.01
    131.4140	   23.00	   27.06	-1627.12	   16.02
    131.4475	   30.00	   26.68	-1619.75	   16.03
    131.4809	   30.00	   26.34	-1619.40	   16.04
    131.5143	   29.00	   26.01	-1620.08	   16.05
    131.5477	   18.00	   25.72	-1630.79	   16.07
    131.5811	   30.00	   25.44	-1618.51	   16.08
    131.6146	   21.00	   25.18	-1627.25	   16.09
    131.6480	   34.00	   24.94	-1614.01	   16.10
    131.6814	   23.00	   24.72	-1624.79	   16.11
    131.7148	   18.00	   24.51	-1629.58	   16.12
    131.7483	   22.00	   24.31	-1625.38	   16.13
    131.7817	   15.00	   24.12	-1632.19	   16.14
    131.8151	   25.00	   23.95	-1622.02	   16.15
    131.8485	   20.00	   23.79	-1626.86	   16.17
    131.8820	   31.00	   23.64	-1615.71	   16.18
    131.9154	   19.00	   23.49	-1627.56	   16.19
    131.9488	   29.00	   23.36	-1617.43	   16.20
    131.9822	   22.00	   23.23	-1624.30	   16.21
    132.0156	   22.00	   23.11	-1624.18	   16.22
    132.0491	   33.00	   22.99	-1613.06	   16.23
    132.0825	   31.00	   22.89	-1614.96	   16.24
    132.1159	   18.00	   22.78	-1627.85	   16.26
    132.1493	   28.00	   22.69	-1617.76	   16.27
    132.1828	   23.00	   22.60	-1622.67	   16.28
    132.2162	   27.00	   22.51	-1618.58	   16.29
    132.2496	   21.00	   22.43	-1624.50	   16.30
    132.2830	   30.00	   22.35	-1615.42	   16.31
    132.3165	   24.00	   22.28	-1621.35	   16.32
    132.3499	   22.00	   22.21	-1623.28	   16.33
    132.3833	   18.00	   22.14	-1627.21	   16.35
    132.4167	   22.00	   22.08	-1623.15	   16.36
    132.4501	   29.00	   22.02	-1616.09	   16.37
    132.4836	   15.00	   21.96	-1630.03	   16.38
    132.5170	   32.00	   21.91	-1612.98	   16.39
    132.5504	   31.00	   21.86	-1613.93	   16.40
    132.5838	   20.00	   21.81	-1624.88	   16.41
    132.6172	   25.00	   21.76	-1619.83	   16.43
    132.6507	   16.00	   21.72	-1628.79	   16.44
    132.6841	   19.00	   21.68	-1625.74	   16.45
    132.7175	   22.00	   21.64	-1622.70	   16.46
    132.7509	   27.00	   21.58	-1617.65	   16.47
    132.7844	   21.00	   21.55	-1623.62	   16.48
    132.8178	   23.00	   21.51	-1621.58	   16.49
    132.8512	   16.00	   21.48	-1628.55	   16.51
    132.8846	   16.00	   21.45	-1628.52	   16.52
    132.9181	   20.00	   21.42	-1624.49	   16.53
    132.9515	   23.00	   21.39	-1621.46	   16.54
    132.9849	   25.00	   21.36	-1619.43	   16.55
    133.0183	   22.00	   21.34	-1622.41	   16.56
    133.0517	   28.00	   21.31	-1616.38	   16.57
    133.0852	   27.00	   21.29	-1617.36	   16.59
    133.1186	   34.00	   21.27	-1610.34	   16.60
    133.1520	   21.00	   21.25	-1623.32	   16.61
    133.1854	   23.00	   21.23	-1621.30	   16.62
    133.2189	   19.00	   21.21	-1625.28	   16.63
    133.2523	   21.00	   21.19	-1623.26	   16.64
    133.2857	   19.00	   21.18	-1625.25	   16.66
    133.3191	   31.00	   21.15	-1613.22	   16.67
    133.3526	   34.00	   21.14	-1610.21	   16.68
    133.3860	   24.00	   21.13	-1620.19	   16.69
    133.4194	   19.00	   21.11	-1625.18	   16.70
    133.4528	   17.00	   21.10	-1627.17	   16.71
    133.4862	   21.00	   21.09	-1623.16	   16.72
    133.5197	   22.00	   21.08	-1622.15	   16.74
    133.5531	   24.00	   21.07	-1620.14	   16.75
    133.5865	   21.00	   21.06	-1623.13	   16.76
    133.6199	   27.00	   21.05	-1617.12	   16.77
    133.6534	   31.00	   21.04	-1613.11	   16.78
    133.6868	   17.00	   21.03	-1627.10	   16.79
    133.7202	   19.00	   21.03	-1625.09	   16.81
    133.7536	   17.00	   21.02	-1627.09	   16.82
    133.7870	   19.00	   21.01	-1625.08	   16.83
    133.8205	   21.00	   21.01	-1623.08	   16.84
    133.8539	   22.00	   21.00	-1622.07	   16.85
    133.8873	   29.00	   21.00	-1615.07	   16.86
    133.9207	   19.00	   20.99	-1625.06	   16.88
    133.9541	   14.00	   20.99	-1630.06	   16.89
    133.9876	   24.00	   20.99	-1620.06	   16.90
    134.0210	   20.00	   20.98	-1624.05	   16.91
    134.0544	   25.00	   20.98	-1619.05	   16.92
    134.0878	   14.00	   20.98	-1630.05	   16.93
    134.1213	   22.00	   20.98	-1622.05	   16.95
    134.1547	   20.00	   20.98	-1624.04	   16.96
    134.1881	   22.00	   20.97	-1622.04	   16.97
    134.2215	   25.00	   20.97	-1619.04	   16.98
    134.2550	   20.00	   20.97	-1624.04	   16.99
    134.2884	   21.00	   20.97	-1623.04	   17.01
    134.3218	   25.00	   20.97	-1619.04	   17.02
    134.3552	   23.00	   20.97	-1621.04	   17.03
    134.3886	   24.00	   20.98	-1620.04	   17.04
    134.4221	   24.00	   20.98	-1620.05	   17.05
    134.4555	   24.00	   20.98	-1620.05	   17.06
    134.4889	   23.00	   20.98	-1621.05	   17.08
    134.5223	   24.00	   20.98	-1620.05	   17.09
    134.5558	   25.00	   20.98	-1619.05	   17.10
    134.5892	   24.00	   20.99	-1620.06	   17.11
    134.6226	   31.00	   20.99	-1613.06	   17.12
    134.6560	   23.00	   20.99	-1621.06	   17.14
    134.6895	   32.00	   21.00	-1612.07	   17.15
    134.7229	   25.00	   21.00	-1619.07	   17.16
    134.7563	   19.00	   21.00	-1625.07	   17.17
    134.7897	   16.00	   21.01	-1628.08	   17.18
    134.8231	   27.00	   21.01	-1617.08	   17.20
    134.8566	   28.00	   21.02	-1616.09	   17.21
    134.8900	   19.00	   21.02	-1625.09	   17.22
    134.9234	   27.00	   21.03	-1617.10	   17.23
    134.9568	   18.00	   21.03	-1626.10	   17.24
    134.9902	   20.00	   21.04	-1624.11	   17.26
    135.0237	   19.00	   21.04	-1625.11	   17.27
    135.0571	   29.00	   21.05	-1615.12	   17.28
    135.0905	   17.00	   21.05	-1627.12	   17.29
    135.1239	    8.00	   21.06	-1636.13	   17.30
    135.1574	   18.00	   21.07	-1626.13	   17.32
    135.1908	   22.00	   21.07	-1622.14	   17.33
    135.2242	   16.00	   21.08	-1628.15	   17.34
    135.2576	   11.00	   21.08	-1633.15	   17.35
    135.2911	   25.00	   21.09	-1619.16	   17.36
    135.3245	   25.00	   21.10	-1619.17	   17.38
    135.3579	   24.00	   21.11	-1620.17	   17.39
    135.3913	   17.00	   21.11	-1627.18	   17.40
    135.4247	   27.00	   21.12	-1617.19	   17.41
    135.4582	   20.00	   21.13	-1624.20	   17.42
    135.4916	   16.00	   21.14	-1628.20	   17.44
    135.5250	   16.00	   21.14	-1628.21	   17.45
    135.5584	   22.00	   21.15	-1622.22	   17.46
    135.5919	   23.00	   21.16	-1621.23	   17.47
    135.6253	   17.00	   21.17	-1627.24	   17.48
    135.6587	   18.00	   21.18	-1626.25	   17.50
    135.6921	   22.00	   21.18	-1622.25	   17.51
    135.7256	   29.00	   21.19	-1615.26	   17.52
    135.7590	   31.00	   21.20	-1613.27	   17.53
    135.7924	   14.00	   21.21	-1630.28	   17.55
    135.8258	   20.00	   21.22	-1624.29	   17.56
    135.8592	   16.00	   21.23	-1628.30	   17.57
    135.8927	   29.00	   21.24	-1615.31	   17.58
    135.9261	   25.00	   21.25	-1619.32	   17.59
    135.9595	   24.00	   21.26	-1620.33	   17.61
    135.9929	   22.00	   21.27	-1622.34	   17.62
    136.0264	   20.00	   21.28	-1624.35	   17.63
    136.0598	   23.00	   21.29	-1621.36	   17.64
    136.0932	   16.00	   21.30	-1628.37	   17.65
    136.1266	   21.00	   21.31	-1623.38	   17.67
    136.1600	   14.00	   21.32	-1630.39	   17.68
    136.1935	   17.00	   21.33	-1627.40	   17.69
    136.2269	   29.00	   21.34	-1615.41	   17.70
    136.2603	   23.00	   21.35	-1621.42	   17.72
    136.2937	   14.00	   21.36	-1630.43	   17.73
    136.3271	   17.00	   21.37	-1627.44	   17.74
    136.3606	   15.00	   21.38	-1629.45	   17.75
    136.3940	   25.00	   21.39	-1619.46	   17.77
    136.4274	   29.00	   21.40	-1615.47	   17.78
    136.4608	   29.00	   21.41	-1615.48	   17.79
    136.4943	   27.00	   21.42	-1617.49	   17.80
    136.5277	   15.00	   21.43	-1629.50	   17.81
    136.5611	   28.00	   21.45	-1616.52	   17.83
    136.5945	   19.00	   21.46	-1625.53	   17.84
    136.6280	   29.00	   21.47	-1615.54	   17.85
    136.6614	   18.00	   21.48	-1626.55	   17.86
    136.6948	   12.00	   21.49	-1632.56	   17.88
    136.7282	   21.00	   21.50	-1623.57	   17.89
    136.7616	   20.00	   21.52	-1624.59	   17.90
    136.7951	   21.00	   21.53	-1623.60	   17.91
    136.8285	   14.00	   21.54	-1630.61	   17.93
    136.8619	   29.00	   21.55	-1615.62	   17.94
    136.8953	   25.00	   21.57	-1619.64	   17.95
    136.9288	   21.00	   21.58	-1623.65	   17.96
    136.9622	   19.00	   21.59	-1625.66	   17.98
    136.9956	   10.00	   21.60	-1634.67	   17.99
    137.0290	   23.00	   21.62	-1621.69	   18.00
    137.0625	   18.00	   21.63	-1626.70	   18.01
    137.0959	   31.00	   21.64	-1613.71	   18.03
    137.1293	   17.00	   21.66	-1627.73	   18.04
    137.1627	   19.00	   21.67	-1625.74	   18.05
    137.1961	   29.00	   21.68	-1615.75	   18.06
    137.2296	   30.00	   21.70	-1614.77	   18.08
    137.2630	   14.00	   21.71	-1630.78	   18.09
    137.2964	   14.00	   21.72	-1630.79	   18.10
    137.3298	   16.00	   21.74	-1628.81	   18.11
    137.3633	   23.00	   21.75	-1621.82	   18.13
    137.3967	   18.00	   21.77	-1626.83	   18.14
    137.4301	   24.00	   21.78	-1620.85	   18.15
    137.4635	   25.00	   21.79	-1619.86	   18.16
    137.4969	   23.00	   21.81	-1621.88	   18.18
    137.5304	   21.00	   21.82	-1623.89	   18.19
    137.5638	   30.00	   21.84	-1614.91	   18.20
    137.5972	   22.00	   21.85	-1622.92	   18.21
    137.6306	   28.00	   21.87	-1616.94	   18.23
    137.6641	   28.00	   21.88	-1616.95	   18.24
    137.6975	   22.00	   21.90	-1622.97	   18.25
    137.7309	   19.00	   21.91	-1625.98	   18.27
    137.7643	   23.00	   21.93	-1622.00	   18.28
    137.7977	   24.00	   21.94	-1621.01	   18.29
    137.8312	   28.00	   21.96	-1617.03	   18.30
    137.8646	   31.00	   21.98	-1614.04	   18.32
    137.8980	   27.00	   21.99	-1618.06	   18.33
    137.9314	   32.00	   22.01	-1613.08	   18.34
    137.9649	   17.00	   22.02	-1628.09	   18.35
    137.9983	   22.00	   22.04	-1623.11	   18.37
    138.0317	   20.00	   22.06	-1625.13	   18.38
    138.0651	   27.00	   22.07	-1618.14	   18.39
    138.0986	   21.00	   22.09	-1624.16	   18.41
    138.1320	   37.00	   22.11	-1608.18	   18.42
    138.1654	   31.00	   22.12	-1614.19	   18.43
    138.1988	   24.00	   22.14	-1621.21	   18.44
    138.2322	   20.00	   22.16	-1625.23	   18.46
    138.2657	   27.00	   22.18	-1618.25	   18.47
    138.2991	   24.00	   22.20	-1621.26	   18.48
    138.3325	   10.00	   22.21	-1635.28	   18.49
    138.3659	   22.00	   22.23	-1623.30	   18.51
    138.3994	   25.00	   22.25	-1620.32	   18.52
    138.4328	   29.00	   22.27	-1616.34	   18.53
    138.4662	   20.00	   22.29	-1625.36	   18.55
    138.4996	   14.00	   22.31	-1631.38	   18.56
    138.5330	   17.00	   22.33	-1628.40	   18.57
    138.5665	   30.00	   22.35	-1615.42	   18.58
    138.5999	   20.00	   22.37	-1625.44	   18.60
    138.6333	   24.00	   22.39	-1621.46	   18.61
    138.6667	   24.00	   22.41	-1621.48	   18.62
    138.7001	   25.00	   22.43	-1620.50	   18.64
    138.7336	   31.00	   22.45	-1614.52	   18.65
    138.7670	   27.00	   22.47	-1618.54	   18.66
    138.8004	   17.00	   22.49	-1628.56	   18.67
    138.8338	   33.00	   22.51	-1612.58	   18.69
    138.8673	   20.00	   22.53	-1625.60	   18.70
    138.9007	   24.00	   22.56	-1621.63	   18.71
    138.9341	   19.00	   22.58	-1626.65	   18.73
    138.9675	   19.00	   22.60	-1626.67	   18.74
    139.0010	   24.00	   22.63	-1621.69	   18.75
    139.0344	   30.00	   22.65	-1615.72	   18.77
    139.0678	   21.00	   22.67	-1624.74	   18.78
    139.1012	   28.00	   22.70	-1617.77	   18.79
    139.1346	   27.00	   22.72	-1618.79	   18.80
    139.1681	   15.00	   22.75	-1630.82	   18.82
    139.2015	   20.00	   22.77	-1625.84	   18.83
    139.2349	   38.00	   22.80	-1607.87	   18.84
    139.2683	   24.00	   22.83	-1621.89	   18.86
    139.3018	   20.00	   22.85	-1625.92	   18.87
    139.3352	   23.00	   22.88	-1622.95	   18.88
    139.3686	   27.00	   22.91	-1618.98	   18.90
    139.4020	   20.00	   22.94	-1626.01	   18.91
    139.4355	   27.00	   22.97	-1619.04	   18.92
    139.4689	   21.00	   23.00	-1625.06	   18.93
    139.5023	   27.00	   23.03	-1619.10	   18.95
    139.5357	   19.00	   23.06	-1627.13	   18.96
    139.5691	   22.00	   23.09	-1624.16	   18.97
    139.6026	   23.00	   23.12	-1623.19	   18.99
    139.6360	   19.00	   23.15	-1627.22	   19.00
    139.6694	   30.00	   23.19	-1616.26	   19.01
    139.7028	   17.00	   23.22	-1629.29	   19.03
    139.7363	   16.00	   23.26	-1630.33	   19.04
    139.7697	   25.00	   23.29	-1621.36	   19.05
    139.8031	   20.00	   23.33	-1626.40	   19.07
    139.8365	   30.00	   23.37	-1616.44	   19.08
    139.8699	   29.00	   23.41	-1617.48	   19.09
    139.9034	   23.00	   23.45	-1623.52	   19.11
    139.9368	   34.00	   23.49	-1612.56	   19.12
    139.9702	   15.00	   23.53	-1631.60	   19.13
    140.0036	   16.00	   23.58	-1630.65	   19.15
    140.0371	   25.00	   23.62	-1621.69	   19.16
    140.0705	   23.00	   23.67	-1623.74	   19.17
    140.1039	   23.00	   23.72	-1623.79	   19.19
    140.1373	   16.00	   23.77	-1630.84	   19.20
    140.1707	   20.00	   23.82	-1626.89	   19.21
    140.2042	   25.00	   23.87	-1621.94	   19.22
    140.2376	   22.00	   23.93	-1624.99	   19.24
    140.2710	   29.00	   23.98	-1618.05	   19.25
    140.3044	   22.00	   24.04	-1625.11	   19.26
    140.3379	   20.00	   24.10	-1627.17	   19.28
    140.3713	   20.00	   24.16	-1627.23	   19.29
    140.4047	   34.00	   24.23	-1613.30	   19.30
    140.4381	   25.00	   24.30	-1622.37	   19.32
    140.4715	   17.00	   24.37	-1630.44	   19.33
    140.5050	   27.00	   24.44	-1620.51	   19.34
    140.5384	   15.00	   24.52	-1632.59	   19.36
    140.5718	   36.00	   24.60	-1611.67	   19.37
    140.6052	   29.00	   24.69	-1618.76	   19.38
    140.6387	   23.00	   24.78	-1624.84	   19.40
    140.6721	   29.00	   24.87	-1618.94	   19.41
    140.7055	   25.00	   24.97	-1623.04	   19.43
    140.7389	   32.00	   25.07	-1616.14	   19.44
    140.7724	   27.00	   25.18	-1621.25	   19.45
    140.8058	   29.00	   25.29	-1619.36	   19.47
    140.8392	   24.00	   25.41	-1624.48	   19.48
    140.8726	   29.00	   25.54	-1619.60	   19.49
    140.9060	   30.00	   25.67	-1618.74	   19.51
    140.9395	   28.00	   25.81	-1620.88	   19.52
    140.9729	   22.00	   25.96	-1627.03	   19.53
    141.0063	   25.00	   26.12	-1624.19	   19.55
    141.0397	   23.00	   26.29	-1626.36	   19.56
    141.0732	   32.00	   26.47	-1617.53	   19.57
    141.1066	   27.00	   26.66	-1622.73	   19.59
    141.1400	   28.00	   26.86	-1621.93	   19.60
    141.1734	   28.00	   27.07	-1622.14	   19.61
    141.2068	   25.00	   27.30	-1625.37	   19.63
    141.2403	   33.00	   27.55	-1617.62	   19.64
    141.2737	   27.00	   27.81	-1623.88	   19.65
    141.3071	   29.00	   28.09	-1622.16	   19.67
    141.3405	   31.00	   28.39	-1620.46	   19.68
    141.3740	   20.00	   28.71	-1631.77	   19.69
    141.4074	   27.00	   29.04	-1625.11	   19.71
    141.4408	   38.00	   29.40	-1614.47	   19.72
    141.4742	   28.00	   29.79	-1624.86	   19.74
    141.5076	   25.00	   30.20	-1628.27	   19.75
    141.5411	   31.00	   30.63	-1622.70	   19.76
    141.5745	   39.00	   31.09	-1615.16	   19.78
    141.6079	   37.00	   31.58	-1617.65	   19.79
    141.6413	   30.00	   32.09	-1625.16	   19.80
    141.6748	   25.00	   32.63	-1630.70	   19.82
    141.7082	   37.00	   33.19	-1619.26	   19.83
    141.7416	   33.00	   33.77	-1623.84	   19.84
    141.7750	   42.00	   34.37	-1615.44	   19.86
    141.8085	   23.00	   34.98	-1635.05	   19.87
    141.8419	   39.00	   35.60	-1619.67	   19.89
    141.8753	   38.00	   36.21	-1621.28	   19.90
    141.9087	   37.00	   36.82	-1622.89	   19.91
    141.9421	   24.00	   37.40	-1636.47	   19.93
    141.9756	   34.00	   37.95	-1627.02	   19.94
    142.0090	   33.00	   38.45	-1628.52	   19.95
    142.0424	   49.00	   38.90	-1612.97	   19.97
    142.0758	   42.00	   39.27	-1620.34	   19.98
    142.1093	   43.00	   39.57	-1619.64	   20.00
    142.1427	   37.00	   39.78	-1625.85	   20.01
    142.1761	   32.00	   39.91	-1630.98	   20.02
    142.2095	   48.00	   39.96	-1615.03	   20.04
    142.2430	   31.00	   39.92	-1631.99	   20.05
    142.2764	   31.00	   39.81	-1631.88	   20.06
    142.3098	   38.00	   39.64	-1624.71	   20.08
    142.3432	   48.00	   39.43	-1614.49	   20.09
    142.3766	   27.00	   39.17	-1635.24	   20.11
    142.4100	   43.00	   38.89	-1618.96	   20.12
    142.4435	   38.00	   38.60	-1623.67	   20.13
    142.4769	   41.00	   38.31	-1620.38	   20.15
    142.5103	   39.00	   38.02	-1622.09	   20.16
    142.5437	   45.00	   37.75	-1615.82	   20.17
    142.5772	   48.00	   37.50	-1612.57	   20.19
    142.6106	   37.00	   37.27	-1623.34	   20.20
    142.6440	   36.00	   37.06	-1624.13	   20.22
    142.6774	   37.00	   36.87	-1622.94	   20.23
    142.7109	   33.00	   36.70	-1626.76	   20.24
    142.7443	   46.00	   36.54	-1613.61	   20.26
    142.7777	   37.00	   36.39	-1622.46	   20.27
    142.8111	   51.00	   36.24	-1608.31	   20.29
    142.8445	   35.00	   36.09	-1624.16	   20.30
    142.8780	   29.00	   35.93	-1629.99	   20.31
    142.9114	   31.00	   35.75	-1627.82	   20.33
    142.9448	   32.00	   35.55	-1626.62	   20.34
    142.9782	   34.00	   35.32	-1624.39	   20.36
    143.0117	   35.00	   35.07	-1623.14	   20.37
    143.0451	   42.00	   34.79	-1615.86	   20.38
    143.0785	   31.00	   34.48	-1626.55	   20.40
    143.1119	   30.00	   34.15	-1627.22	   20.41
    143.1454	   34.00	   33.80	-1622.87	   20.43
    143.1788	   25.00	   33.44	-1631.51	   20.44
    143.2122	   35.00	   33.06	-1621.13	   20.45
    143.2456	   29.00	   32.68	-1626.75	   20.47
    143.2790	   36.00	   32.30	-1619.37	   20.48
    143.3125	   31.00	   31.92	-1623.99	   20.50
    143.3459	   34.00	   31.54	-1620.61	   20.51
    143.3793	   24.00	   31.18	-1630.25	   20.52
    143.4127	   27.00	   30.83	-1626.90	   20.54
    143.4462	   32.00	   30.50	-1621.57	   20.55
    143.4796	   33.00	   30.18	-1620.24	   20.57
    143.5130	   33.00	   29.87	-1619.94	   20.58
    143.5464	   25.00	   29.58	-1627.65	   20.59
    143.5798	   20.00	   29.31	-1632.38	   20.61
    143.6133	   34.00	   29.05	-1618.12	   20.62
    143.6467	   24.00	   28.81	-1627.88	   20.64
    143.6801	   29.00	   28.59	-1622.65	   20.65
    143.7135	   29.00	   28.37	-1622.44	   20.66
    143.7470	   28.00	   28.18	-1623.24	   20.68
    143.7804	   35.00	   27.99	-1616.06	   20.69
    143.8138	   25.00	   27.82	-1625.89	   20.71
    143.8472	   24.00	   27.66	-1626.73	   20.72
    143.8806	   27.00	   27.51	-1623.58	   20.74
    143.9141	   22.00	   27.37	-1628.44	   20.75
    143.9475	   31.00	   27.24	-1619.31	   20.76
    143.9809	   28.00	   27.11	-1622.18	   20.78
    144.0143	   27.00	   27.00	-1623.07	   20.79
    144.0478	   22.00	   26.90	-1627.97	   20.81
    144.0812	   27.00	   26.80	-1622.87	   20.82
    144.1146	   23.00	   26.71	-1626.78	   20.84
    144.1480	   22.00	   26.62	-1627.69	   20.85
    144.1815	   24.00	   26.54	-1625.61	   20.86
    144.2149	   20.00	   26.47	-1629.54	   20.88
    144.2483	   28.00	   26.40	-1621.47	   20.89
    144.2817	   31.00	   26.33	-1618.40	   20.91
    144.3151	   29.00	   26.27	-1620.34	   20.92
    144.3486	   20.00	   26.22	-1629.29	   20.94
    144.3820	   20.00	   26.17	-1629.24	   20.95
    144.4154	   27.00	   26.12	-1622.19	   20.96
    144.4488	   21.00	   26.07	-1628.14	   20.98
    144.4823	   21.00	   26.03	-1628.10	   20.99
    144.5157	   25.00	   25.99	-1624.06	   21.01
    144.5491	   25.00	   25.96	-1624.03	   21.02
    144.5825	   27.00	   25.92	-1621.99	   21.04
    144.6160	   34.00	   25.89	-1614.96	   21.05
    144.6494	   29.00	   25.86	-1619.93	   21.06
    144.6828	   22.00	   25.84	-1626.90	   21.08
    144.7162	   32.00	   25.81	-1616.88	   21.09
    144.7496	   28.00	   25.79	-1620.86	   21.11
    144.7831	   32.00	   25.77	-1616.83	   21.12
    144.8165	   33.00	   25.75	-1615.81	   21.14
    144.8499	   23.00	   25.73	-1625.80	   21.15
    144.8833	   22.00	   25.71	-1626.78	   21.16
    144.9167	   30.00	   25.69	-1618.76	   21.18
    144.9502	   27.00	   25.68	-1621.75	   21.19
    144.9836	   19.00	   25.67	-1629.74	   21.21
    145.0170	   23.00	   25.66	-1625.73	   21.22
    145.0504	   24.00	   25.65	-1624.71	   21.24
    145.0839	   20.00	   25.64	-1628.71	   21.25
    145.1173	   28.00	   25.63	-1620.70	   21.27
    145.1507	   28.00	   25.62	-1620.69	   21.28
    145.1841	   20.00	   25.61	-1628.68	   21.30
    145.2175	   23.00	   25.61	-1625.68	   21.31
    145.2510	   21.00	   25.60	-1627.67	   21.32
    145.2844	   29.00	   25.60	-1619.67	   21.34
    145.3178	   22.00	   25.59	-1626.66	   21.35
    145.3512	   17.00	   25.59	-1631.66	   21.37
    145.3847	   22.00	   25.59	-1626.66	   21.38
    145.4181	   28.00	   25.59	-1620.66	   21.40
    145.4515	   31.00	   25.59	-1617.66	   21.41
    145.4849	   21.00	   25.59	-1627.66	   21.43
    145.5184	   24.00	   25.59	-1624.66	   21.44
    145.5518	   24.00	   25.59	-1624.66	   21.46
    145.5852	   25.00	   25.59	-1623.66	   21.47
    145.6186	   33.00	   25.59	-1615.66	   21.48
    145.6520	   21.00	   25.60	-1627.67	   21.50
    145.6855	   15.00	   25.60	-1633.67	   21.51
    145.7189	   24.00	   25.60	-1624.67	   21.53
    145.7523	   34.00	   25.61	-1614.68	   21.54
    145.7857	   36.00	   25.61	-1612.68	   21.56
    145.8192	   22.00	   25.62	-1626.69	   21.57
    145.8526	   24.00	   25.62	-1624.69	   21.59
    145.8860	   29.00	   25.63	-1619.70	   21.60
    145.9194	   25.00	   25.63	-1623.70	   21.62
    145.9529	   34.00	   25.64	-1614.71	   21.63
    145.9863	   33.00	   25.65	-1615.71	   21.65
    146.0197	   24.00	   25.65	-1624.72	   21.66
    146.0531	   32.00	   25.66	-1616.73	   21.68
    146.0865	   29.00	   25.67	-1619.74	   21.69
    146.1200	   25.00	   25.68	-1623.74	   21.70
    146.1534	   18.00	   25.68	-1630.75	   21.72
    146.1868	   32.00	   25.69	-1616.76	   21.73
    146.2202	   22.00	   25.70	-1626.77	   21.75
    146.2536	   18.00	   25.71	-1630.78	   21.76
    146.2871	   20.00	   25.72	-1628.79	   21.78
    146.3205	   30.00	   25.73	-1618.80	   21.79
    146.3539	   21.00	   25.74	-1627.81	   21.81
    146.3873	   28.00	   25.75	-1620.82	   21.82
    146.4208	   30.00	   25.76	-1618.83	   21.84
    146.4542	   23.00	   25.77	-1625.84	   21.85
    146.4876	   19.00	   25.78	-1629.85	   21.87
    146.5210	   41.00	   25.78	-1607.85	   21.88
    146.5545	   28.00	   25.79	-1620.86	   21.90
    146.5879	   22.00	   25.80	-1626.87	   21.91
    146.6213	   27.00	   25.82	-1621.88	   21.93
    146.6547	   32.00	   25.83	-1616.90	   21.94
    146.6881	   24.00	   25.84	-1624.91	   21.96
    146.7216	   24.00	   25.85	-1624.92	   21.97
    146.7550	   25.00	   25.86	-1623.93	   21.99
    146.7884	   18.00	   25.88	-1630.95	   22.00
    146.8218	   27.00	   25.89	-1621.96	   22.02
    146.8553	   29.00	   25.90	-1619.97	   22.03
    146.8887	   24.00	   25.91	-1624.98	   22.05
    146.9221	   23.00	   25.93	-1626.00	   22.06
    146.9555	   22.00	   25.94	-1627.01	   22.08
    146.9889	   27.00	   25.95	-1622.02	   22.09
    147.0224	   31.00	   25.97	-1618.04	   22.11
    147.0558	   28.00	   25.98	-1621.05	   22.12
    147.0892	   34.00	   26.00	-1615.06	   22.14
    147.1226	   21.00	   26.01	-1628.08	   22.15
    147.1561	   24.00	   26.02	-1625.09	   22.17
    147.1895	   17.00	   26.04	-1632.11	   22.18
    147.2229	   28.00	   26.05	-1621.12	   22.20
    147.2563	   28.00	   26.06	-1621.13	   22.21
    147.2897	   29.00	   26.08	-1620.15	   22.23
    147.3232	   29.00	   26.09	-1620.16	   22.24
    147.3566	   21.00	   26.11	-1628.18	   22.26
    147.3900	   33.00	   26.12	-1616.19	   22.27
    147.4234	   29.00	   26.14	-1620.21	   22.29
    147.4569	   18.00	   26.15	-1631.22	   22.30
    147.4903	   27.00	   26.17	-1622.24	   22.32
    147.5237	   22.00	   26.18	-1627.25	   22.33
    147.5571	   29.00	   26.20	-1620.27	   22.35
    147.5905	   17.00	   26.22	-1632.29	   22.36
    147.6240	   24.00	   26.23	-1625.30	   22.38
    147.6574	   27.00	   26.25	-1622.32	   22.39
    147.6908	   23.00	   26.26	-1626.33	   22.41
    147.7242	   24.00	   26.28	-1625.35	   22.42
    147.7577	   27.00	   26.30	-1622.37	   22.44
    147.7911	   32.00	   26.31	-1617.38	   22.45
    147.8245	   27.00	   26.33	-1622.40	   22.47
    147.8579	   34.00	   26.35	-1615.42	   22.48
    147.8914	   20.00	   26.36	-1629.43	   22.50
    147.9248	   20.00	   26.38	-1629.45	   22.51
    147.9582	   15.00	   26.40	-1634.47	   22.53
    147.9916	   30.00	   26.42	-1619.49	   22.54
    148.0250	   17.00	   26.43	-1632.50	   22.56
    148.0585	   29.00	   26.45	-1620.52	   22.57
    148.0919	   46.00	   26.47	-1603.54	   22.59
    148.1253	   29.00	   26.49	-1620.56	   22.60
    148.1587	   19.00	   26.51	-1630.57	   22.62
    148.1922	   22.00	   26.52	-1627.59	   22.64
    148.2256	   19.00	   26.54	-1630.61	   22.65
    148.2590	   28.00	   26.56	-1621.63	   22.67
    148.2924	   29.00	   26.58	-1620.65	   22.68
    148.3258	   27.00	   26.60	-1622.67	   22.70
    148.3593	   30.00	   26.62	-1619.68	   22.71
    148.3927	   31.00	   26.63	-1618.70	   22.73
    148.4261	   33.00	   26.65	-1616.72	   22.74
    148.4595	   25.00	   26.67	-1624.74	   22.76
    148.4930	   24.00	   26.69	-1625.76	   22.77
    148.5264	   25.00	   26.71	-1624.78	   22.79
    148.5598	   22.00	   26.73	-1627.80	   22.80
    148.5932	   31.00	   26.75	-1618.82	   22.82
    148.6266	   30.00	   26.77	-1619.84	   22.83
    148.6601	   28.00	   26.79	-1621.86	   22.85
    148.6935	   22.00	   26.81	-1627.88	   22.87
    148.7269	   27.00	   26.83	-1622.90	   22.88
    148.7603	   34.00	   26.85	-1615.92	   22.90
    148.7938	   25.00	   26.87	-1624.94	   22.91
    148.8272	   23.00	   26.89	-1626.96	   22.93
    148.8606	   20.00	   26.91	-1629.98	   22.94
    148.8940	   27.00	   26.93	-1623.00	   22.96
    148.9274	   21.00	   26.95	-1629.02	   22.97
    148.9609	   34.00	   26.97	-1616.04	   22.99
    148.9943	   37.00	   26.99	-1613.06	   23.00
    149.0277	   19.00	   27.01	-1631.08	   23.02
    149.0611	   24.00	   27.03	-1626.10	   23.03
    149.0946	   28.00	   27.06	-1622.12	   23.05
    149.1280	   25.00	   27.08	-1625.15	   23.07
    149.1614	   22.00	   27.10	-1628.17	   23.08
    149.1948	   33.00	   27.12	-1617.19	   23.10
    149.2283	   25.00	   27.14	-1625.21	   23.11
    149.2617	   21.00	   27.16	-1629.23	   23.13
    149.2951	   18.00	   27.19	-1632.26	   23.14
    149.3285	   23.00	   27.21	-1627.28	   23.16
    149.3619	   27.00	   27.23	-1623.30	   23.17
    149.3954	   21.00	   27.25	-1629.32	   23.19
    149.4288	   31.00	   27.28	-1619.35	   23.21
    149.4622	   38.00	   27.30	-1612.37	   23.22
    149.4956	   41.00	   27.32	-1609.39	   23.24
    149.5291	   27.00	   27.35	-1623.41	   23.25
    149.5625	   32.00	   27.37	-1618.44	   23.27
    149.5959	   15.00	   27.39	-1635.46	   23.28
    149.6293	   27.00	   27.42	-1623.49	   23.30
    149.6628	   27.00	   27.44	-1623.51	   23.31
    149.6962	   25.00	   27.46	-1625.53	   23.33
    149.7296	   28.00	   27.49	-1622.56	   23.35
    149.7630	   34.00	   27.51	-1616.58	   23.36
    149.7964	   32.00	   27.54	-1618.61	   23.38
    149.8299	   20.00	   27.56	-1630.63	   23.39
    149.8633	   28.00	   27.59	-1622.66	   23.41
    149.8967	   25.00	   27.61	-1625.68	   23.42
    149.9301	   31.00	   27.64	-1619.71	   23.44
    149.9635	   39.00	   27.66	-1611.73	   23.46
    149.9970	   27.00	   27.69	-1623.76	   23.47
     27.4732	        	        	        	        	       0	(  1  1  1)	  0  1 :  1
     27.5418	        	        	        	        	       0	(  1  1  1)	  0  2 :  1
     31.8072	        	        	        	        	       0	(  2  0  0)	  0  1 :  1
     31.8872	        	        	        	        	       0	(  2  0  0)	  0  2 :  1
     45.5406	        	        	        	        	       0	(  2  2  0)	  0  1 :  1
     45.6586	        	        	        	        	       0	(  2  2  0)	  0  2 :  1
     53.9534	        	        	        	        	       0	(  3  1  1)	  0  1 :  1
     54.0965	        	        	        	        	       0	(  3  1  1)	  0  2 :  1
     56.5549	        	        	        	        	       0	(  2  2  2)	  0  1 :  1
     56.7062	        	        	        	        	       0	(  2  2  2)	  0  2 :  1
     66.2988	        	        	        	        	       0	(  4  0  0)	  0  1 :  1
     66.4825	        	        	        	        	       0	(  4  0  0)	  0  2 :  1
     73.1339	        	        	        	        	       0	(  3  3  1)	  0  1 :  1
     73.3427	        	        	        	        	       0	(  3  3  1)	  0  2 :  1
     75.3528	        	        	        	        	       0	(  4  2  0)	  0  1 :  1
     75.5701	        	        	        	        	       0	(  4  2  0)	  0  2 :  1
     84.0408	        	        	        	        	       0	(  4  2  2)	  0  1 :  1
     84.2945	        	        	        	        	       0	(  4  2  2)	  0  2 :  1
     90.4546	        	        	        	        	       0	(  3  3  3)	  0  1 :  1
     90.4546	        	        	        	        	       0	(  5  1  1)	  0  1 :  1
     90.7384	        	        	        	        	       0	(  3  3  3)	  0  2 :  1
     90.7384	        	        	        	        	       0	(  5  1  1)	  0  2 :  1
    101.1944	        	        	        	        	       0	(  4  4  0)	  0  1 :  1
    101.5375	        	        	        	        	       0	(  4  4  0)	  0  2 :  1
    107.8084	        	        	        	        	       0	(  5  3  1)	  0  1 :  1
    108.1952	        	        	        	        	       0	(  5  3  1)	  0  2 :  1
    110.0636	        	        	        	        	       0	(  4  4  2)	  0  1 :  1
    110.0636	        	        	        	        	       0	(  6  0  0)	  0  1 :  1
    110.4669	        	        	        	        	       0	(  4  4  2)	  0  2 :  1
    110.4669	        	        	        	        	       0	(  6  0  0)	  0  2 :  1
    119.4692	        	        	        	        	       0	(  6  2  0)	  0  1 :  1
    119.9530	        	        	        	        	       0	(  6  2  0)	  0  2 :  1
    127.1285	        	        	        	        	       0	(  5  3  3)	  0  1 :  1
    127.6972	        	        	        	        	       0	(  5  3  3)	  0  2 :  1
    129.8528	        	        	        	        	       0	(  6  2  2)	  0  1 :  1
    130.4575	        	        	        	        	       0	(  6  2  2)	  0  2 :  1
    142.1531	        	        	        	        	       0	(  4  4  4)	  0  1 :  1
    142.9824	        	        	        	        	       0	(  4  4  4)	  0  2 :  1
    154.3245	        	        	        	        	       0	(  5  5  1)	  0  1 :  1
    154.3245	        	        	        	        	       0	(  7  1  1)	  0  1 :  1
    155.5896	        	        	        	        	       0	(  5  5  1)	  0  2 :  1
    155.5896	        	        	        	        	       0	(  7  1  1)	  0  2 :  1
    159.7949	        	        	        	        	       0	(  6  4  0)	  0  1 :  1
    161.4401	        	        	        	        	       0	(  6  4  0)	  0  2 :  1
