 Fe3O4   Chi2:  1.4616  CELL:    8.39767   8.39767   8.39767   90.0000   90.0000   90.0000   SPGR: 227:1                  TEMP:      0.00
  1   3142     1.54060     1.54439     0.00000    -0.02368     0.00000    0
    90     0     1
       0.00000      15.00000
 2Theta	Yobs	Ycal	Yobs-Ycal	Backg	Posr	(hkl)	K
     15.0031	  121.00	  136.63	 -372.13	  133.94
     15.0365	  158.00	  136.63	 -335.13	  133.94
     15.0700	  129.00	  136.63	 -364.13	  133.94
     15.1034	  157.00	  136.83	 -336.33	  134.13
     15.1368	  133.00	  136.33	 -359.82	  133.63
     15.1702	  156.00	  135.82	 -336.32	  133.12
     15.2036	  165.00	  135.32	 -326.82	  132.62
     15.2371	  145.00	  134.82	 -346.32	  132.12
     15.2705	  125.00	  134.32	 -365.82	  131.61
     15.3039	  171.00	  133.82	 -319.32	  131.11
     15.3373	  130.00	  133.32	 -359.81	  130.60
     15.3708	  129.00	  132.82	 -360.31	  130.10
     15.4042	  152.00	  132.31	 -336.81	  129.60
     15.4376	  151.00	  131.81	 -337.31	  129.09
     15.4710	  155.00	  131.31	 -332.81	  128.59
     15.5044	  130.00	  130.81	 -357.31	  128.08
     15.5379	  137.00	  130.31	 -349.81	  127.58
     15.5713	  140.00	  129.81	 -346.31	  127.08
     15.6047	  115.00	  129.31	 -370.81	  126.57
     15.6381	  143.00	  128.81	 -342.31	  126.07
     15.6716	  157.00	  128.31	 -327.81	  125.56
     15.7050	  149.00	  127.81	 -335.31	  125.06
     15.7384	  141.00	  127.31	 -342.81	  124.56
     15.7718	  136.00	  126.81	 -347.31	  124.05
     15.8053	  130.00	  126.31	 -352.81	  123.55
     15.8387	  139.00	  125.81	 -343.31	  123.04
     15.8721	  144.00	  125.31	 -337.81	  122.54
     15.9055	  144.00	  124.81	 -337.31	  122.04
     15.9389	  130.00	  124.31	 -350.81	  121.53
     15.9724	  128.00	  123.82	 -352.31	  121.03
     16.0058	  124.00	  123.32	 -355.81	  120.52
     16.0392	  119.00	  122.82	 -360.32	  120.02
     16.0726	  108.00	  122.32	 -370.82	  119.52
     16.1061	  137.00	  121.82	 -341.32	  119.01
     16.1395	  131.00	  121.33	 -346.82	  118.51
     16.1729	  118.00	  120.83	 -359.33	  118.00
     16.2063	  141.00	  120.33	 -335.83	  117.50
     16.2397	  129.00	  119.84	 -347.33	  117.00
     16.2732	  126.00	  119.34	 -349.84	  116.49
     16.3066	  118.00	  118.85	 -357.34	  115.99
     16.3400	  108.00	  118.35	 -366.85	  115.48
     16.3734	  115.00	  117.86	 -359.35	  114.98
     16.4069	  142.00	  117.36	 -331.86	  114.48
     16.4403	  132.00	  116.87	 -341.37	  113.97
     16.4737	  122.00	  116.38	 -350.87	  113.47
     16.5071	   94.00	  115.88	 -378.38	  112.96
     16.5405	  129.00	  115.39	 -342.89	  112.46
     16.5740	  140.00	  114.90	 -331.40	  111.96
     16.6074	  143.00	  114.41	 -327.91	  111.45
     16.6408	  121.00	  113.92	 -349.42	  110.95
     16.6742	  132.00	  113.44	 -337.93	  110.44
     16.7077	  124.00	  112.95	 -345.45	  109.94
     16.7411	  116.00	  112.50	 -352.99	  109.47
     16.7745	  103.00	  112.13	 -365.62	  109.08
     16.8079	  106.00	  111.76	 -362.25	  108.69
     16.8414	  114.00	  111.39	 -353.89	  108.30
     16.8748	  127.00	  111.02	 -340.52	  107.91
     16.9082	  126.00	  110.66	 -341.16	  107.52
     16.9416	  100.00	  110.30	 -366.79	  107.13
     16.9750	  116.00	  109.94	 -350.43	  106.74
     17.0085	  139.00	  109.58	 -327.08	  106.35
     17.0419	  121.00	  109.22	 -344.72	  105.96
     17.0753	  103.00	  108.87	 -362.37	  105.57
     17.1087	  105.00	  108.52	 -360.02	  105.19
     17.1422	  121.00	  108.18	 -343.68	  104.80
     17.1756	  112.00	  107.84	 -352.33	  104.41
     17.2090	  115.00	  107.50	 -349.00	  104.02
     17.2424	  122.00	  107.17	 -341.67	  103.63
     17.2758	  119.00	  106.84	 -344.34	  103.24
     17.3093	  110.00	  106.52	 -353.02	  102.85
     17.3427	  110.00	  106.21	 -352.71	  102.46
     17.3761	  111.00	  105.91	 -351.41	  102.07
     17.4095	  103.00	  105.62	 -359.11	  101.68
     17.4430	   87.00	  105.34	 -374.83	  101.29
     17.4764	  119.00	  105.07	 -342.57	  100.90
     17.5098	  141.00	  104.82	 -320.31	  100.51
     17.5432	  119.00	  104.58	 -342.08	  100.12
     17.5766	  111.00	  104.37	 -349.87	   99.73
     17.6101	   95.00	  104.19	 -365.69	   99.34
     17.6435	  119.00	  104.04	 -341.54	   98.95
     17.6769	  116.00	  103.93	 -344.43	   98.56
     17.7103	  105.00	  103.87	 -355.37	   98.18
     17.7438	  109.00	  103.87	 -351.36	   97.79
     17.7772	  108.00	  103.94	 -352.44	   97.40
     17.8106	  125.00	  104.12	 -335.62	   97.01
     17.8440	  103.00	  104.42	 -357.92	   96.62
     17.8774	   92.00	  104.90	 -369.39	   96.23
     17.9109	  100.00	  105.60	 -362.10	   95.84
     17.9443	  103.00	  106.63	 -360.13	   95.45
     17.9777	  122.00	  108.17	 -342.67	   95.06
     18.0111	   97.00	  110.53	 -370.03	   94.67
     18.0446	  116.00	  114.29	 -354.79	   94.28
     18.0780	  109.00	  120.41	 -367.91	   93.89
     18.1114	  125.00	  130.23	 -361.73	   93.50
     18.1448	  131.00	  145.22	 -370.72	   93.11
     18.1783	  158.00	  166.21	 -364.71	   92.72
     18.2117	  158.00	  191.48	 -389.98	   92.33
     18.2451	  149.00	  213.51	 -421.00	   91.94
     18.2785	  192.00	  220.40	 -384.90	   91.56
     18.3119	  198.00	  208.05	 -366.54	   91.17
     18.3454	  179.00	  184.10	 -361.59	   90.78
     18.3788	  167.00	  158.99	 -348.49	   90.39
     18.4122	  129.00	  138.59	 -366.09	   90.00
     18.4456	  113.00	  124.02	 -367.51	   89.61
     18.4791	  106.00	  114.28	 -364.78	   89.22
     18.5125	  106.00	  107.92	 -358.42	   88.83
     18.5459	  108.00	  103.70	 -352.20	   88.44
     18.5793	  109.00	  100.74	 -348.24	   88.05
     18.6127	  100.00	   98.54	 -355.04	   87.66
     18.6462	  105.00	   96.80	 -348.29	   87.27
     18.6796	   91.00	   95.36	 -360.86	   86.88
     18.7130	  100.00	   94.15	 -350.65	   86.49
     18.7464	   89.00	   93.09	 -360.59	   86.10
     18.7799	   92.00	   92.21	 -356.70	   85.76
     18.8133	   91.00	   91.50	 -356.99	   85.50
     18.8467	   94.00	   90.86	 -353.35	   85.23
     18.8801	  105.00	   90.28	 -341.77	   84.97
     18.9135	  100.00	   89.75	 -346.24	   84.71
     18.9470	   96.00	   89.25	 -349.75	   84.45
     18.9804	  103.00	   88.79	 -342.29	   84.18
     19.0138	   83.00	   88.35	 -361.85	   83.92
     19.0472	   85.00	   87.94	 -359.43	   83.66
     19.0807	   81.00	   87.54	 -363.04	   83.40
     19.1141	   86.00	   87.16	 -357.66	   83.14
     19.1475	  106.00	   86.79	 -337.29	   82.87
     19.1809	   92.00	   86.43	 -350.93	   82.61
     19.2144	   83.00	   86.09	 -359.58	   82.35
     19.2478	   77.00	   85.75	 -365.24	   82.09
     19.2812	   72.00	   85.42	 -369.91	   81.82
     19.3146	   77.00	   85.09	 -364.59	   81.56
     19.3480	   90.00	   84.77	 -351.27	   81.30
     19.3815	   81.00	   84.46	 -359.96	   81.04
     19.4149	   91.00	   84.15	 -349.65	   80.78
     19.4483	  103.00	   83.84	 -337.34	   80.51
     19.4817	   76.00	   83.54	 -364.04	   80.25
     19.5152	   82.00	   83.24	 -357.74	   79.99
     19.5486	   87.00	   82.95	 -352.44	   79.73
     19.5820	   86.00	   82.65	 -353.15	   79.46
     19.6154	   89.00	   82.36	 -349.86	   79.20
     19.6488	   83.00	   82.07	 -355.57	   78.94
     19.6823	   70.00	   81.78	 -368.28	   78.68
     19.7157	   74.00	   81.50	 -364.00	   78.42
     19.7491	   70.00	   81.21	 -367.71	   78.15
     19.7825	   74.00	   80.93	 -363.43	   77.89
     19.8160	   94.00	   80.65	 -343.15	   77.63
     19.8494	   75.00	   80.37	 -361.87	   77.37
     19.8828	   96.00	   80.09	 -340.59	   77.10
     19.9162	   97.00	   79.81	 -339.31	   76.84
     19.9496	   97.00	   79.54	 -339.03	   76.58
     19.9831	   83.00	   79.26	 -352.76	   76.32
     20.0165	   84.00	   78.99	 -351.48	   76.05
     20.0499	   78.00	   78.71	 -357.21	   75.79
     20.0833	   79.00	   78.44	 -355.93	   75.53
     20.1168	   77.00	   78.16	 -357.66	   75.27
     20.1502	   70.00	   77.89	 -364.39	   75.01
     20.1836	   76.00	   77.62	 -358.12	   74.74
     20.2170	   76.00	   77.35	 -357.84	   74.48
     20.2505	   92.00	   77.08	 -341.57	   74.22
     20.2839	   81.00	   76.80	 -352.30	   73.96
     20.3173	   65.00	   76.53	 -368.03	   73.69
     20.3507	   87.00	   76.26	 -345.76	   73.43
     20.3841	   88.00	   75.99	 -344.49	   73.17
     20.4176	   72.00	   75.72	 -360.22	   72.91
     20.4510	   70.00	   75.46	 -361.95	   72.65
     20.4844	   95.00	   75.19	 -336.68	   72.38
     20.5178	   78.00	   74.92	 -353.42	   72.12
     20.5513	   70.00	   74.65	 -361.15	   71.86
     20.5847	   78.00	   74.38	 -352.88	   71.60
     20.6181	   75.00	   74.12	 -355.61	   71.33
     20.6515	   90.00	   73.85	 -340.35	   71.07
     20.6849	   79.00	   73.58	 -351.08	   70.81
     20.7184	   74.00	   73.31	 -355.81	   70.55
     20.7518	   82.00	   73.05	 -347.54	   70.29
     20.7852	   66.00	   72.78	 -363.28	   70.02
     20.8186	   74.00	   72.51	 -355.01	   69.76
     20.8521	   68.00	   72.25	 -360.74	   69.50
     20.8855	   76.00	   71.98	 -352.48	   69.24
     20.9189	   81.00	   71.72	 -347.21	   68.97
     20.9523	   52.00	   71.45	 -375.95	   68.71
     20.9857	   59.00	   71.18	 -368.68	   68.45
     21.0192	   79.00	   70.92	 -348.42	   68.19
     21.0526	   91.00	   70.65	 -336.15	   67.93
     21.0860	   72.00	   70.39	 -354.88	   67.66
     21.1194	   81.00	   70.12	 -345.62	   67.40
     21.1529	   74.00	   69.86	 -352.35	   67.14
     21.1863	   66.00	   69.67	 -360.17	   66.95
     21.2197	   69.00	   69.49	 -356.99	   66.78
     21.2531	   77.00	   69.31	 -348.81	   66.60
     21.2865	   68.00	   69.13	 -357.63	   66.42
     21.3200	   84.00	   68.95	 -341.45	   66.25
     21.3534	   74.00	   68.77	 -351.27	   66.07
     21.3868	   66.00	   68.59	 -359.09	   65.89
     21.4202	   63.00	   68.41	 -361.91	   65.71
     21.4537	   61.00	   68.23	 -363.73	   65.54
     21.4871	   84.00	   68.05	 -340.55	   65.36
     21.5205	   64.00	   67.88	 -360.37	   65.18
     21.5539	   81.00	   67.70	 -343.19	   65.01
     21.5874	   78.00	   67.52	 -346.02	   64.83
     21.6208	   66.00	   67.34	 -357.84	   64.65
     21.6542	   77.00	   67.16	 -346.66	   64.47
     21.6876	   74.00	   66.98	 -349.48	   64.30
     21.7210	   81.00	   66.80	 -342.30	   64.12
     21.7545	   81.00	   66.62	 -342.12	   63.94
     21.7879	   74.00	   66.44	 -348.94	   63.77
     21.8213	   78.00	   66.27	 -344.76	   63.59
     21.8547	   65.00	   66.09	 -357.59	   63.41
     21.8882	   59.00	   65.91	 -363.41	   63.24
     21.9216	   82.00	   65.73	 -340.23	   63.06
     21.9550	   69.00	   65.55	 -353.05	   62.88
     21.9884	   75.00	   65.37	 -346.87	   62.70
     22.0218	   58.00	   65.20	 -363.69	   62.53
     22.0553	   73.00	   65.02	 -348.51	   62.35
     22.0887	   58.00	   64.84	 -363.34	   62.17
     22.1221	   74.00	   64.66	 -347.16	   62.00
     22.1555	   72.00	   64.44	 -348.94	   61.82
     22.1890	   72.00	   64.24	 -348.74	   61.64
     22.2224	   76.00	   64.06	 -344.56	   61.46
     22.2558	   75.00	   63.88	 -345.38	   61.29
     22.2892	   59.00	   63.71	 -361.20	   61.11
     22.3226	   61.00	   63.53	 -359.03	   60.93
     22.3561	   59.00	   63.35	 -360.85	   60.76
     22.3895	   58.00	   63.18	 -361.67	   60.58
     22.4229	   63.00	   63.00	 -356.50	   60.40
     22.4563	   74.00	   62.82	 -345.32	   60.23
     22.4898	   65.00	   62.64	 -354.14	   60.05
     22.5232	   60.00	   62.47	 -358.96	   59.87
     22.5566	   52.00	   62.29	 -366.79	   59.69
     22.5900	   71.00	   62.11	 -347.61	   59.52
     22.6234	   52.00	   61.94	 -366.43	   59.34
     22.6569	   65.00	   61.76	 -353.26	   59.16
     22.6903	   75.00	   61.58	 -343.08	   58.99
     22.7237	   38.00	   61.40	 -379.90	   58.81
     22.7571	   65.00	   61.23	 -352.73	   58.63
     22.7906	   55.00	   61.05	 -362.55	   58.45
     22.8240	   58.00	   60.87	 -359.37	   58.28
     22.8574	   57.00	   60.70	 -360.19	   58.10
     22.8908	   68.00	   60.52	 -349.02	   57.92
     22.9243	   60.00	   60.34	 -356.84	   57.75
     22.9577	   63.00	   60.17	 -353.66	   57.57
     22.9911	   66.00	   59.99	 -350.49	   57.39
     23.0245	   52.00	   59.81	 -364.31	   57.22
     23.0579	   57.00	   59.63	 -359.13	   57.04
     23.0914	   62.00	   59.46	 -353.95	   56.86
     23.1248	   65.00	   59.28	 -350.78	   56.68
     23.1582	   65.00	   59.10	 -350.60	   56.51
     23.1916	   65.00	   58.93	 -350.42	   56.33
     23.2251	   59.00	   58.75	 -356.25	   56.15
     23.2585	   61.00	   58.57	 -354.07	   55.98
     23.2919	   70.00	   58.39	 -344.89	   55.80
     23.3253	   57.00	   58.22	 -357.72	   55.62
     23.3587	   52.00	   58.04	 -362.54	   55.44
     23.3922	   69.00	   57.86	 -345.36	   55.27
     23.4256	   55.00	   57.69	 -359.18	   55.09
     23.4590	   62.00	   57.51	 -352.01	   54.91
     23.4924	   64.00	   57.33	 -349.83	   54.74
     23.5259	   68.00	   57.16	 -345.65	   54.56
     23.5593	   61.00	   56.98	 -352.48	   54.38
     23.5927	   52.00	   56.80	 -361.30	   54.21
     23.6261	   74.00	   56.62	 -339.12	   54.03
     23.6595	   64.00	   56.45	 -348.94	   53.85
     23.6930	   47.00	   56.27	 -365.77	   53.67
     23.7264	   64.00	   56.09	 -348.59	   53.50
     23.7598	   48.00	   55.92	 -364.41	   53.32
     23.7932	   63.00	   55.74	 -349.24	   53.14
     23.8267	   72.00	   55.56	 -340.06	   52.97
     23.8601	   65.00	   55.38	 -346.88	   52.79
     23.8935	   50.00	   55.21	 -361.71	   52.61
     23.9269	   62.00	   55.03	 -349.53	   52.43
     23.9604	   65.00	   54.85	 -346.35	   52.26
     23.9938	   48.00	   54.68	 -363.17	   52.08
     24.0272	   59.00	   54.50	 -352.00	   51.90
     24.0606	   72.00	   54.32	 -338.82	   51.73
     24.0940	   72.00	   54.15	 -338.64	   51.55
     24.1275	   59.00	   53.97	 -351.47	   51.37
     24.1609	   47.00	   53.79	 -363.29	   51.20
     24.1943	   55.00	   53.61	 -355.11	   51.02
     24.2277	   57.00	   53.44	 -352.93	   50.84
     24.2612	   52.00	   53.26	 -357.76	   50.66
     24.2946	   58.00	   53.08	 -351.58	   50.49
     24.3280	   64.00	   52.91	 -345.40	   50.31
     24.3614	   37.00	   52.73	 -372.23	   50.13
     24.3948	   69.00	   52.55	 -340.05	   49.96
     24.4283	   45.00	   52.37	 -363.87	   49.78
     24.4617	   44.00	   52.21	 -364.71	   49.62
     24.4951	   78.00	   52.14	 -330.64	   49.54
     24.5285	   49.00	   52.06	 -359.56	   49.47
     24.5620	   56.00	   51.99	 -352.49	   49.39
     24.5954	   47.00	   51.92	 -361.41	   49.32
     24.6288	   55.00	   51.84	 -353.34	   49.25
     24.6622	   58.00	   51.77	 -350.27	   49.17
     24.6956	   57.00	   51.69	 -351.19	   49.10
     24.7291	   63.00	   51.62	 -345.12	   49.02
     24.7625	   59.00	   51.54	 -349.04	   48.95
     24.7959	   56.00	   51.47	 -351.97	   48.87
     24.8293	   51.00	   51.40	 -356.89	   48.80
     24.8628	   44.00	   51.32	 -363.82	   48.73
     24.8962	   36.00	   51.25	 -371.74	   48.65
     24.9296	   41.00	   51.17	 -366.67	   48.58
     24.9630	   58.00	   51.10	 -349.60	   48.50
     24.9964	   49.00	   51.02	 -358.52	   48.43
     25.0299	   46.00	   50.95	 -361.45	   48.35
     25.0633	   49.00	   50.88	 -358.37	   48.28
     25.0967	   50.00	   50.80	 -357.30	   48.21
     25.1301	   59.00	   50.73	 -348.22	   48.13
     25.1636	   57.00	   50.65	 -350.15	   48.06
     25.1970	   48.00	   50.58	 -359.08	   47.98
     25.2304	   48.00	   50.50	 -359.00	   47.91
     25.2638	   44.00	   50.43	 -362.93	   47.83
     25.2973	   56.00	   50.36	 -350.85	   47.76
     25.3307	   48.00	   50.28	 -358.78	   47.69
     25.3641	   50.00	   50.21	 -356.70	   47.61
     25.3975	   51.00	   50.13	 -355.63	   47.54
     25.4309	   39.00	   50.06	 -367.56	   47.46
     25.4644	   56.00	   49.98	 -350.48	   47.39
     25.4978	   60.00	   49.91	 -346.41	   47.31
     25.5312	   57.00	   49.84	 -349.33	   47.24
     25.5646	   66.00	   49.76	 -340.26	   47.17
     25.5981	   37.00	   49.69	 -369.18	   47.09
     25.6315	   48.00	   49.61	 -358.11	   47.02
     25.6649	   50.00	   49.54	 -356.04	   46.94
     25.6983	   48.00	   49.46	 -357.96	   46.87
     25.7317	   52.00	   49.39	 -353.89	   46.79
     25.7652	   57.00	   49.32	 -348.81	   46.72
     25.7986	   43.00	   49.24	 -362.74	   46.65
     25.8320	   51.00	   49.17	 -354.66	   46.57
     25.8654	   60.00	   49.09	 -345.59	   46.50
     25.8989	   48.00	   49.02	 -357.52	   46.42
     25.9323	   56.00	   48.94	 -349.44	   46.35
     25.9657	   57.00	   48.87	 -348.37	   46.27
     25.9991	   51.00	   48.80	 -354.29	   46.20
     26.0325	   51.00	   48.72	 -354.22	   46.13
     26.0660	   50.00	   48.65	 -355.14	   46.05
     26.0994	   51.00	   48.57	 -354.07	   45.98
     26.1328	   52.00	   48.50	 -353.00	   45.90
     26.1662	   34.00	   48.67	 -371.17	   45.83
     26.1997	   65.00	   48.60	 -340.10	   45.75
     26.2331	   46.00	   48.65	 -359.15	   45.68
     26.2665	   42.00	   48.58	 -363.08	   45.61
     26.2999	   47.00	   48.52	 -358.01	   45.53
     26.3334	   55.00	   48.45	 -349.95	   45.46
     26.3668	   44.00	   48.38	 -360.88	   45.38
     26.4002	   50.00	   48.31	 -354.81	   45.31
     26.4336	   46.00	   48.25	 -358.74	   45.23
     26.4670	   46.00	   48.18	 -358.68	   45.16
     26.5005	   51.00	   48.11	 -353.61	   45.09
     26.5339	   42.00	   48.05	 -362.55	   45.01
     26.5673	   48.00	   47.98	 -356.48	   44.94
     26.6007	   28.00	   47.92	 -376.41	   44.86
     26.6342	   38.00	   47.85	 -366.35	   44.79
     26.6676	   46.00	   47.79	 -358.28	   44.71
     26.7010	   51.00	   47.72	 -353.22	   44.64
     26.7344	   44.00	   47.66	 -360.15	   44.56
     26.7678	   61.00	   47.59	 -343.09	   44.49
     26.8013	   58.00	   47.53	 -346.03	   44.42
     26.8347	   37.00	   47.46	 -366.96	   44.34
     26.8681	   52.00	   47.40	 -351.90	   44.27
     26.9015	   57.00	   47.34	 -346.84	   44.19
     26.9350	   46.00	   47.28	 -357.77	   44.12
     26.9684	   47.00	   47.21	 -356.71	   44.04
     27.0018	   50.00	   47.15	 -353.65	   43.97
     27.0352	   48.00	   47.09	 -355.59	   43.90
     27.0686	   52.00	   47.03	 -351.53	   43.82
     27.1021	   43.00	   46.97	 -360.47	   43.75
     27.1355	   43.00	   46.91	 -360.41	   43.67
     27.1689	   42.00	   46.85	 -361.35	   43.60
     27.2023	   41.00	   46.79	 -362.29	   43.52
     27.2358	   46.00	   46.73	 -357.23	   43.45
     27.2692	   60.00	   46.67	 -343.17	   43.38
     27.3026	   37.00	   46.62	 -366.11	   43.30
     27.3360	   41.00	   46.56	 -362.06	   43.23
     27.3694	   47.00	   46.50	 -356.00	   43.15
     27.4029	   47.00	   46.45	 -355.95	   43.08
     27.4363	   51.00	   46.39	 -351.89	   43.00
     27.4697	   44.00	   46.34	 -358.84	   42.93
     27.5031	   54.00	   46.29	 -348.78	   42.86
     27.5366	   54.00	   46.24	 -348.73	   42.78
     27.5700	   38.00	   46.17	 -364.67	   42.69
     27.6034	   38.00	   46.10	 -364.60	   42.60
     27.6368	   56.00	   46.03	 -346.53	   42.51
     27.6703	   44.00	   45.97	 -358.46	   42.42
     27.7037	   56.00	   45.90	 -346.40	   42.32
     27.7371	   43.00	   45.84	 -359.33	   42.23
     27.7705	   34.00	   45.77	 -368.27	   42.14
     27.8039	   33.00	   45.71	 -369.21	   42.04
     27.8374	   43.00	   45.65	 -359.15	   41.95
     27.8708	   48.00	   45.59	 -354.09	   41.86
     27.9042	   46.00	   45.53	 -356.03	   41.77
     27.9376	   70.00	   45.48	 -331.97	   41.67
     27.9711	   29.00	   45.42	 -372.92	   41.58
     28.0045	   49.00	   45.37	 -352.87	   41.49
     28.0379	   59.00	   45.32	 -342.82	   41.39
     28.0713	   36.00	   45.27	 -365.77	   41.30
     28.1047	   45.00	   45.23	 -356.72	   41.21
     28.1382	   44.00	   45.18	 -357.68	   41.12
     28.1716	   35.00	   45.14	 -366.64	   41.02
     28.2050	   56.00	   45.10	 -345.60	   40.93
     28.2384	   36.00	   45.07	 -365.56	   40.84
     28.2719	   37.00	   45.04	 -364.53	   40.74
     28.3053	   44.00	   45.01	 -357.50	   40.65
     28.3387	   45.00	   44.98	 -356.48	   40.56
     28.3721	   47.00	   44.96	 -354.46	   40.47
     28.4055	   41.00	   44.95	 -360.44	   40.37
     28.4390	   51.00	   44.93	 -350.43	   40.28
     28.4724	   45.00	   44.93	 -356.42	   40.19
     28.5058	   44.00	   44.93	 -357.42	   40.09
     28.5392	   51.00	   44.93	 -350.43	   40.00
     28.5727	   46.00	   44.94	 -355.44	   39.91
     28.6061	   55.00	   44.96	 -346.46	   39.82
     28.6395	   43.00	   44.99	 -358.48	   39.72
     28.6729	   47.00	   45.02	 -354.52	   39.63
     28.7064	   39.00	   45.07	 -362.56	   39.54
     28.7398	   41.00	   45.12	 -360.62	   39.44
     28.7732	   41.00	   45.19	 -360.68	   39.35
     28.8066	   49.00	   45.27	 -352.76	   39.26
     28.8400	   45.00	   45.36	 -356.86	   39.17
     28.8735	   42.00	   45.47	 -359.96	   39.07
     28.9069	   49.00	   45.59	 -353.09	   38.98
     28.9403	   56.00	   45.74	 -346.23	   38.89
     28.9737	   61.00	   45.90	 -341.40	   38.79
     29.0072	   54.00	   46.09	 -348.59	   38.70
     29.0406	   51.00	   46.31	 -351.81	   38.61
     29.0740	   66.00	   46.56	 -337.06	   38.51
     29.1074	   45.00	   46.85	 -358.34	   38.42
     29.1408	   60.00	   47.17	 -343.67	   38.33
     29.1743	   58.00	   47.54	 -346.04	   38.24
     29.2077	   47.00	   47.97	 -357.47	   38.14
     29.2411	   54.00	   48.46	 -350.95	   38.05
     29.2745	   51.00	   49.02	 -354.51	   37.96
     29.3080	   43.00	   49.66	 -363.16	   37.86
     29.3414	   47.00	   50.41	 -359.90	   37.77
     29.3748	   55.00	   51.27	 -352.77	   37.68
     29.4082	   42.00	   52.27	 -366.77	   37.59
     29.4416	   55.00	   53.45	 -354.95	   37.49
     29.4751	   60.00	   54.84	 -351.33	   37.40
     29.5085	   55.00	   56.48	 -357.97	   37.31
     29.5419	   58.00	   58.43	 -356.93	   37.21
     29.5753	   46.00	   60.79	 -371.29	   37.12
     29.6088	   49.00	   63.66	 -371.16	   37.03
     29.6422	   66.00	   67.19	 -357.69	   36.94
     29.6756	   73.00	   71.62	 -355.11	   36.84
     29.7090	   75.00	   77.29	 -358.78	   36.75
     29.7425	   81.00	   84.76	 -360.26	   36.66
     29.7759	   92.00	   94.96	 -359.45	   36.56
     29.8093	   97.00	  109.26	 -368.76	   36.47
     29.8427	  141.00	  129.69	 -345.18	   36.38
     29.8761	  169.00	  158.82	 -346.31	   36.29
     29.9096	  193.00	  199.50	 -363.00	   36.19
     29.9430	  261.00	  253.94	 -349.44	   36.10
     29.9764	  347.00	  321.15	 -330.65	   36.01
     30.0098	  383.00	  392.03	 -365.53	   35.91
     30.0433	  420.00	  445.73	 -382.23	   35.82
     30.0767	  423.00	  461.32	 -394.82	   35.73
     30.1101	  417.00	  436.66	 -376.16	   35.64
     30.1435	  383.00	  383.47	 -356.97	   35.54
     30.1769	  329.00	  316.99	 -344.49	   35.45
     30.2104	  250.00	  252.52	 -359.01	   35.36
     30.2438	  198.00	  199.05	 -357.55	   35.26
     30.2772	  156.00	  158.50	 -359.00	   35.17
     30.3106	  119.00	  129.17	 -366.66	   35.08
     30.3441	  122.00	  108.40	 -342.90	   34.99
     30.3775	   95.00	   93.72	 -355.22	   34.89
     30.4109	   74.00	   83.19	 -365.69	   34.80
     30.4443	   64.00	   75.41	 -367.91	   34.71
     30.4777	   66.00	   69.49	 -359.99	   34.61
     30.5112	   57.00	   64.84	 -364.34	   34.52
     30.5446	   71.00	   61.10	 -346.60	   34.43
     30.5780	   60.00	   58.04	 -354.53	   34.34
     30.6114	   57.00	   55.48	 -354.98	   34.24
     30.6449	   41.00	   53.33	 -368.83	   34.15
     30.6783	   55.00	   51.50	 -353.00	   34.06
     30.7117	   45.00	   49.93	 -361.43	   33.96
     30.7451	   56.00	   48.57	 -349.06	   33.87
     30.7785	   33.00	   47.37	 -370.87	   33.78
     30.8120	   51.00	   46.32	 -351.82	   33.69
     30.8454	   50.00	   45.39	 -351.89	   33.59
     30.8788	   48.00	   44.56	 -353.06	   33.50
     30.9122	   27.00	   43.82	 -373.31	   33.41
     30.9457	   39.00	   43.15	 -360.65	   33.32
     30.9791	   46.00	   42.55	 -353.04	   33.24
     31.0125	   43.00	   42.00	 -355.50	   33.15
     31.0459	   29.00	   41.50	 -368.99	   33.07
     31.0794	   38.00	   41.03	 -359.53	   32.99
     31.1128	   43.00	   40.61	 -354.10	   32.90
     31.1462	   39.00	   40.21	 -357.71	   32.82
     31.1796	   36.00	   39.84	 -360.34	   32.73
     31.2130	   42.00	   39.50	 -354.00	   32.65
     31.2465	   43.00	   39.18	 -352.68	   32.57
     31.2799	   33.00	   38.88	 -362.38	   32.48
     31.3133	   47.00	   38.59	 -348.09	   32.40
     31.3467	   42.00	   38.32	 -352.82	   32.32
     31.3802	   43.00	   38.07	 -351.57	   32.23
     31.4136	   35.00	   37.83	 -359.32	   32.15
     31.4470	   33.00	   37.59	 -361.09	   32.06
     31.4804	   45.00	   38.34	 -349.84	   31.98
     31.5138	   37.00	   38.15	 -357.65	   31.90
     31.5473	   31.00	   37.96	 -363.46	   31.81
     31.5807	   44.00	   38.27	 -350.77	   31.73
     31.6141	   41.00	   38.11	 -353.61	   31.64
     31.6475	   35.00	   37.95	 -359.45	   31.56
     31.6810	   46.00	   37.81	 -348.30	   31.48
     31.7144	   43.00	   37.67	 -351.16	   31.39
     31.7478	   32.00	   37.53	 -362.03	   31.31
     31.7812	   39.00	   37.40	 -354.90	   31.23
     31.8146	   49.00	   37.28	 -344.77	   31.14
     31.8481	   42.00	   37.16	 -351.65	   31.06
     31.8815	   39.00	   37.04	 -354.54	   30.97
     31.9149	   50.00	   36.93	 -343.43	   30.89
     31.9483	   43.00	   36.82	 -350.32	   30.81
     31.9818	   47.00	   36.72	 -346.22	   30.72
     32.0152	   38.00	   36.62	 -355.12	   30.64
     32.0486	   52.00	   36.53	 -341.02	   30.56
     32.0820	   29.00	   36.43	 -363.93	   30.47
     32.1154	   37.00	   36.35	 -355.84	   30.39
     32.1489	   41.00	   36.26	 -351.76	   30.30
     32.1823	   35.00	   36.18	 -357.68	   30.22
     32.2157	   42.00	   36.10	 -350.60	   30.14
     32.2491	   37.00	   36.03	 -355.53	   30.05
     32.2826	   48.00	   35.96	 -344.45	   29.97
     32.3160	   34.00	   35.89	 -358.38	   29.88
     32.3494	   25.00	   35.82	 -367.32	   29.80
     32.3828	   31.00	   35.76	 -361.26	   29.72
     32.4163	   35.00	   35.70	 -357.20	   29.63
     32.4497	   38.00	   35.64	 -354.14	   29.55
     32.4831	   36.00	   35.59	 -356.09	   29.47
     32.5165	   32.00	   35.54	 -360.04	   29.38
     32.5499	   39.00	   35.49	 -352.99	   29.30
     32.5834	   39.00	   35.45	 -352.94	   29.21
     32.6168	   39.00	   35.41	 -352.90	   29.13
     32.6502	   23.00	   35.37	 -368.86	   29.05
     32.6836	   35.00	   35.33	 -356.83	   28.96
     32.7171	   24.00	   35.30	 -367.80	   28.88
     32.7505	   27.00	   35.27	 -364.77	   28.79
     32.7839	   23.00	   35.25	 -368.75	   28.71
     32.8173	   33.00	   35.23	 -358.73	   28.63
     32.8507	   30.00	   35.21	 -361.71	   28.54
     32.8842	   34.00	   35.20	 -357.70	   28.46
     32.9176	   27.00	   35.19	 -364.69	   28.38
     32.9510	   44.00	   35.19	 -347.69	   28.29
     32.9844	   27.00	   35.19	 -364.69	   28.21
     33.0179	   33.00	   35.20	 -358.69	   28.12
     33.0513	   29.00	   35.21	 -362.70	   28.04
     33.0847	   36.00	   35.30	 -355.80	   27.96
     33.1181	   37.00	   35.32	 -354.82	   27.87
     33.1516	   42.00	   35.35	 -349.85	   27.79
     33.1850	   48.00	   35.42	 -343.92	   27.70
     33.2184	   44.00	   35.46	 -347.96	   27.62
     33.2518	   37.00	   35.51	 -355.01	   27.54
     33.2852	   28.00	   35.56	 -364.06	   27.45
     33.3187	   37.00	   35.63	 -355.12	   27.37
     33.3521	   31.00	   35.69	 -361.19	   27.29
     33.3855	   36.00	   35.77	 -356.27	   27.20
     33.4189	   17.00	   35.86	 -375.36	   27.12
     33.4524	   30.00	   35.96	 -362.45	   27.03
     33.4858	   35.00	   36.06	 -357.56	   26.95
     33.5192	   30.00	   36.18	 -362.68	   26.87
     33.5526	   41.00	   36.31	 -351.80	   26.78
     33.5860	   32.00	   36.45	 -360.95	   26.70
     33.6195	   46.00	   36.60	 -347.10	   26.62
     33.6529	   36.00	   36.77	 -357.27	   26.53
     33.6863	   36.00	   36.98	 -357.48	   26.48
     33.7197	   32.00	   37.22	 -361.71	   26.43
     33.7532	   37.00	   37.47	 -356.97	   26.38
     33.7866	   42.00	   37.74	 -352.24	   26.33
     33.8200	   39.00	   38.03	 -355.53	   26.28
     33.8534	   57.00	   38.34	 -337.84	   26.23
     33.8868	   48.00	   38.68	 -347.18	   26.18
     33.9203	   36.00	   39.04	 -359.54	   26.13
     33.9537	   46.00	   39.44	 -349.93	   26.08
     33.9871	   38.00	   39.62	 -358.12	   26.03
     34.0205	   48.00	   40.08	 -348.58	   25.98
     34.0540	   50.00	   40.46	 -346.96	   25.93
     34.0874	   49.00	   41.00	 -348.50	   25.88
     34.1208	   50.00	   41.59	 -348.09	   25.83
     34.1542	   58.00	   42.23	 -340.72	   25.78
     34.1876	   61.00	   42.92	 -338.42	   25.73
     34.2211	   58.00	   43.67	 -342.17	   25.69
     34.2545	   55.00	   44.50	 -345.99	   25.64
     34.2879	   61.00	   45.39	 -340.89	   25.59
     34.3213	   57.00	   46.38	 -345.88	   25.54
     34.3548	   59.00	   47.46	 -344.96	   25.49
     34.3882	   48.00	   48.65	 -357.14	   25.44
     34.4216	   52.00	   49.96	 -354.45	   25.39
     34.4550	   58.00	   51.41	 -349.90	   25.34
     34.4884	   65.00	   53.02	 -344.51	   25.29
     34.5219	   65.00	   54.81	 -346.31	   25.24
     34.5553	   62.00	   56.81	 -351.31	   25.19
     34.5887	   54.00	   59.05	 -361.55	   25.14
     34.6221	   66.00	   61.58	 -352.08	   25.09
     34.6556	   73.00	   64.43	 -347.93	   25.04
     34.6890	   61.00	   67.68	 -363.18	   24.99
     34.7224	   81.00	   71.38	 -346.88	   24.94
     34.7558	   91.00	   75.64	 -341.13	   24.89
     34.7893	   79.00	   80.55	 -358.05	   24.84
     34.8227	   91.00	   86.27	 -351.77	   24.79
     34.8561	   88.00	   92.96	 -361.46	   24.74
     34.8895	   89.00	  100.88	 -368.37	   24.69
     34.9229	  105.00	  110.31	 -361.81	   24.65
     34.9564	  108.00	  121.70	 -370.20	   24.60
     34.9898	  133.00	  135.63	 -359.12	   24.55
     35.0232	  144.00	  152.98	 -365.47	   24.50
     35.0566	  144.00	  175.09	 -387.59	   24.45
     35.0901	  196.00	  204.02	 -364.52	   24.40
     35.1235	  248.00	  242.84	 -351.34	   24.35
     35.1569	  294.00	  296.00	 -358.50	   24.30
     35.1903	  394.00	  369.40	 -331.90	   24.25
     35.2237	  483.00	  470.21	 -343.70	   24.20
     35.2572	  608.00	  605.75	 -354.25	   24.15
     35.2906	  837.00	  780.65	 -300.14	   24.10
     35.3240	 1012.00	  989.72	 -334.21	   24.05
     35.3574	 1190.00	 1204.67	 -371.17	   24.00
     35.3909	 1343.00	 1368.26	 -381.76	   23.95
     35.4243	 1365.00	 1425.99	 -417.49	   23.90
     35.4577	 1413.00	 1372.43	 -315.93	   23.85
     35.4911	 1333.00	 1236.69	 -260.19	   23.80
     35.5246	 1058.00	 1050.48	 -348.98	   23.75
     35.5580	  899.00	  850.24	 -307.74	   23.70
     35.5914	  687.00	  668.55	 -338.05	   23.65
     35.6248	  531.00	  520.86	 -346.36	   23.60
     35.6582	  395.00	  408.00	 -369.49	   23.56
     35.6917	  316.00	  324.53	 -365.03	   23.51
     35.7251	  246.00	  263.61	 -374.11	   23.46
     35.7585	  218.00	  219.08	 -357.57	   23.41
     35.7919	  203.00	  186.12	 -339.62	   23.36
     35.8254	  154.00	  161.21	 -363.71	   23.31
     35.8588	  155.00	  141.91	 -343.41	   23.26
     35.8922	  108.00	  126.60	 -375.09	   23.21
     35.9256	  109.00	  114.20	 -361.70	   23.16
     35.9590	   88.00	  104.00	 -372.50	   23.11
     35.9925	   95.00	   95.51	 -357.00	   23.06
     36.0259	   96.00	   88.36	 -348.85	   23.01
     36.0593	   71.00	   82.29	 -367.79	   22.96
     36.0927	   81.00	   77.10	 -352.60	   22.91
     36.1262	   58.00	   72.64	 -371.14	   22.86
     36.1596	   55.00	   68.79	 -370.29	   22.81
     36.1930	   52.00	   65.45	 -369.95	   22.76
     36.2264	   58.00	   62.55	 -361.04	   22.71
     36.2598	   48.00	   60.02	 -368.52	   22.66
     36.2933	   45.00	   57.82	 -369.31	   22.61
     36.3267	   55.00	   55.91	 -357.40	   22.56
     36.3601	   45.00	   54.25	 -365.75	   22.52
     36.3935	   61.00	   52.84	 -348.34	   22.47
     36.4270	   30.00	   51.65	 -378.15	   22.42
     36.4604	   44.00	   50.67	 -363.17	   22.37
     36.4938	   56.00	   49.91	 -350.40	   22.32
     36.5272	   43.00	   49.35	 -362.85	   22.27
     36.5606	   38.00	   49.03	 -367.53	   22.22
     36.5941	   45.00	   48.96	 -360.46	   22.17
     36.6275	   50.00	   49.19	 -355.69	   22.12
     36.6609	   52.00	   49.78	 -354.28	   22.07
     36.6943	   55.00	   50.85	 -352.35	   22.02
     36.7278	   43.00	   52.56	 -366.06	   21.97
     36.7612	   59.00	   55.16	 -352.66	   21.92
     36.7946	   59.00	   59.00	 -356.50	   21.87
     36.8280	   66.00	   64.54	 -355.04	   21.82
     36.8615	   77.00	   72.30	 -351.80	   21.77
     36.8949	   59.00	   82.77	 -380.27	   21.72
     36.9283	   99.00	   96.17	 -353.67	   21.67
     36.9617	  118.00	  111.76	 -350.26	   21.62
     36.9951	  111.00	  126.98	 -372.48	   21.57
     37.0286	  138.00	  137.40	 -355.90	   21.52
     37.0620	  138.00	  139.70	 -358.20	   21.47
     37.0954	  115.00	  134.25	 -375.75	   21.43
     37.1288	  106.00	  123.28	 -373.78	   21.38
     37.1623	  112.00	  108.92	 -353.42	   21.33
     37.1957	   91.00	   93.69	 -359.19	   21.28
     37.2291	   72.00	   79.88	 -364.38	   21.23
     37.2625	   61.00	   68.55	 -364.05	   21.18
     37.2959	   50.00	   59.77	 -366.27	   21.13
     37.3294	   43.00	   53.16	 -366.66	   21.08
     37.3628	   39.00	   48.22	 -365.72	   21.03
     37.3962	   37.00	   44.53	 -364.03	   20.98
     37.4296	   42.00	   41.72	 -356.22	   20.93
     37.4631	   32.00	   39.54	 -364.03	   20.88
     37.4965	   33.00	   37.79	 -361.29	   20.83
     37.5299	   32.00	   36.37	 -360.87	   20.78
     37.5633	   27.00	   35.18	 -364.68	   20.73
     37.5967	   31.00	   34.17	 -359.67	   20.68
     37.6302	   31.00	   33.30	 -358.80	   20.63
     37.6636	   31.00	   32.55	 -358.04	   20.58
     37.6970	   35.00	   31.88	 -353.38	   20.53
     37.7304	   38.00	   31.29	 -349.78	   20.48
     37.7639	   29.00	   30.76	 -358.25	   20.43
     37.7973	   37.00	   30.28	 -349.77	   20.39
     37.8307	   28.00	   29.84	 -358.34	   20.34
     37.8641	   32.00	   29.44	 -353.94	   20.29
     37.8975	   29.00	   29.10	 -356.60	   20.26
     37.9310	   28.00	   28.79	 -357.28	   20.24
     37.9644	   28.00	   28.50	 -357.00	   20.21
     37.9978	   19.00	   28.23	 -365.73	   20.19
     38.0312	   34.00	   27.99	 -350.48	   20.17
     38.0647	   36.00	   27.76	 -348.25	   20.14
     38.0981	   31.00	   27.54	 -353.04	   20.12
     38.1315	   35.00	   27.34	 -348.84	   20.10
     38.1649	   28.00	   27.15	 -355.64	   20.08
     38.1983	   35.00	   26.97	 -348.46	   20.05
     38.2318	   28.00	   26.80	 -355.29	   20.03
     38.2652	   32.00	   26.64	 -351.13	   20.01
     38.2986	   34.00	   26.48	 -348.98	   19.98
     38.3320	   48.00	   26.34	 -334.83	   19.96
     38.3655	   36.00	   26.20	 -346.69	   19.94
     38.3989	   42.00	   26.06	 -340.56	   19.92
     38.4323	   33.00	   25.94	 -349.43	   19.89
     38.4657	   39.00	   25.81	 -343.31	   19.87
     38.4992	   34.00	   25.70	 -348.19	   19.85
     38.5326	   18.00	   25.58	 -364.08	   19.82
     38.5660	   32.00	   25.47	 -349.97	   19.80
     38.5994	   25.00	   25.37	 -356.87	   19.78
     38.6328	   24.00	   25.27	 -357.76	   19.76
     38.6663	   18.00	   25.17	 -363.67	   19.73
     38.6997	   35.00	   25.07	 -346.57	   19.71
     38.7331	   25.00	   24.98	 -356.48	   19.69
     38.7665	   37.00	   24.89	 -344.39	   19.66
     38.8000	   27.00	   24.81	 -354.31	   19.64
     38.8334	   28.00	   24.72	 -353.22	   19.62
     38.8668	   20.00	   24.64	 -361.14	   19.60
     38.9002	   33.00	   24.56	 -348.06	   19.57
     38.9336	   17.00	   24.49	 -363.98	   19.55
     38.9671	   25.00	   24.41	 -355.91	   19.53
     39.0005	   37.00	   24.34	 -343.84	   19.50
     39.0339	   22.00	   24.49	 -358.99	   19.48
     39.0673	   19.00	   24.43	 -361.92	   19.46
     39.1008	   18.00	   24.36	 -362.86	   19.44
     39.1342	   21.00	   24.41	 -359.91	   19.41
     39.1676	   28.00	   24.35	 -352.85	   19.39
     39.2010	   29.00	   24.30	 -351.79	   19.37
     39.2345	   31.00	   24.24	 -349.74	   19.34
     39.2679	   27.00	   24.18	 -353.68	   19.32
     39.3013	    8.00	   24.13	 -372.63	   19.30
     39.3347	   21.00	   24.08	 -359.58	   19.28
     39.3681	   23.00	   23.08	 -356.58	   19.25
     39.4016	   17.00	   23.05	 -362.54	   19.23
     39.4350	   23.00	   22.54	 -356.03	   19.21
     39.4684	   20.00	   22.51	 -359.01	   19.18
     39.5018	   25.00	   22.49	 -353.99	   19.16
     39.5353	   35.00	   22.46	 -343.96	   19.14
     39.5687	   20.00	   22.44	 -358.94	   19.12
     39.6021	   11.00	   22.42	 -367.92	   19.09
     39.6355	   19.00	   22.40	 -359.90	   19.07
     39.6689	   28.00	   22.38	 -350.88	   19.05
     39.7024	   24.00	   22.36	 -354.86	   19.02
     39.7358	   11.00	   22.34	 -367.84	   19.00
     39.7692	   22.00	   22.32	 -356.82	   18.98
     39.8026	   18.00	   22.30	 -360.80	   18.95
     39.8361	   31.00	   22.28	 -347.78	   18.93
     39.8695	   19.00	   22.27	 -359.76	   18.91
     39.9029	   25.00	   22.25	 -353.75	   18.89
     39.9363	   23.00	   22.23	 -355.73	   18.86
     39.9697	   36.00	   22.22	 -342.71	   18.84
     40.0032	   18.00	   22.20	 -360.70	   18.82
     40.0366	   24.00	   22.19	 -354.68	   18.79
     40.0700	   17.00	   22.17	 -361.67	   18.77
     40.1034	   29.00	   22.16	 -349.65	   18.75
     40.1369	   15.00	   22.14	 -363.64	   18.73
     40.1703	   24.00	   22.13	 -354.63	   18.70
     40.2037	   28.00	   22.12	 -350.62	   18.68
     40.2371	   14.00	   22.11	 -364.61	   18.66
     40.2705	   18.00	   22.10	 -360.60	   18.63
     40.3040	   22.00	   22.09	 -356.59	   18.61
     40.3374	   19.00	   22.08	 -359.58	   18.59
     40.3708	   21.00	   22.07	 -357.57	   18.57
     40.4042	   20.00	   22.06	 -358.56	   18.54
     40.4377	   20.00	   22.06	 -358.56	   18.52
     40.4711	   15.00	   22.05	 -363.55	   18.50
     40.5045	   20.00	   22.05	 -358.54	   18.47
     40.5379	   22.00	   22.04	 -356.54	   18.45
     40.5714	   24.00	   22.04	 -354.54	   18.43
     40.6048	   23.00	   22.04	 -355.54	   18.41
     40.6382	   18.00	   22.04	 -360.53	   18.38
     40.6716	   30.00	   22.04	 -348.54	   18.36
     40.7050	   19.00	   22.04	 -359.54	   18.34
     40.7385	   20.00	   22.04	 -358.54	   18.31
     40.7719	   25.00	   22.05	 -353.54	   18.29
     40.8053	   20.00	   22.05	 -358.55	   18.27
     40.8387	   22.00	   22.06	 -356.55	   18.25
     40.8722	   28.00	   22.07	 -350.56	   18.22
     40.9056	   22.00	   22.08	 -356.57	   18.20
     40.9390	   32.00	   22.09	 -346.58	   18.18
     40.9724	   18.00	   22.10	 -360.60	   18.15
     41.0058	   19.00	   22.04	 -359.54	   18.13
     41.0393	   17.00	   22.06	 -361.55	   18.11
     41.0727	   29.00	   22.08	 -349.58	   18.09
     41.1061	   21.00	   22.06	 -357.56	   18.06
     41.1395	   25.00	   22.09	 -353.59	   18.04
     41.1730	   30.00	   22.12	 -348.61	   18.02
     41.2064	   20.00	   22.15	 -358.65	   17.99
     41.2398	   23.00	   22.18	 -355.68	   17.97
     41.2732	   24.00	   22.22	 -354.72	   17.95
     41.3066	   27.00	   22.26	 -351.76	   17.93
     41.3401	   37.00	   22.31	 -341.80	   17.90
     41.3735	   33.00	   22.36	 -345.85	   17.88
     41.4069	   30.00	   22.41	 -348.91	   17.86
     41.4403	   27.00	   22.47	 -351.96	   17.83
     41.4738	   23.00	   22.53	 -356.03	   17.81
     41.5072	   25.00	   22.60	 -354.10	   17.79
     41.5406	   31.00	   22.67	 -348.17	   17.77
     41.5740	   21.00	   22.76	 -358.25	   17.75
     41.6075	   23.00	   22.85	 -356.34	   17.72
     41.6409	   35.00	   22.95	 -344.44	   17.70
     41.6743	   25.00	   23.05	 -354.55	   17.68
     41.7077	   27.00	   23.17	 -352.67	   17.66
     41.7411	   25.00	   23.29	 -354.79	   17.64
     41.7746	   25.00	   23.43	 -354.93	   17.62
     41.8080	   22.00	   23.58	 -358.08	   17.60
     41.8414	   18.00	   23.75	 -362.24	   17.58
     41.8748	   23.00	   23.93	 -357.42	   17.55
     41.9083	   25.00	   24.12	 -355.62	   17.53
     41.9417	   38.00	   24.34	 -342.84	   17.51
     41.9751	   31.00	   24.58	 -350.08	   17.49
     42.0085	   20.00	   24.85	 -361.34	   17.47
     42.0419	   33.00	   25.14	 -348.63	   17.45
     42.0754	   31.00	   25.46	 -350.96	   17.43
     42.1088	   31.00	   25.82	 -351.32	   17.41
     42.1422	   22.00	   26.22	 -360.72	   17.38
     42.1756	   27.00	   26.67	 -356.16	   17.36
     42.2091	   32.00	   27.17	 -351.67	   17.34
     42.2425	   29.00	   27.73	 -355.23	   17.32
     42.2759	   30.00	   28.37	 -354.87	   17.30
     42.3093	   34.00	   29.10	 -351.60	   17.28
     42.3427	   31.00	   29.93	 -355.42	   17.26
     42.3762	   32.00	   30.87	 -355.37	   17.24
     42.4096	   33.00	   31.97	 -355.46	   17.22
     42.4430	   35.00	   33.23	 -354.73	   17.19
     42.4764	   36.00	   34.72	 -355.21	   17.17
     42.5099	   33.00	   36.46	 -359.96	   17.15
     42.5433	   35.00	   38.53	 -360.03	   17.13
     42.5767	   42.00	   41.03	 -355.53	   17.11
     42.6101	   47.00	   44.07	 -353.57	   17.09
     42.6435	   57.00	   47.84	 -347.34	   17.07
     42.6770	   62.00	   52.61	 -347.11	   17.05
     42.7104	   61.00	   58.76	 -354.26	   17.02
     42.7438	   76.00	   66.81	 -347.31	   17.00
     42.7772	   82.00	   77.48	 -351.98	   16.98
     42.8107	  111.00	   91.62	 -337.12	   16.96
     42.8441	  119.00	  110.25	 -347.74	   16.94
     42.8775	  171.00	  134.29	 -319.79	   16.92
     42.9109	  191.00	  164.21	 -329.70	   16.90
     42.9444	  215.00	  198.99	 -340.48	   16.88
     42.9778	  260.00	  234.53	 -331.03	   16.85
     43.0112	  301.00	  263.06	 -318.55	   16.83
     43.0446	  305.00	  276.74	 -328.23	   16.81
     43.0780	  351.00	  273.78	 -279.28	   16.79
     43.1115	  337.00	  258.02	 -277.52	   16.77
     43.1449	  237.00	  233.37	 -352.87	   16.75
     43.1783	  247.00	  202.90	 -312.40	   16.73
     43.2117	  210.00	  170.79	 -317.28	   16.71
     43.2452	  158.00	  141.17	 -339.66	   16.68
     43.2786	  130.00	  116.27	 -342.76	   16.66
     43.3120	  117.00	   96.47	 -335.96	   16.64
     43.3454	   83.00	   81.18	 -354.68	   16.62
     43.3788	   77.00	   69.54	 -349.04	   16.60
     43.4123	   71.00	   60.69	 -346.19	   16.58
     43.4457	   62.00	   53.93	 -348.43	   16.56
     43.4791	   54.00	   48.70	 -351.19	   16.54
     43.5125	   44.00	   44.57	 -357.07	   16.51
     43.5460	   35.00	   41.27	 -362.77	   16.49
     43.5794	   45.00	   38.57	 -350.07	   16.47
     43.6128	   47.00	   36.34	 -345.83	   16.45
     43.6462	   42.00	   34.46	 -348.95	   16.43
     43.6796	   28.00	   32.86	 -361.36	   16.41
     43.7131	   28.00	   31.49	 -359.99	   16.39
     43.7465	   32.00	   30.31	 -354.81	   16.37
     43.7799	   28.00	   29.28	 -357.78	   16.34
     43.8133	   36.00	   28.38	 -348.88	   16.32
     43.8468	   45.00	   27.59	 -339.09	   16.30
     43.8802	   37.00	   26.89	 -346.38	   16.28
     43.9136	   38.00	   26.26	 -344.76	   16.26
     43.9470	   25.00	   25.70	 -357.20	   16.24
     43.9804	   19.00	   25.20	 -362.69	   16.22
     44.0139	   34.00	   24.74	 -347.24	   16.20
     44.0473	   17.00	   24.33	 -363.83	   16.17
     44.0807	   35.00	   23.96	 -345.45	   16.15
     44.1141	   24.00	   23.62	 -356.11	   16.13
     44.1476	   25.00	   23.30	 -354.80	   16.11
     44.1810	   28.00	   23.02	 -351.51	   16.09
     44.2144	   31.00	   22.75	 -348.25	   16.07
     44.2478	   30.00	   22.51	 -349.00	   16.05
     44.2813	   37.00	   22.28	 -341.78	   16.03
     44.3147	   32.00	   22.07	 -346.57	   16.00
     44.3481	   25.00	   21.87	 -353.37	   15.98
     44.3815	   35.00	   21.69	 -343.19	   15.96
     44.4149	   29.00	   21.52	 -349.02	   15.94
     44.4484	   33.00	   21.36	 -344.86	   15.92
     44.4818	   21.00	   21.21	 -356.71	   15.90
     44.5152	   27.00	   21.07	 -350.57	   15.88
     44.5486	   29.00	   20.94	 -348.43	   15.86
     44.5821	   29.00	   20.81	 -348.31	   15.84
     44.6155	   21.00	   20.69	 -356.19	   15.81
     44.6489	   21.00	   20.58	 -356.07	   15.79
     44.6823	   21.00	   20.47	 -355.97	   15.77
     44.7157	    7.00	   20.37	 -369.87	   15.75
     44.7492	   27.00	   20.27	 -349.77	   15.73
     44.7826	   30.00	   20.18	 -346.68	   15.71
     44.8160	   15.00	   20.09	 -361.59	   15.69
     44.8494	   16.00	   20.00	 -360.50	   15.67
     44.8829	   18.00	   19.92	 -358.42	   15.64
     44.9163	   21.00	   19.85	 -355.34	   15.62
     44.9497	   15.00	   19.77	 -361.27	   15.60
     44.9831	   25.00	   19.70	 -351.20	   15.58
     45.0165	   24.00	   19.63	 -352.13	   15.56
     45.0500	   23.00	   19.56	 -353.06	   15.54
     45.0834	   22.00	   19.50	 -354.00	   15.52
     45.1168	   14.00	   19.44	 -361.94	   15.50
     45.1502	   21.00	   19.38	 -354.88	   15.47
     45.1837	   23.00	   19.32	 -352.82	   15.45
     45.2171	   16.00	   19.26	 -359.76	   15.43
     45.2505	   24.00	   19.21	 -351.71	   15.41
     45.2839	   22.00	   19.16	 -353.66	   15.39
     45.3174	   21.00	   19.11	 -354.61	   15.37
     45.3508	   24.00	   19.06	 -351.56	   15.35
     45.3842	   17.00	   19.01	 -358.51	   15.33
     45.4176	   29.00	   18.97	 -346.46	   15.30
     45.4510	   15.00	   18.92	 -360.42	   15.28
     45.4845	   15.00	   18.88	 -360.37	   15.26
     45.5179	   25.00	   18.84	 -350.33	   15.24
     45.5513	   20.00	   18.79	 -355.29	   15.22
     45.5847	   11.00	   18.75	 -364.25	   15.20
     45.6182	   25.00	   18.72	 -350.21	   15.18
     45.6516	   14.00	   18.68	 -361.18	   15.16
     45.6850	   28.00	   18.64	 -347.14	   15.13
     45.7184	   16.00	   18.61	 -359.11	   15.11
     45.7518	   28.00	   18.57	 -347.07	   15.09
     45.7853	   18.00	   18.54	 -357.04	   15.07
     45.8187	   15.00	   18.51	 -360.01	   15.05
     45.8521	   19.00	   18.48	 -355.98	   15.03
     45.8855	   20.00	   18.45	 -354.95	   15.01
     45.9190	   24.00	   18.42	 -350.92	   14.99
     45.9524	   23.00	   18.40	 -351.89	   14.96
     45.9858	   21.00	   18.37	 -353.87	   14.94
     46.0192	   14.00	   18.35	 -360.84	   14.92
     46.0527	   27.00	   18.32	 -347.82	   14.90
     46.0861	   18.00	   18.30	 -356.80	   14.88
     46.1195	   25.00	   18.28	 -349.78	   14.86
     46.1529	   24.00	   18.27	 -350.77	   14.84
     46.1863	   20.00	   18.25	 -354.75	   14.82
     46.2198	   16.00	   18.24	 -358.74	   14.79
     46.2532	   21.00	   18.23	 -353.73	   14.77
     46.2866	   15.00	   18.22	 -359.72	   14.75
     46.3200	   29.00	   18.22	 -345.72	   14.73
     46.3535	   18.00	   18.22	 -356.72	   14.71
     46.3869	   25.00	   18.23	 -349.72	   14.69
     46.4203	   18.00	   18.24	 -356.73	   14.67
     46.4537	   23.00	   18.26	 -351.76	   14.65
     46.4871	   21.00	   18.29	 -353.79	   14.64
     46.5206	   22.00	   18.34	 -352.84	   14.64
     46.5540	   24.00	   18.39	 -350.89	   14.63
     46.5874	   23.00	   18.46	 -351.96	   14.62
     46.6208	   18.00	   18.54	 -357.04	   14.61
     46.6543	   18.00	   18.64	 -357.14	   14.60
     46.6877	   25.00	   18.77	 -350.27	   14.59
     46.7211	   24.00	   18.93	 -351.43	   14.59
     46.7545	   18.00	   19.14	 -357.64	   14.58
     46.7879	   19.00	   19.41	 -356.90	   14.57
     46.8214	   21.00	   19.76	 -355.25	   14.56
     46.8548	   23.00	   20.22	 -353.71	   14.55
     46.8882	   19.00	   20.82	 -358.31	   14.54
     46.9216	   20.00	   21.60	 -358.10	   14.54
     46.9551	   20.00	   22.60	 -359.09	   14.53
     46.9885	   21.00	   23.83	 -359.32	   14.52
     47.0219	   22.00	   25.25	 -359.75	   14.51
     47.0553	   21.00	   26.50	 -362.00	   14.50
     47.0887	   24.00	   27.75	 -360.25	   14.49
     47.1222	   23.00	   28.45	 -361.95	   14.48
     47.1556	   29.00	   28.38	 -355.88	   14.48
     47.1890	   30.00	   27.89	 -354.39	   14.47
     47.2224	   30.00	   27.02	 -353.52	   14.46
     47.2559	   25.00	   25.89	 -357.38	   14.45
     47.2893	   36.00	   24.58	 -345.08	   14.44
     47.3227	   21.00	   23.28	 -358.77	   14.43
     47.3561	   20.00	   22.10	 -358.60	   14.43
     47.3895	   18.00	   21.11	 -359.61	   14.42
     47.4230	   23.00	   20.32	 -353.82	   14.41
     47.4564	   17.00	   19.70	 -359.20	   14.40
     47.4898	   15.00	   19.22	 -360.71	   14.39
     47.5232	   25.00	   18.84	 -350.34	   14.38
     47.5567	    3.00	   18.55	 -372.05	   14.38
     47.5901	   19.00	   18.31	 -355.81	   14.37
     47.6235	   18.00	   18.13	 -356.62	   14.36
     47.6569	   18.00	   17.97	 -356.47	   14.35
     47.6904	   23.00	   17.85	 -351.34	   14.34
     47.7238	   19.00	   17.74	 -355.24	   14.33
     47.7572	   21.00	   17.65	 -353.14	   14.33
     47.7906	   15.00	   17.57	 -359.06	   14.32
     47.8240	   25.00	   17.50	 -348.99	   14.31
     47.8575	   16.00	   17.43	 -357.93	   14.30
     47.8909	   18.00	   17.38	 -355.88	   14.29
     47.9243	   21.00	   17.33	 -352.83	   14.28
     47.9577	   17.00	   17.29	 -356.78	   14.28
     47.9912	   17.00	   17.25	 -356.74	   14.27
     48.0246	   18.00	   17.21	 -355.71	   14.26
     48.0580	   19.00	   17.18	 -354.67	   14.25
     48.0914	   16.00	   17.14	 -357.64	   14.24
     48.1248	   17.00	   17.12	 -356.61	   14.23
     48.1583	   21.00	   17.09	 -352.59	   14.23
     48.1917	   20.00	   17.06	 -353.56	   14.22
     48.2251	   23.00	   17.04	 -350.54	   14.21
     48.2585	   18.00	   17.02	 -355.52	   14.20
     48.2920	   12.00	   17.00	 -361.49	   14.19
     48.3254	   23.00	   16.98	 -350.47	   14.18
     48.3588	    9.00	   16.96	 -364.46	   14.18
     48.3922	   16.00	   16.94	 -357.44	   14.17
     48.4257	   24.00	   16.92	 -349.42	   14.16
     48.4591	   21.00	   16.91	 -352.40	   14.15
     48.4925	   16.00	   16.89	 -357.39	   14.14
     48.5259	   12.00	   16.87	 -361.37	   14.13
     48.5593	   25.00	   16.86	 -348.36	   14.12
     48.5928	   22.00	   16.84	 -351.34	   14.12
     48.6262	   17.00	   16.83	 -356.33	   14.11
     48.6596	   16.00	   16.82	 -357.31	   14.10
     48.6930	   21.00	   16.80	 -352.30	   14.09
     48.7264	   22.00	   16.79	 -351.29	   14.08
     48.7599	   16.00	   16.78	 -357.27	   14.07
     48.7933	   15.00	   16.76	 -358.26	   14.07
     48.8267	   16.00	   16.75	 -357.25	   14.06
     48.8601	   20.00	   16.74	 -353.24	   14.05
     48.8936	   20.00	   16.73	 -353.22	   14.04
     48.9270	   22.00	   16.72	 -351.21	   14.03
     48.9604	   17.00	   16.70	 -356.20	   14.02
     48.9938	   20.00	   16.69	 -353.19	   14.02
     49.0273	   10.00	   16.68	 -363.18	   14.01
     49.0607	   15.00	   16.67	 -358.17	   14.00
     49.0941	   25.00	   16.66	 -348.16	   13.99
     49.1275	    8.00	   16.65	 -365.15	   13.98
     49.1609	   27.00	   16.64	 -346.14	   13.97
     49.1944	   12.00	   16.63	 -361.12	   13.97
     49.2278	   12.00	   16.62	 -361.11	   13.96
     49.2612	   20.00	   16.61	 -353.10	   13.95
     49.2946	   20.00	   16.71	 -353.21	   13.94
     49.3281	   17.00	   16.70	 -356.20	   13.93
     49.3615	   11.00	   16.70	 -362.19	   13.92
     49.3949	   18.00	   16.69	 -355.19	   13.92
     49.4283	   15.00	   16.74	 -358.24	   13.91
     49.4617	   28.00	   16.73	 -345.23	   13.90
     49.4952	   15.00	   16.73	 -358.22	   13.89
     49.5286	   21.00	   16.72	 -352.22	   13.88
     49.5620	   21.00	   16.71	 -352.21	   13.87
     49.5954	   27.00	   16.71	 -346.20	   13.87
     49.6289	   11.00	   16.70	 -362.20	   13.86
     49.6623	   15.00	   16.69	 -358.19	   13.85
     49.6957	   19.00	   16.69	 -354.19	   13.84
     49.7291	   20.00	   16.68	 -353.18	   13.83
     49.7626	   21.00	   16.68	 -352.17	   13.82
     49.7960	   12.00	   16.67	 -361.17	   13.82
     49.8294	   21.00	   16.67	 -352.16	   13.81
     49.8628	   11.00	   16.66	 -362.16	   13.80
     49.8962	   16.00	   16.66	 -357.15	   13.79
     49.9297	   19.00	   16.65	 -354.15	   13.78
     49.9631	   21.00	   16.65	 -352.14	   13.77
     49.9965	   14.00	   16.64	 -359.14	   13.76
     50.0299	   27.00	   16.64	 -346.14	   13.76
     50.0634	   14.00	   16.63	 -359.13	   13.75
     50.0968	   17.00	   16.63	 -356.13	   13.74
     50.1302	   24.00	   16.63	 -349.12	   13.73
     50.1636	   15.00	   16.62	 -358.12	   13.72
     50.1970	   16.00	   16.62	 -357.12	   13.71
     50.2305	   22.00	   16.62	 -351.11	   13.71
     50.2639	   20.00	   16.61	 -353.11	   13.70
     50.2973	   19.00	   16.61	 -354.11	   13.69
     50.3307	    9.00	   16.61	 -364.11	   13.68
     50.3642	   16.00	   16.61	 -357.10	   13.67
     50.3976	   18.00	   16.60	 -355.10	   13.66
     50.4310	   19.00	   16.60	 -354.10	   13.66
     50.4644	   19.00	   16.60	 -354.10	   13.65
     50.4978	   18.00	   16.60	 -355.10	   13.64
     50.5313	   12.00	   16.60	 -361.10	   13.63
     50.5647	   15.00	   16.60	 -358.10	   13.62
     50.5981	   15.00	   16.60	 -358.09	   13.61
     50.6315	   19.00	   16.60	 -354.09	   13.61
     50.6650	   10.00	   16.60	 -363.10	   13.60
     50.6984	   12.00	   16.60	 -361.10	   13.59
     50.7318	   15.00	   16.60	 -358.10	   13.58
     50.7652	   14.00	   16.60	 -359.10	   13.57
     50.7986	   10.00	   16.60	 -363.10	   13.56
     50.8321	   17.00	   16.60	 -356.10	   13.56
     50.8655	   19.00	   16.61	 -354.10	   13.55
     50.8989	   18.00	   16.61	 -355.11	   13.54
     50.9323	   14.00	   16.61	 -359.11	   13.53
     50.9658	   17.00	   16.62	 -356.11	   13.52
     50.9992	   21.00	   16.62	 -352.12	   13.51
     51.0326	   15.00	   16.63	 -358.12	   13.51
     51.0660	   16.00	   16.63	 -357.13	   13.50
     51.0994	   21.00	   16.64	 -352.14	   13.49
     51.1329	   12.00	   16.65	 -361.14	   13.48
     51.1663	   12.00	   16.64	 -361.14	   13.47
     51.1997	   20.00	   16.65	 -353.15	   13.46
     51.2331	   12.00	   16.66	 -361.16	   13.46
     51.2666	   23.00	   16.67	 -350.17	   13.45
     51.3000	   17.00	   16.68	 -356.17	   13.44
     51.3334	   20.00	   16.69	 -353.19	   13.43
     51.3668	   23.00	   16.70	 -350.20	   13.42
     51.4003	   27.00	   16.72	 -346.21	   13.41
     51.4337	    9.00	   16.73	 -364.23	   13.41
     51.4671	   18.00	   16.75	 -355.25	   13.40
     51.5005	   16.00	   16.78	 -357.27	   13.40
     51.5339	   18.00	   16.80	 -355.30	   13.39
     51.5674	   20.00	   16.83	 -353.32	   13.39
     51.6008	   17.00	   16.85	 -356.35	   13.39
     51.6342	   15.00	   16.88	 -358.38	   13.38
     51.6676	   17.00	   16.91	 -356.41	   13.38
     51.7011	   18.00	   16.94	 -355.44	   13.37
     51.7345	    8.00	   16.98	 -365.48	   13.37
     51.7679	   20.00	   17.01	 -353.51	   13.37
     51.8013	   24.00	   17.05	 -349.55	   13.36
     51.8347	   23.00	   17.10	 -350.59	   13.36
     51.8682	   21.00	   17.14	 -352.64	   13.36
     51.9016	   21.00	   17.19	 -352.69	   13.35
     51.9350	   19.00	   17.24	 -354.74	   13.35
     51.9684	   22.00	   17.30	 -351.79	   13.34
     52.0019	   19.00	   17.36	 -354.85	   13.34
     52.0353	   20.00	   17.42	 -353.92	   13.34
     52.0687	   29.00	   17.49	 -344.99	   13.33
     52.1021	   22.00	   17.56	 -352.06	   13.33
     52.1356	   21.00	   17.65	 -353.14	   13.32
     52.1690	   21.00	   17.73	 -353.23	   13.32
     52.2024	   20.00	   17.83	 -354.33	   13.32
     52.2358	   25.00	   17.93	 -349.43	   13.31
     52.2692	   25.00	   18.04	 -349.54	   13.31
     52.3027	   19.00	   18.17	 -355.66	   13.30
     52.3361	   22.00	   18.30	 -352.80	   13.30
     52.3695	   28.00	   18.45	 -346.95	   13.30
     52.4029	   21.00	   18.61	 -354.11	   13.29
     52.4364	   22.00	   18.79	 -353.29	   13.29
     52.4698	   22.00	   18.99	 -353.48	   13.28
     52.5032	    8.00	   19.20	 -367.70	   13.28
     52.5366	   20.00	   19.45	 -355.95	   13.28
     52.5700	   27.00	   19.72	 -349.22	   13.27
     52.6035	   16.00	   20.02	 -360.52	   13.27
     52.6369	   23.00	   20.37	 -353.86	   13.27
     52.6703	   23.00	   20.75	 -354.25	   13.26
     52.7037	   11.00	   21.19	 -366.69	   13.26
     52.7372	   17.00	   21.69	 -361.19	   13.25
     52.7706	   37.00	   22.66	 -342.15	   13.25
     52.8040	   20.00	   23.33	 -359.83	   13.25
     52.8374	   29.00	   24.11	 -351.61	   13.24
     52.8708	   25.00	   25.03	 -356.52	   13.24
     52.9043	   21.00	   26.30	 -361.80	   13.23
     52.9377	   30.00	   27.61	 -354.11	   13.23
     52.9711	   38.00	   29.20	 -347.70	   13.23
     53.0045	   50.00	   31.15	 -337.65	   13.22
     53.0380	   28.00	   33.59	 -362.09	   13.22
     53.0714	   30.00	   36.66	 -363.16	   13.21
     53.1048	   49.00	   40.55	 -348.05	   13.21
     53.1382	   42.00	   45.49	 -359.99	   13.21
     53.1716	   64.00	   51.72	 -344.22	   13.20
     53.2051	   70.00	   59.51	 -346.00	   13.20
     53.2385	   79.00	   68.98	 -346.48	   13.19
     53.2719	   86.00	   80.06	 -350.56	   13.19
     53.3053	   91.00	   92.03	 -357.53	   13.19
     53.3388	  128.00	  103.37	 -331.87	   13.18
     53.3722	  116.00	  111.86	 -352.36	   13.18
     53.4056	  127.00	  115.75	 -345.25	   13.18
     53.4390	  116.00	  114.93	 -355.43	   13.17
     53.4725	  111.00	  110.64	 -356.13	   13.17
     53.5059	  127.00	  103.99	 -333.49	   13.16
     53.5393	  104.00	   95.48	 -347.98	   13.16
     53.5727	   83.00	   85.62	 -359.12	   13.16
     53.6061	   88.00	   75.31	 -343.81	   13.15
     53.6396	   75.00	   65.58	 -347.08	   13.15
     53.6730	   60.00	   57.07	 -353.57	   13.14
     53.7064	   60.00	   49.98	 -346.48	   13.14
     53.7398	   50.00	   44.25	 -350.75	   13.14
     53.7733	   39.00	   39.68	 -357.18	   13.13
     53.8067	   36.00	   36.06	 -356.55	   13.13
     53.8401	   35.00	   33.19	 -354.68	   13.12
     53.8735	   43.00	   30.90	 -344.40	   13.12
     53.9069	   41.00	   29.06	 -344.56	   13.12
     53.9404	   34.00	   27.57	 -350.07	   13.11
     53.9738	   37.00	   26.35	 -345.85	   13.11
     54.0072	   33.00	   25.33	 -348.83	   13.10
     54.0406	   38.00	   24.48	 -342.98	   13.10
     54.0741	   27.00	   23.76	 -353.25	   13.10
     54.1075	   27.00	   23.14	 -352.63	   13.09
     54.1409	   25.00	   22.61	 -354.10	   13.09
     54.1743	   28.00	   22.15	 -350.64	   13.09
     54.2077	   39.00	   21.75	 -339.24	   13.08
     54.2412	   25.00	   21.40	 -352.90	   13.08
     54.2746	   33.00	   21.09	 -344.59	   13.07
     54.3080	   27.00	   20.83	 -350.33	   13.07
     54.3414	   25.00	   20.59	 -352.09	   13.07
     54.3749	   31.00	   20.39	 -345.89	   13.06
     54.4083	   24.00	   20.21	 -352.71	   13.06
     54.4417	   29.00	   20.05	 -347.55	   13.05
     54.4751	   21.00	   19.91	 -355.41	   13.05
     54.5086	   14.00	   19.79	 -362.29	   13.05
     54.5420	   23.00	   19.69	 -353.18	   13.04
     54.5754	   17.00	   19.60	 -359.09	   13.04
     54.6088	   23.00	   19.52	 -353.02	   13.03
     54.6422	   27.00	   19.45	 -348.95	   13.03
     54.6757	   18.00	   19.40	 -357.90	   13.03
     54.7091	   32.00	   19.35	 -343.85	   13.02
     54.7425	   30.00	   19.32	 -345.82	   13.02
     54.7759	   22.00	   19.30	 -353.79	   13.01
     54.8093	   27.00	   19.28	 -348.78	   13.01
     54.8428	   19.00	   19.27	 -356.77	   13.01
     54.8762	   25.00	   19.27	 -350.77	   13.00
     54.9096	   23.00	   19.28	 -352.78	   13.00
     54.9430	   29.00	   19.30	 -346.79	   13.00
     54.9765	   37.00	   19.32	 -338.82	   12.99
     55.0099	   16.00	   19.35	 -359.85	   12.99
     55.0433	   33.00	   19.39	 -342.89	   12.98
     55.0767	   17.00	   19.44	 -358.94	   12.98
     55.1102	   30.00	   19.49	 -345.99	   12.98
     55.1436	   23.00	   19.56	 -353.05	   12.97
     55.1770	   21.00	   19.63	 -355.12	   12.97
     55.2104	   21.00	   19.71	 -355.20	   12.96
     55.2438	   22.00	   19.79	 -354.29	   12.96
     55.2773	   28.00	   19.89	 -348.39	   12.96
     55.3107	   17.00	   20.00	 -359.50	   12.95
     55.3441	   28.00	   20.12	 -348.61	   12.95
     55.3775	   23.00	   20.25	 -353.74	   12.94
     55.4110	   19.00	   20.39	 -357.88	   12.94
     55.4444	   23.00	   20.54	 -354.04	   12.94
     55.4778	   25.00	   20.71	 -352.20	   12.93
     55.5112	   24.00	   20.89	 -353.38	   12.93
     55.5446	   25.00	   21.08	 -352.58	   12.93
     55.5781	   21.00	   21.30	 -356.79	   12.92
     55.6115	   30.00	   21.53	 -348.03	   12.92
     55.6449	   25.00	   21.78	 -353.28	   12.91
     55.6783	   44.00	   22.06	 -334.55	   12.91
     55.7118	   31.00	   22.35	 -347.85	   12.91
     55.7452	   23.00	   22.68	 -356.18	   12.90
     55.7786	   31.00	   23.04	 -348.53	   12.90
     55.8120	   24.00	   23.43	 -355.92	   12.89
     55.8455	   17.00	   23.85	 -363.35	   12.89
     55.8789	   32.00	   24.32	 -348.82	   12.89
     55.9123	   22.00	   24.84	 -359.33	   12.88
     55.9457	   28.00	   25.40	 -353.90	   12.88
     55.9791	   42.00	   26.03	 -340.53	   12.87
     56.0126	   42.00	   26.72	 -341.22	   12.87
     56.0460	   36.00	   27.49	 -347.99	   12.87
     56.0794	   38.00	   28.35	 -346.85	   12.86
     56.1128	   28.00	   29.31	 -357.81	   12.86
     56.1463	   42.00	   30.39	 -344.89	   12.85
     56.1797	   25.00	   31.61	 -363.11	   12.85
     56.2131	   41.00	   32.99	 -348.48	   12.85
     56.2465	   47.00	   34.55	 -344.05	   12.84
     56.2799	   37.00	   36.35	 -355.84	   12.84
     56.3134	   51.00	   38.41	 -343.91	   12.84
     56.3468	   46.00	   40.80	 -351.30	   12.83
     56.3802	   45.00	   43.60	 -355.10	   12.83
     56.4136	   50.00	   46.90	 -353.40	   12.82
     56.4471	   49.00	   50.84	 -358.33	   12.82
     56.4805	   65.00	   55.58	 -347.08	   12.82
     56.5139	   74.00	   61.38	 -343.88	   12.81
     56.5473	   82.00	   68.53	 -343.03	   12.81
     56.5807	  104.00	   77.44	 -329.93	   12.80
     56.6142	   88.00	   88.58	 -357.08	   12.80
     56.6476	  115.00	  102.57	 -344.07	   12.80
     56.6810	  142.00	  120.03	 -334.53	   12.79
     56.7144	  171.00	  141.65	 -327.15	   12.79
     56.7479	  223.00	  167.90	 -301.39	   12.78
     56.7813	  240.00	  198.70	 -315.20	   12.79
     56.8147	  280.00	  232.78	 -309.27	   12.79
     56.8481	  330.00	  266.75	 -293.25	   12.80
     56.8816	  352.00	  295.20	 -299.69	   12.80
     56.9150	  354.00	  312.49	 -314.99	   12.81
     56.9484	  328.00	  316.31	 -344.81	   12.81
     56.9818	  374.00	  308.76	 -291.26	   12.82
     57.0152	  363.00	  293.57	 -287.07	   12.83
     57.0487	  324.00	  272.97	 -305.47	   12.83
     57.0821	  269.00	  247.73	 -335.23	   12.84
     57.1155	  264.00	  219.18	 -311.67	   12.84
     57.1489	  219.00	  189.78	 -327.28	   12.85
     57.1824	  165.00	  162.14	 -353.64	   12.85
     57.2158	  142.00	  137.86	 -352.36	   12.86
     57.2492	  136.00	  117.45	 -337.94	   12.87
     57.2826	  123.00	  100.73	 -334.23	   12.87
     57.3160	  105.00	   87.23	 -338.73	   12.88
     57.3495	   83.00	   76.38	 -349.87	   12.88
     57.3829	   99.00	   67.66	 -325.16	   12.89
     57.4163	   90.00	   60.62	 -327.12	   12.89
     57.4497	   66.00	   54.91	 -345.41	   12.90
     57.4832	   55.00	   50.22	 -351.72	   12.91
     57.5166	   51.00	   46.22	 -351.72	   12.91
     57.5500	   50.00	   42.96	 -349.46	   12.92
     57.5834	   59.00	   40.20	 -337.70	   12.92
     57.6168	   56.00	   37.85	 -338.34	   12.93
     57.6503	   34.00	   35.76	 -358.25	   12.93
     57.6837	   32.00	   33.99	 -358.49	   12.94
     57.7171	   51.00	   32.45	 -337.94	   12.95
     57.7505	   34.00	   31.09	 -353.58	   12.95
     57.7840	   34.00	   29.89	 -352.38	   12.96
     57.8174	   22.00	   28.82	 -363.32	   12.96
     57.8508	   32.00	   27.87	 -352.36	   12.97
     57.8842	   25.00	   27.01	 -358.51	   12.97
     57.9176	   27.00	   26.25	 -355.75	   12.98
     57.9511	   28.00	   25.56	 -354.05	   12.99
     57.9845	   28.00	   24.93	 -353.43	   12.99
     58.0179	   23.00	   24.36	 -357.86	   13.00
     58.0513	   28.00	   23.85	 -352.35	   13.00
     58.0848	   22.00	   23.38	 -357.87	   13.01
     58.1182	   25.00	   22.94	 -354.44	   13.01
     58.1516	   24.00	   22.55	 -355.05	   13.02
     58.1850	   25.00	   22.19	 -353.68	   13.03
     58.2185	   14.00	   21.85	 -364.35	   13.03
     58.2519	   30.00	   22.11	 -348.60	   13.04
     58.2853	   28.00	   21.83	 -350.33	   13.04
     58.3187	   24.00	   21.57	 -354.07	   13.05
     58.3521	   25.00	   21.34	 -352.83	   13.05
     58.3856	   20.00	   21.12	 -357.62	   13.06
     58.4190	   17.00	   21.20	 -360.69	   13.07
     58.4524	   24.00	   21.01	 -353.51	   13.07
     58.4858	   23.00	   20.84	 -354.34	   13.08
     58.5193	   19.00	   20.68	 -358.18	   13.08
     58.5527	   20.00	   20.54	 -357.04	   13.09
     58.5861	   19.00	   20.40	 -357.90	   13.09
     58.6195	   20.00	   20.28	 -356.77	   13.10
     58.6529	   25.00	   20.16	 -351.66	   13.11
     58.6864	   24.00	   20.05	 -352.55	   13.11
     58.7198	   20.00	   19.95	 -356.45	   13.12
     58.7532	   17.00	   19.86	 -359.35	   13.12
     58.7866	   17.00	   19.77	 -359.27	   13.13
     58.8201	   21.00	   19.69	 -355.19	   13.13
     58.8535	   15.00	   19.62	 -361.11	   13.14
     58.8869	   23.00	   19.55	 -353.04	   13.15
     58.9203	   24.00	   19.48	 -351.98	   13.15
     58.9538	   23.00	   19.43	 -352.92	   13.16
     58.9872	   16.00	   19.37	 -359.87	   13.16
     59.0206	   28.00	   19.32	 -347.82	   13.17
     59.0540	   27.00	   19.28	 -348.78	   13.17
     59.0874	   18.00	   19.24	 -357.74	   13.18
     59.1209	   17.00	   19.20	 -358.70	   13.19
     59.1543	   14.00	   19.17	 -361.67	   13.19
     59.1877	   12.00	   19.14	 -363.64	   13.20
     59.2211	   20.00	   19.12	 -355.61	   13.20
     59.2545	   18.00	   19.09	 -357.59	   13.21
     59.2880	   18.00	   19.07	 -357.57	   13.21
     59.3214	   33.00	   19.06	 -342.56	   13.22
     59.3548	   20.00	   19.05	 -355.54	   13.23
     59.3882	   15.00	   19.04	 -360.53	   13.23
     59.4217	   25.00	   19.03	 -350.53	   13.24
     59.4551	   28.00	   19.02	 -347.52	   13.24
     59.4885	   23.00	   19.02	 -352.52	   13.25
     59.5219	   25.00	   19.03	 -350.52	   13.25
     59.5554	   22.00	   19.03	 -353.53	   13.26
     59.5888	   28.00	   19.04	 -347.53	   13.27
     59.6222	   21.00	   19.05	 -354.54	   13.27
     59.6556	   18.00	   19.06	 -357.56	   13.28
     59.6890	   28.00	   19.07	 -347.57	   13.28
     59.7225	   21.00	   19.09	 -354.59	   13.29
     59.7559	   15.00	   19.11	 -360.61	   13.29
     59.7893	   19.00	   19.14	 -356.63	   13.30
     59.8227	   19.00	   19.16	 -356.66	   13.31
     59.8562	   37.00	   19.19	 -338.69	   13.31
     59.8896	   19.00	   19.22	 -356.72	   13.32
     59.9230	   20.00	   19.26	 -355.75	   13.32
     59.9564	   14.00	   19.29	 -361.79	   13.33
     59.9898	   22.00	   19.34	 -353.83	   13.33
     60.0233	   28.00	   19.38	 -347.88	   13.34
     60.0567	   28.00	   19.43	 -347.92	   13.35
     60.0901	   27.00	   19.48	 -348.97	   13.35
     60.1235	   22.00	   19.53	 -354.03	   13.36
     60.1570	   25.00	   19.59	 -351.09	   13.36
     60.1904	   31.00	   19.65	 -345.15	   13.37
     60.2238	   28.00	   19.72	 -348.21	   13.37
     60.2572	   22.00	   19.78	 -354.28	   13.38
     60.2906	   33.00	   19.86	 -343.36	   13.39
     60.3241	   19.00	   19.94	 -357.43	   13.39
     60.3575	   28.00	   20.02	 -348.52	   13.40
     60.3909	   24.00	   20.11	 -352.60	   13.40
     60.4243	   19.00	   20.20	 -357.69	   13.41
     60.4578	   35.00	   20.30	 -341.79	   13.41
     60.4912	   30.00	   20.40	 -346.90	   13.42
     60.5246	   23.00	   20.51	 -354.01	   13.43
     60.5580	   27.00	   20.62	 -350.12	   13.43
     60.5915	   29.00	   20.75	 -348.24	   13.44
     60.6249	   20.00	   20.88	 -357.37	   13.44
     60.6583	   16.00	   21.01	 -361.51	   13.45
     60.6917	   22.00	   21.16	 -355.66	   13.45
     60.7251	   20.00	   21.31	 -357.81	   13.46
     60.7586	   24.00	   21.48	 -353.98	   13.47
     60.7920	   33.00	   21.65	 -345.15	   13.47
     60.8254	   27.00	   21.84	 -351.33	   13.48
     60.8588	   25.00	   22.03	 -353.53	   13.48
     60.8923	   22.00	   22.24	 -356.74	   13.49
     60.9257	   23.00	   22.46	 -355.96	   13.49
     60.9591	   29.00	   22.70	 -350.20	   13.50
     60.9925	   25.00	   22.95	 -354.45	   13.51
     61.0259	   21.00	   23.22	 -358.72	   13.51
     61.0594	   27.00	   23.51	 -353.01	   13.52
     61.0928	   24.00	   23.44	 -355.94	   13.52
     61.1262	   36.00	   23.78	 -344.27	   13.53
     61.1596	   21.00	   24.14	 -359.64	   13.53
     61.1931	   29.00	   24.53	 -352.02	   13.54
     61.2265	   23.00	   24.94	 -358.44	   13.55
     61.2599	   25.00	   25.20	 -356.70	   13.55
     61.2933	   29.00	   25.69	 -353.19	   13.56
     61.3267	   36.00	   26.21	 -346.71	   13.56
     61.3602	   20.00	   26.78	 -363.28	   13.57
     61.3936	   29.00	   27.40	 -354.90	   13.57
     61.4270	   27.00	   28.08	 -357.58	   13.58
     61.4604	   20.00	   28.82	 -365.31	   13.59
     61.4939	   19.00	   29.62	 -367.11	   13.59
     61.5273	   30.00	   30.49	 -356.99	   13.60
     61.5607	   33.00	   31.46	 -354.96	   13.60
     61.5941	   31.00	   32.53	 -358.02	   13.61
     61.6275	   38.00	   33.70	 -352.20	   13.61
     61.6610	   41.00	   35.01	 -350.50	   13.62
     61.6944	   45.00	   36.46	 -347.96	   13.63
     61.7278	   38.00	   38.08	 -356.58	   13.63
     61.7612	   44.00	   39.91	 -352.41	   13.64
     61.7947	   41.00	   41.97	 -357.46	   13.64
     61.8281	   42.00	   44.30	 -358.80	   13.65
     61.8615	   45.00	   46.96	 -358.45	   13.65
     61.8949	   46.00	   50.01	 -360.50	   13.66
     61.9284	   60.00	   53.53	 -350.03	   13.67
     61.9618	   45.00	   57.64	 -369.14	   13.67
     61.9952	   57.00	   62.47	 -361.97	   13.68
     62.0286	   88.00	   68.20	 -336.70	   13.68
     62.0620	   72.00	   75.07	 -359.57	   13.69
     62.0955	   74.00	   83.38	 -365.88	   13.69
     62.1289	  101.00	   93.52	 -349.02	   13.70
     62.1623	  118.00	  105.95	 -344.45	   13.71
     62.1957	  129.00	  121.25	 -348.75	   13.71
     62.2292	  171.00	  140.07	 -325.56	   13.72
     62.2626	  197.00	  163.10	 -322.60	   13.72
     62.2960	  211.00	  190.98	 -336.48	   13.73
     62.3294	  224.00	  224.09	 -356.59	   13.73
     62.3628	  269.00	  262.10	 -349.60	   13.74
     62.3963	  376.00	  303.26	 -283.76	   13.75
     62.4297	  343.00	  343.73	 -357.23	   13.75
     62.4631	  416.00	  377.72	 -318.22	   13.76
     62.4965	  450.00	  399.35	 -305.85	   13.76
     62.5300	  454.00	  405.91	 -308.41	   13.77
     62.5634	  459.00	  399.30	 -296.80	   13.77
     62.5968	  395.00	  383.66	 -345.15	   13.78
     62.6302	  397.00	  362.06	 -321.55	   13.79
     62.6637	  359.00	  335.48	 -332.98	   13.79
     62.6971	  310.00	  304.30	 -350.79	   13.80
     62.7305	  293.00	  270.10	 -333.60	   13.80
     62.7639	  237.00	  235.55	 -355.04	   13.81
     62.7973	  219.00	  203.19	 -340.68	   13.81
     62.8308	  208.00	  174.55	 -323.05	   13.82
     62.8642	  142.00	  150.16	 -364.66	   13.83
     62.8976	  127.00	  129.84	 -359.34	   13.83
     62.9310	  106.00	  113.12	 -363.62	   13.84
     62.9645	   97.00	   99.44	 -358.94	   13.84
     62.9979	   95.00	   88.25	 -349.75	   13.85
     63.0313	   90.00	   79.07	 -345.57	   13.85
     63.0647	   68.00	   71.50	 -360.00	   13.86
     63.0981	   68.00	   65.22	 -353.72	   13.87
     63.1316	   66.00	   59.96	 -350.46	   13.87
     63.1650	   63.00	   55.51	 -349.01	   13.88
     63.1984	   61.00	   51.73	 -347.22	   13.88
     63.2318	   46.00	   48.47	 -358.97	   13.89
     63.2653	   52.00	   45.65	 -350.14	   13.89
     63.2987	   56.00	   43.18	 -343.68	   13.90
     63.3321	   39.00	   41.02	 -358.52	   13.91
     63.3655	   55.00	   39.11	 -340.61	   13.91
     63.3989	   48.00	   37.42	 -345.92	   13.92
     63.4324	   33.00	   35.91	 -359.41	   13.92
     63.4658	   32.00	   34.56	 -359.05	   13.93
     63.4992	   39.00	   33.34	 -350.84	   13.93
     63.5326	   31.00	   32.25	 -357.75	   13.94
     63.5661	   25.00	   31.26	 -362.76	   13.95
     63.5995	   36.00	   30.36	 -350.86	   13.95
     63.6329	   21.00	   29.54	 -365.04	   13.96
     63.6663	   27.00	   28.80	 -358.30	   13.96
     63.6997	   21.00	   28.12	 -363.62	   13.97
     63.7332	   32.00	   27.49	 -351.99	   13.97
     63.7666	   31.00	   26.92	 -352.42	   13.98
     63.8000	   28.00	   26.39	 -354.89	   13.99
     63.8334	   31.00	   25.91	 -351.40	   13.99
     63.8669	   22.00	   25.46	 -359.95	   14.00
     63.9003	   23.00	   25.04	 -358.54	   14.00
     63.9337	   17.00	   24.65	 -364.15	   14.01
     63.9671	   33.00	   24.30	 -347.79	   14.01
     64.0005	   20.00	   23.96	 -360.46	   14.02
     64.0340	   36.00	   23.65	 -344.15	   14.03
     64.0674	   28.00	   23.36	 -351.86	   14.03
     64.1008	   12.00	   23.08	 -367.57	   14.02
     64.1342	   33.00	   22.81	 -346.30	   14.01
     64.1677	   24.00	   22.56	 -355.05	   14.00
     64.2011	   28.00	   22.32	 -350.82	   13.99
     64.2345	   15.00	   22.10	 -363.59	   13.98
     64.2679	   17.00	   21.89	 -361.38	   13.97
     64.3014	   18.00	   21.69	 -360.19	   13.96
     64.3348	   25.00	   21.50	 -353.00	   13.95
     64.3682	   19.00	   21.33	 -358.82	   13.94
     64.4016	   32.00	   21.16	 -345.66	   13.93
     64.4350	   17.00	   21.00	 -360.50	   13.92
     64.4685	   23.00	   20.85	 -354.35	   13.91
     64.5019	   19.00	   20.71	 -358.21	   13.90
     64.5353	   24.00	   20.58	 -353.08	   13.89
     64.5687	   22.00	   20.46	 -354.95	   13.88
     64.6022	   21.00	   20.34	 -355.84	   13.87
     64.6356	   18.00	   20.23	 -358.73	   13.86
     64.6690	   19.00	   20.12	 -357.62	   13.85
     64.7024	   28.00	   20.03	 -348.52	   13.84
     64.7358	   25.00	   19.94	 -351.43	   13.83
     64.7693	   25.00	   19.85	 -351.35	   13.82
     64.8027	   20.00	   19.77	 -356.27	   13.81
     64.8361	   21.00	   19.70	 -355.20	   13.80
     64.8695	   10.00	   19.63	 -366.13	   13.80
     64.9030	   17.00	   19.57	 -359.07	   13.79
     64.9364	   24.00	   19.52	 -352.02	   13.78
     64.9698	   12.00	   19.48	 -363.97	   13.77
     65.0032	   14.00	   19.44	 -361.94	   13.76
     65.0367	   16.00	   19.41	 -359.91	   13.75
     65.0701	   25.00	   19.39	 -350.89	   13.74
     65.1035	   18.00	   19.38	 -357.88	   13.73
     65.1369	   21.00	   19.39	 -354.88	   13.72
     65.1703	   18.00	   19.40	 -357.90	   13.71
     65.2038	   16.00	   19.44	 -359.93	   13.70
     65.2372	   14.00	   19.49	 -361.99	   13.69
     65.2706	   17.00	   19.57	 -359.07	   13.68
     65.3040	   21.00	   19.68	 -355.18	   13.67
     65.3374	   16.00	   19.83	 -360.32	   13.66
     65.3709	   18.00	   20.02	 -358.52	   13.65
     65.4043	   23.00	   20.27	 -353.77	   13.64
     65.4377	   21.00	   20.58	 -356.08	   13.63
     65.4711	   24.00	   20.98	 -353.48	   13.62
     65.5046	   21.00	   21.47	 -356.96	   13.61
     65.5380	   22.00	   22.05	 -356.55	   13.60
     65.5714	   17.00	   22.72	 -362.22	   13.59
     65.6048	   29.00	   23.46	 -350.95	   13.58
     65.6383	   22.00	   24.19	 -358.68	   13.57
     65.6717	   22.00	   24.81	 -359.31	   13.56
     65.7051	   34.00	   25.23	 -347.72	   13.55
     65.7385	   18.00	   25.37	 -363.87	   13.54
     65.7719	   23.00	   25.26	 -358.76	   13.53
     65.8054	   17.00	   24.97	 -364.47	   13.52
     65.8388	   19.00	   24.56	 -362.06	   13.51
     65.8722	   24.00	   24.07	 -356.56	   13.50
     65.9056	   25.00	   23.49	 -354.99	   13.49
     65.9391	   21.00	   22.84	 -358.33	   13.48
     65.9725	   19.00	   22.15	 -359.64	   13.47
     66.0059	   11.00	   21.47	 -366.97	   13.46
     66.0393	   22.00	   20.84	 -355.34	   13.45
     66.0727	   27.00	   20.29	 -349.79	   13.44
     66.1062	   19.00	   19.81	 -357.31	   13.43
     66.1396	   17.00	   19.41	 -358.90	   13.42
     66.1730	   21.00	   19.07	 -354.56	   13.41
     66.2064	   16.00	   18.78	 -359.28	   13.40
     66.2399	   17.00	   18.54	 -358.04	   13.39
     66.2733	   21.00	   18.33	 -353.83	   13.38
     66.3067	   18.00	   18.16	 -356.66	   13.37
     66.3401	   20.00	   18.01	 -354.51	   13.36
     66.3736	   23.00	   17.88	 -351.38	   13.35
     66.4070	   10.00	   17.76	 -364.26	   13.34
     66.4404	   18.00	   17.66	 -356.16	   13.33
     66.4738	   18.00	   17.57	 -356.07	   13.32
     66.5072	   12.00	   17.54	 -362.03	   13.31
     66.5407	   19.00	   17.46	 -354.96	   13.30
     66.5741	    9.00	   17.39	 -364.89	   13.29
     66.6075	   14.00	   17.33	 -359.83	   13.28
     66.6409	   14.00	   17.27	 -359.77	   13.27
     66.6744	   12.00	   17.22	 -361.71	   13.26
     66.7078	   14.00	   17.19	 -359.69	   13.25
     66.7412	   12.00	   17.14	 -361.64	   13.24
     66.7746	   18.00	   16.54	 -355.04	   13.23
     66.8080	   10.00	   16.51	 -363.01	   13.22
     66.8415	   14.00	   16.48	 -358.97	   13.21
     66.8749	   17.00	   16.45	 -355.94	   13.20
     66.9083	   17.00	   16.42	 -355.92	   13.19
     66.9417	   16.00	   16.11	 -356.61	   13.18
     66.9752	   23.00	   16.09	 -349.59	   13.17
     67.0086	   20.00	   16.07	 -352.57	   13.17
     67.0420	   15.00	   16.05	 -357.55	   13.16
     67.0754	   15.00	   16.03	 -357.53	   13.15
     67.1088	   20.00	   16.02	 -352.51	   13.14
     67.1423	   15.00	   16.00	 -357.50	   13.13
     67.1757	   25.00	   15.98	 -347.48	   13.12
     67.2091	   11.00	   15.97	 -361.46	   13.11
     67.2425	   17.00	   15.95	 -355.45	   13.10
     67.2760	   16.00	   15.94	 -356.43	   13.09
     67.3094	   11.00	   15.92	 -361.42	   13.08
     67.3428	   17.00	   15.91	 -355.41	   13.07
     67.3762	   12.00	   15.90	 -360.39	   13.06
     67.4097	   19.00	   15.88	 -353.38	   13.05
     67.4431	   19.00	   15.87	 -353.37	   13.04
     67.4765	   12.00	   15.86	 -360.36	   13.03
     67.5099	   10.00	   15.85	 -362.34	   13.02
     67.5433	   11.00	   15.83	 -361.33	   13.01
     67.5768	   16.00	   15.82	 -356.32	   13.00
     67.6102	   18.00	   15.81	 -354.31	   12.99
     67.6436	   18.00	   15.80	 -354.30	   12.98
     67.6770	   15.00	   15.79	 -357.29	   12.97
     67.7104	    9.00	   15.78	 -363.28	   12.96
     67.7439	    8.00	   15.77	 -364.27	   12.95
     67.7773	   20.00	   15.76	 -352.26	   12.94
     67.8107	   11.00	   15.75	 -361.25	   12.93
     67.8441	   15.00	   15.74	 -357.24	   12.92
     67.8776	   10.00	   15.73	 -362.23	   12.91
     67.9110	   15.00	   15.73	 -357.22	   12.90
     67.9444	   15.00	   15.72	 -357.21	   12.89
     67.9778	   18.00	   15.71	 -354.21	   12.88
     68.0113	    9.00	   15.70	 -363.20	   12.87
     68.0447	   16.00	   15.69	 -356.19	   12.86
     68.0781	   20.00	   15.68	 -352.18	   12.85
     68.1115	   14.00	   15.68	 -358.17	   12.84
     68.1449	   16.00	   15.67	 -356.17	   12.83
     68.1784	   11.00	   15.66	 -361.16	   12.82
     68.2118	   19.00	   15.66	 -353.15	   12.81
     68.2452	   12.00	   15.65	 -360.15	   12.80
     68.2786	   17.00	   15.64	 -355.14	   12.79
     68.3121	   16.00	   15.64	 -356.13	   12.78
     68.3455	   21.00	   15.63	 -351.13	   12.77
     68.3789	   16.00	   15.63	 -356.12	   12.76
     68.4123	   11.00	   15.62	 -361.12	   12.75
     68.4457	   15.00	   15.61	 -357.11	   12.74
     68.4792	   12.00	   15.61	 -360.11	   12.73
     68.5126	   10.00	   15.61	 -362.10	   12.72
     68.5460	   12.00	   15.60	 -360.10	   12.71
     68.5794	   15.00	   15.60	 -357.09	   12.70
     68.6129	   17.00	   15.59	 -355.09	   12.69
     68.6463	   22.00	   15.59	 -350.09	   12.68
     68.6797	   19.00	   15.59	 -353.09	   12.67
     68.7131	   22.00	   15.59	 -350.08	   12.66
     68.7466	   20.00	   15.58	 -352.08	   12.65
     68.7800	   16.00	   15.58	 -356.08	   12.64
     68.8134	   14.00	   15.58	 -358.08	   12.63
     68.8468	   14.00	   15.58	 -358.08	   12.62
     68.8802	   14.00	   15.58	 -358.08	   12.61
     68.9137	   17.00	   15.58	 -355.08	   12.60
     68.9471	   19.00	   15.58	 -353.08	   12.59
     68.9805	   11.00	   15.58	 -361.08	   12.58
     69.0139	   16.00	   15.58	 -356.08	   12.57
     69.0474	   12.00	   15.59	 -360.09	   12.56
     69.0808	    7.00	   15.59	 -365.09	   12.55
     69.1142	   18.00	   15.60	 -354.09	   12.55
     69.1476	   12.00	   15.60	 -360.10	   12.54
     69.1810	   15.00	   15.61	 -357.10	   12.53
     69.2145	   23.00	   15.61	 -349.11	   12.52
     69.2479	   27.00	   15.62	 -345.12	   12.51
     69.2813	   12.00	   15.63	 -360.13	   12.50
     69.3147	   21.00	   15.64	 -351.14	   12.49
     69.3482	   19.00	   15.65	 -353.15	   12.48
     69.3816	   15.00	   15.67	 -357.16	   12.47
     69.4150	   20.00	   15.68	 -352.18	   12.46
     69.4484	   21.00	   15.70	 -351.19	   12.45
     69.4818	   16.00	   15.85	 -356.34	   12.44
     69.5153	   12.00	   15.87	 -360.37	   12.43
     69.5487	   17.00	   15.89	 -355.39	   12.42
     69.5821	   22.00	   15.92	 -350.42	   12.41
     69.6155	   11.00	   15.95	 -361.45	   12.40
     69.6490	   17.00	   15.98	 -355.48	   12.39
     69.6824	   16.00	   16.02	 -356.51	   12.38
     69.7158	   25.00	   16.12	 -347.62	   12.37
     69.7492	   10.00	   16.16	 -362.66	   12.36
     69.7826	   14.00	   16.21	 -358.71	   12.35
     69.8161	   21.00	   16.26	 -351.76	   12.34
     69.8495	   17.00	   16.32	 -355.82	   12.33
     69.8829	   14.00	   16.39	 -358.88	   12.32
     69.9163	   15.00	   16.46	 -357.95	   12.31
     69.9498	   18.00	   16.54	 -355.03	   12.30
     69.9832	   23.00	   16.62	 -350.12	   12.29
     70.0166	   17.00	   16.71	 -356.20	   12.28
     70.0500	   16.00	   16.81	 -357.31	   12.27
     70.0835	   22.00	   16.93	 -351.43	   12.26
     70.1169	   18.00	   17.07	 -355.57	   12.25
     70.1503	   14.00	   17.22	 -359.72	   12.24
     70.1837	   18.00	   17.39	 -355.89	   12.23
     70.2171	   15.00	   17.58	 -359.08	   12.22
     70.2506	   21.00	   17.80	 -353.30	   12.21
     70.2840	   21.00	   18.05	 -353.55	   12.20
     70.3174	   28.00	   18.35	 -346.84	   12.19
     70.3508	   32.00	   18.69	 -343.18	   12.18
     70.3843	   20.00	   19.08	 -355.58	   12.17
     70.4177	   20.00	   19.55	 -356.05	   12.16
     70.4511	   19.00	   20.10	 -357.60	   12.15
     70.4845	   24.00	   20.82	 -353.32	   12.14
     70.5179	   14.00	   21.61	 -364.11	   12.13
     70.5514	   17.00	   22.56	 -362.05	   12.12
     70.5848	   29.00	   23.69	 -351.19	   12.11
     70.6182	   20.00	   25.06	 -361.56	   12.10
     70.6516	   33.00	   26.69	 -350.19	   12.09
     70.6851	   27.00	   28.65	 -358.15	   12.08
     70.7185	   42.00	   30.89	 -345.38	   12.07
     70.7519	   25.00	   33.41	 -364.91	   12.06
     70.7853	   42.00	   36.12	 -350.62	   12.05
     70.8187	   56.00	   38.83	 -339.33	   12.04
     70.8522	   44.00	   41.24	 -353.73	   12.03
     70.8856	   52.00	   43.01	 -347.51	   12.02
     70.9190	   49.00	   43.92	 -351.42	   12.01
     70.9524	   45.00	   43.96	 -355.45	   12.00
     70.9859	   36.00	   43.31	 -363.81	   11.99
     71.0193	   41.00	   42.22	 -357.72	   11.98
     71.0527	   45.00	   40.84	 -352.34	   11.97
     71.0861	   39.00	   39.21	 -356.71	   11.96
     71.1196	   25.00	   37.31	 -368.81	   11.95
     71.1530	   34.00	   35.19	 -357.69	   11.94
     71.1864	   38.00	   32.95	 -351.44	   11.93
     71.2198	   24.00	   30.73	 -363.23	   11.93
     71.2532	   24.00	   28.67	 -361.17	   11.92
     71.2867	   39.00	   26.83	 -344.33	   11.91
     71.3201	   22.00	   25.23	 -359.73	   11.90
     71.3535	   22.00	   23.88	 -358.37	   11.89
     71.3869	   20.00	   22.73	 -359.23	   11.88
     71.4204	   18.00	   21.78	 -360.27	   11.87
     71.4538	   30.00	   20.98	 -347.47	   11.86
     71.4872	   20.00	   20.31	 -356.81	   11.85
     71.5206	   23.00	   19.75	 -353.24	   11.84
     71.5540	   15.00	   19.27	 -360.77	   11.83
     71.5875	   16.00	   18.88	 -359.37	   11.82
     71.6209	   15.00	   18.54	 -360.03	   11.81
     71.6543	   19.00	   18.25	 -355.74	   11.80
     71.6877	   23.00	   18.00	 -351.49	   11.79
     71.7212	   18.00	   17.78	 -356.28	   11.78
     71.7546	   16.00	   17.60	 -358.09	   11.77
     71.7880	   10.00	   17.44	 -363.93	   11.76
     71.8214	   17.00	   17.29	 -356.79	   11.75
     71.8548	   18.00	   17.17	 -355.67	   11.74
     71.8883	   21.00	   17.07	 -352.56	   11.73
     71.9217	   20.00	   16.97	 -353.47	   11.72
     71.9551	   17.00	   16.89	 -356.39	   11.71
     71.9885	   21.00	   16.83	 -352.32	   11.70
     72.0220	   18.00	   16.77	 -355.27	   11.69
     72.0554	   20.00	   16.72	 -353.22	   11.68
     72.0888	   23.00	   16.68	 -350.18	   11.67
     72.1222	   16.00	   16.65	 -357.14	   11.66
     72.1556	   12.00	   16.62	 -361.12	   11.65
     72.1891	   10.00	   16.60	 -363.10	   11.64
     72.2225	   18.00	   16.59	 -355.09	   11.63
     72.2559	   28.00	   16.59	 -345.09	   11.62
     72.2893	   25.00	   16.59	 -348.09	   11.61
     72.3228	   17.00	   16.60	 -356.10	   11.60
     72.3562	   12.00	   16.61	 -361.11	   11.59
     72.3896	   17.00	   16.63	 -356.13	   11.58
     72.4230	   21.00	   16.66	 -352.16	   11.57
     72.4565	   14.00	   16.69	 -359.19	   11.56
     72.4899	   11.00	   16.73	 -362.23	   11.55
     72.5233	   22.00	   16.78	 -351.28	   11.54
     72.5567	   20.00	   16.83	 -353.33	   11.53
     72.5901	   11.00	   16.90	 -362.39	   11.52
     72.6236	   19.00	   16.97	 -354.46	   11.51
     72.6570	   14.00	   17.04	 -359.54	   11.50
     72.6904	   21.00	   17.13	 -352.63	   11.49
     72.7238	   25.00	   17.23	 -348.72	   11.48
     72.7573	   16.00	   17.33	 -357.83	   11.47
     72.7907	   16.00	   17.45	 -357.95	   11.46
     72.8241	   19.00	   17.58	 -355.08	   11.45
     72.8575	   21.00	   17.73	 -353.23	   11.44
     72.8909	   20.00	   17.89	 -354.39	   11.43
     72.9244	   11.00	   18.07	 -363.57	   11.42
     72.9578	   17.00	   18.26	 -357.76	   11.41
     72.9912	   22.00	   18.48	 -352.98	   11.40
     73.0246	   27.00	   18.72	 -348.22	   11.39
     73.0581	   19.00	   18.99	 -356.49	   11.38
     73.0915	   20.00	   19.29	 -355.79	   11.37
     73.1249	   29.00	   19.62	 -347.12	   11.36
     73.1583	   28.00	   20.00	 -348.49	   11.35
     73.1917	   17.00	   20.42	 -359.91	   11.34
     73.2252	   18.00	   20.89	 -359.39	   11.33
     73.2586	   19.00	   21.42	 -358.92	   11.32
     73.2920	   16.00	   22.03	 -362.53	   11.31
     73.3254	   27.00	   22.73	 -352.23	   11.31
     73.3589	   24.00	   23.53	 -356.03	   11.30
     73.3923	   25.00	   24.46	 -355.95	   11.29
     73.4257	   25.00	   25.54	 -357.03	   11.28
     73.4591	   20.00	   26.80	 -363.30	   11.27
     73.4926	   39.00	   28.30	 -345.80	   11.26
     73.5260	   30.00	   30.07	 -356.57	   11.25
     73.5594	   32.00	   32.17	 -356.67	   11.24
     73.5928	   21.00	   34.68	 -370.17	   11.23
     73.6262	   44.00	   37.66	 -350.16	   11.22
     73.6597	   43.00	   41.20	 -354.69	   11.21
     73.6931	   47.00	   45.37	 -354.86	   11.20
     73.7265	   48.00	   50.22	 -358.72	   11.19
     73.7599	   46.00	   55.76	 -366.26	   11.18
     73.7934	   50.00	   61.88	 -368.38	   11.17
     73.8268	   78.00	   68.29	 -346.79	   11.16
     73.8602	   69.00	   74.50	 -361.99	   11.15
     73.8936	   90.00	   79.81	 -346.30	   11.14
     73.9270	   96.00	   83.54	 -344.03	   11.13
     73.9605	  104.00	   85.30	 -337.79	   11.12
     73.9939	  102.00	   85.17	 -339.67	   11.11
     74.0273	   86.00	   83.62	 -354.12	   11.10
     74.0607	   95.00	   81.16	 -342.66	   11.09
     74.0942	   87.00	   78.12	 -347.62	   11.08
     74.1276	   74.00	   74.56	 -357.05	   11.07
     74.1610	   74.00	   70.43	 -352.93	   11.06
     74.1944	   58.00	   65.79	 -364.29	   11.05
     74.2278	   66.00	   60.85	 -351.35	   11.04
     74.2613	   71.00	   55.92	 -341.42	   11.03
     74.2947	   52.00	   51.29	 -355.79	   11.02
     74.3281	   54.00	   47.19	 -349.69	   11.01
     74.3615	   43.00	   43.63	 -357.13	   11.00
     74.3950	   28.00	   40.66	 -369.16	   10.99
     74.4284	   34.00	   38.26	 -360.76	   10.98
     74.4618	   29.00	   36.39	 -363.89	   10.97
     74.4952	   43.00	   35.00	 -348.50	   10.96
     74.5286	   43.00	   34.05	 -347.55	   10.95
     74.5621	   28.00	   33.54	 -362.04	   10.94
     74.5955	   25.00	   33.42	 -364.91	   10.93
     74.6289	   33.00	   33.68	 -357.18	   10.92
     74.6623	   51.00	   34.35	 -339.84	   10.91
     74.6958	   44.00	   35.41	 -347.91	   10.90
     74.7292	   39.00	   36.88	 -354.37	   10.89
     74.7626	   42.00	   38.72	 -353.22	   10.87
     74.7960	   37.00	   40.88	 -360.37	   10.86
     74.8295	   49.00	   43.20	 -350.70	   10.85
     74.8629	   50.00	   45.46	 -351.95	   10.83
     74.8963	   46.00	   47.34	 -357.84	   10.82
     74.9297	   52.00	   48.55	 -353.05	   10.81
     74.9631	   56.00	   48.93	 -349.43	   10.79
     74.9966	   48.00	   48.52	 -357.02	   10.78
     75.0300	   45.00	   47.52	 -359.02	   10.76
     75.0634	   58.00	   46.16	 -344.65	   10.75
     75.0968	   60.00	   44.55	 -341.05	   10.74
     75.1303	   51.00	   42.73	 -348.23	   10.72
     75.1637	   38.00	   40.69	 -359.18	   10.71
     75.1971	   45.00	   38.41	 -349.91	   10.70
     75.2305	   31.00	   36.00	 -361.50	   10.68
     75.2639	   33.00	   33.58	 -357.08	   10.67
     75.2974	   36.00	   31.27	 -351.77	   10.66
     75.3308	   19.00	   29.11	 -366.61	   10.64
     75.3642	   30.00	   27.24	 -353.74	   10.63
     75.3976	   29.00	   25.61	 -353.10	   10.62
     75.4311	   27.00	   24.20	 -353.70	   10.60
     75.4645	   24.00	   23.00	 -355.49	   10.59
     75.4979	   24.00	   21.97	 -354.47	   10.58
     75.5313	   22.00	   21.06	 -355.56	   10.56
     75.5648	   16.00	   20.31	 -360.81	   10.55
     75.5982	   25.00	   19.66	 -351.16	   10.54
     75.6316	   19.00	   19.10	 -356.60	   10.52
     75.6650	   25.00	   18.61	 -350.11	   10.51
     75.6984	   21.00	   18.18	 -353.68	   10.50
     75.7319	   21.00	   17.80	 -353.30	   10.48
     75.7653	   14.00	   17.47	 -359.97	   10.47
     75.7987	   25.00	   17.17	 -348.67	   10.46
     75.8321	   19.00	   16.90	 -354.40	   10.44
     75.8656	   20.00	   16.66	 -353.16	   10.43
     75.8990	   18.00	   16.44	 -354.94	   10.42
     75.9324	   11.00	   16.24	 -361.74	   10.40
     75.9658	   16.00	   16.06	 -356.55	   10.39
     75.9992	   17.00	   15.89	 -355.39	   10.38
     76.0327	   16.00	   15.73	 -356.23	   10.36
     76.0661	   28.00	   15.59	 -344.09	   10.35
     76.0995	   27.00	   15.46	 -344.96	   10.34
     76.1329	   12.00	   15.34	 -359.84	   10.32
     76.1664	   17.00	   15.22	 -354.72	   10.31
     76.1998	   18.00	   15.12	 -353.62	   10.30
     76.2332	   18.00	   15.02	 -353.52	   10.28
     76.2666	   14.00	   14.93	 -357.42	   10.27
     76.3000	    9.00	   14.84	 -362.34	   10.26
     76.3335	    8.00	   14.76	 -363.25	   10.24
     76.3669	   17.00	   14.68	 -354.18	   10.23
     76.4003	   20.00	   14.61	 -351.10	   10.22
     76.4337	   18.00	   14.54	 -353.04	   10.20
     76.4672	   17.00	   14.47	 -353.97	   10.19
     76.5006	   15.00	   14.41	 -355.91	   10.18
     76.5340	   21.00	   14.35	 -349.85	   10.16
     76.5674	   18.00	   14.30	 -352.80	   10.15
     76.6008	   11.00	   14.25	 -359.74	   10.14
     76.6343	    9.00	   14.20	 -361.69	   10.12
     76.6677	    9.00	   14.15	 -361.65	   10.11
     76.7011	   12.00	   14.11	 -358.60	   10.10
     76.7345	   18.00	   14.06	 -352.56	   10.08
     76.7680	   17.00	   14.02	 -353.52	   10.07
     76.8014	   16.00	   13.98	 -354.48	   10.06
     76.8348	   12.00	   13.95	 -358.45	   10.04
     76.8682	   11.00	   13.91	 -359.41	   10.03
     76.9016	   18.00	   13.88	 -352.38	   10.02
     76.9351	   12.00	   13.85	 -358.35	   10.00
     76.9685	   20.00	   13.82	 -350.32	    9.99
     77.0019	   14.00	   13.79	 -356.29	    9.98
     77.0353	   15.00	   13.77	 -355.27	    9.96
     77.0688	   18.00	   13.74	 -352.24	    9.95
     77.1022	   16.00	   13.72	 -354.22	    9.93
     77.1356	   15.00	   13.70	 -355.20	    9.92
     77.1690	   12.00	   13.68	 -358.18	    9.91
     77.2025	   21.00	   13.67	 -349.17	    9.89
     77.2359	   16.00	   13.65	 -354.15	    9.88
     77.2693	   10.00	   13.64	 -360.14	    9.87
     77.3027	    9.00	   13.63	 -361.12	    9.85
     77.3361	   21.00	   13.62	 -349.11	    9.84
     77.3696	    9.00	   13.61	 -361.10	    9.83
     77.4030	   12.00	   13.60	 -358.10	    9.81
     77.4364	   14.00	   13.60	 -356.10	    9.80
     77.4698	   10.00	   13.60	 -360.09	    9.79
     77.5033	   18.00	   13.59	 -352.09	    9.77
     77.5367	   19.00	   13.60	 -351.09	    9.76
     77.5701	   15.00	   13.60	 -355.10	    9.75
     77.6035	   14.00	   13.61	 -356.10	    9.73
     77.6369	   18.00	   13.62	 -352.11	    9.72
     77.6704	   18.00	   13.63	 -352.13	    9.71
     77.7038	   18.00	   13.64	 -352.14	    9.69
     77.7372	   16.00	   13.66	 -354.16	    9.68
     77.7706	   22.00	   13.69	 -348.18	    9.67
     77.8041	   15.00	   13.71	 -355.21	    9.65
     77.8375	   17.00	   13.75	 -353.24	    9.64
     77.8709	   14.00	   13.78	 -356.28	    9.63
     77.9043	   20.00	   13.83	 -350.32	    9.61
     77.9378	   15.00	   13.88	 -355.37	    9.60
     77.9712	   10.00	   13.93	 -360.43	    9.59
     78.0046	   15.00	   14.00	 -355.50	    9.57
     78.0380	   19.00	   14.07	 -351.57	    9.56
     78.0714	   15.00	   14.16	 -355.66	    9.55
     78.1049	   14.00	   14.26	 -356.75	    9.53
     78.1383	   24.00	   14.37	 -346.87	    9.52
     78.1717	   16.00	   14.50	 -354.99	    9.51
     78.2051	   12.00	   14.64	 -359.14	    9.49
     78.2385	   17.00	   14.81	 -354.31	    9.48
     78.2720	   17.00	   15.00	 -354.50	    9.47
     78.3054	   17.00	   15.23	 -354.73	    9.45
     78.3388	   18.00	   15.49	 -353.99	    9.44
     78.3722	   18.00	   15.80	 -354.30	    9.43
     78.4057	   21.00	   16.03	 -351.53	    9.41
     78.4391	   14.00	   16.45	 -358.95	    9.40
     78.4725	   12.00	   16.96	 -361.45	    9.39
     78.5059	   15.00	   17.55	 -359.05	    9.37
     78.5394	   16.00	   18.25	 -358.75	    9.36
     78.5728	   19.00	   19.08	 -356.58	    9.35
     78.6062	   31.00	   20.05	 -345.55	    9.33
     78.6396	   27.00	   21.13	 -350.62	    9.32
     78.6730	   30.00	   22.44	 -348.94	    9.31
     78.7065	   18.00	   23.93	 -362.43	    9.29
     78.7399	   19.00	   25.57	 -363.06	    9.28
     78.7733	   27.00	   27.29	 -356.79	    9.27
     78.8067	   27.00	   29.00	 -358.49	    9.25
     78.8402	   38.00	   30.51	 -349.01	    9.24
     78.8736	   31.00	   31.68	 -357.17	    9.23
     78.9070	   29.00	   32.35	 -359.85	    9.21
     78.9404	   38.00	   32.52	 -351.02	    9.20
     78.9738	   34.00	   32.24	 -354.74	    9.19
     79.0073	   25.00	   31.67	 -363.16	    9.17
     79.0407	   31.00	   30.90	 -356.40	    9.16
     79.0741	   29.00	   30.00	 -357.50	    9.15
     79.1075	   32.00	   28.98	 -353.47	    9.13
     79.1410	   25.00	   27.81	 -359.30	    9.12
     79.1744	   30.00	   26.50	 -352.99	    9.10
     79.2078	   24.00	   25.09	 -357.59	    9.09
     79.2412	   22.00	   23.67	 -358.17	    9.08
     79.2747	   25.00	   22.29	 -353.79	    9.06
     79.3081	   20.00	   21.02	 -357.51	    9.05
     79.3415	   29.00	   19.87	 -347.37	    9.04
     79.3749	   18.00	   18.86	 -357.36	    9.02
     79.4083	   30.00	   17.99	 -344.49	    9.01
     79.4418	   23.00	   17.18	 -350.67	    9.00
     79.4752	   19.00	   16.53	 -354.03	    8.98
     79.5086	   20.00	   15.98	 -352.48	    8.97
     79.5420	   17.00	   15.50	 -355.00	    8.96
     79.5755	   14.00	   15.09	 -357.59	    8.94
     79.6089	   25.00	   14.74	 -346.24	    8.93
     79.6423	   14.00	   14.40	 -356.90	    8.92
     79.6757	   11.00	   14.14	 -359.63	    8.90
     79.7091	   11.00	   13.90	 -359.40	    8.89
     79.7426	   11.00	   13.69	 -359.19	    8.88
     79.7760	   16.00	   13.51	 -354.01	    8.86
     79.8094	   12.00	   13.35	 -357.84	    8.85
     79.8428	   10.00	   13.20	 -359.70	    8.84
     79.8763	   15.00	   13.06	 -354.56	    8.82
     79.9097	   12.00	   12.94	 -357.44	    8.81
     79.9431	   17.00	   12.83	 -352.33	    8.80
     79.9765	   15.00	   12.73	 -354.23	    8.78
     80.0099	   18.00	   12.64	 -351.14	    8.77
     80.0434	    9.00	   12.56	 -360.05	    8.76
     80.0768	   17.00	   12.48	 -351.98	    8.74
     80.1102	   10.00	   12.41	 -358.90	    8.73
     80.1436	    9.00	   12.34	 -359.84	    8.72
     80.1771	    8.00	   12.28	 -360.77	    8.70
     80.2105	   17.00	   12.22	 -351.72	    8.69
     80.2439	    7.00	   12.16	 -361.66	    8.68
     80.2773	   10.00	   12.11	 -358.61	    8.66
     80.3108	   15.00	   12.07	 -353.56	    8.65
     80.3442	   23.00	   12.02	 -345.52	    8.64
     80.3776	   14.00	   11.98	 -354.48	    8.62
     80.4110	   10.00	   11.94	 -358.44	    8.61
     80.4444	   19.00	   11.90	 -349.40	    8.60
     80.4779	    8.00	   11.86	 -360.36	    8.58
     80.5113	   10.00	   11.83	 -358.33	    8.57
     80.5447	   15.00	   11.80	 -353.30	    8.56
     80.5781	   17.00	   11.77	 -351.27	    8.54
     80.6116	   18.00	   11.74	 -350.24	    8.53
     80.6450	   17.00	   11.72	 -351.21	    8.52
     80.6784	    9.00	   11.69	 -359.19	    8.50
     80.7118	   14.00	   11.67	 -354.17	    8.49
     80.7452	   23.00	   11.65	 -345.14	    8.48
     80.7787	   18.00	   11.63	 -350.12	    8.46
     80.8121	   16.00	   11.61	 -352.11	    8.45
     80.8455	    8.00	   11.59	 -360.09	    8.44
     80.8789	   16.00	   11.58	 -352.07	    8.42
     80.9124	   11.00	   11.56	 -357.06	    8.41
     80.9458	   11.00	   11.55	 -357.05	    8.40
     80.9792	   19.00	   11.54	 -349.04	    8.38
     81.0126	   17.00	   11.54	 -351.03	    8.37
     81.0460	   12.00	   11.53	 -356.03	    8.36
     81.0795	    8.00	   11.53	 -360.03	    8.34
     81.1129	   18.00	   11.53	 -350.03	    8.33
     81.1463	   16.00	   11.54	 -352.03	    8.31
     81.1797	   18.00	   11.54	 -350.04	    8.30
     81.2132	   18.00	   11.56	 -350.06	    8.29
     81.2466	    9.00	   11.58	 -359.07	    8.27
     81.2800	   18.00	   11.60	 -350.10	    8.26
     81.3134	    8.00	   11.63	 -360.13	    8.25
     81.3468	   16.00	   11.67	 -352.17	    8.23
     81.3803	   12.00	   11.72	 -356.22	    8.22
     81.4137	   16.00	   11.79	 -352.28	    8.21
     81.4471	   10.00	   11.86	 -358.36	    8.19
     81.4805	   15.00	   11.96	 -353.45	    8.18
     81.5140	   18.00	   12.07	 -350.57	    8.17
     81.5474	   10.00	   12.20	 -358.70	    8.15
     81.5808	   11.00	   12.36	 -357.85	    8.14
     81.6142	   12.00	   12.54	 -357.04	    8.13
     81.6477	   17.00	   12.74	 -352.24	    8.11
     81.6811	   14.00	   12.96	 -355.46	    8.10
     81.7145	   25.00	   13.19	 -344.69	    8.09
     81.7479	    8.00	   13.41	 -361.91	    8.07
     81.7813	   21.00	   13.60	 -349.09	    8.06
     81.8148	   16.00	   13.73	 -354.23	    8.05
     81.8482	   23.00	   13.79	 -347.29	    8.03
     81.8816	   21.00	   13.79	 -349.29	    8.02
     81.9150	   14.00	   13.79	 -356.29	    8.01
     81.9485	   17.00	   13.69	 -353.19	    7.99
     81.9819	   22.00	   13.57	 -348.07	    7.98
     82.0153	    6.00	   13.43	 -363.93	    7.97
     82.0487	   18.00	   13.28	 -351.77	    7.95
     82.0821	   19.00	   13.10	 -350.60	    7.94
     82.1156	   18.00	   12.91	 -351.41	    7.93
     82.1490	   14.00	   12.73	 -355.23	    7.91
     82.1824	   15.00	   12.52	 -354.02	    7.90
     82.2158	   15.00	   12.31	 -353.81	    7.89
     82.2493	   15.00	   12.12	 -353.61	    7.87
     82.2827	   17.00	   11.93	 -351.43	    7.86
     82.3161	   19.00	   11.77	 -349.27	    7.85
     82.3495	   16.00	   11.63	 -352.13	    7.83
     82.3829	   12.00	   11.50	 -356.00	    7.82
     82.4164	   20.00	   11.39	 -347.89	    7.81
     82.4498	   18.00	   11.29	 -349.79	    7.79
     82.4832	   17.00	   11.22	 -350.72	    7.79
     82.5166	   12.00	   11.16	 -355.66	    7.79
     82.5501	   11.00	   11.11	 -356.61	    7.80
     82.5835	   15.00	   11.07	 -352.57	    7.80
     82.6169	   16.00	   11.03	 -351.53	    7.81
     82.6503	   17.00	   11.00	 -350.50	    7.81
     82.6838	   12.00	   10.98	 -355.47	    7.81
     82.7172	   11.00	   10.95	 -356.45	    7.82
     82.7506	   15.00	   10.93	 -352.43	    7.82
     82.7840	   16.00	   10.92	 -351.41	    7.83
     82.8174	   25.00	   10.90	 -342.40	    7.83
     82.8509	   18.00	   10.89	 -349.39	    7.84
     82.8843	   16.00	   10.88	 -351.38	    7.84
     82.9177	   11.00	   10.87	 -356.37	    7.84
     82.9511	   15.00	   10.86	 -352.36	    7.85
     82.9846	   18.00	   10.86	 -349.35	    7.85
     83.0180	   10.00	   10.85	 -357.35	    7.86
     83.0514	    9.00	   10.85	 -358.34	    7.86
     83.0848	   11.00	   10.84	 -356.34	    7.86
     83.1182	   17.00	   10.84	 -350.34	    7.87
     83.1517	   15.00	   10.84	 -352.34	    7.87
     83.1851	   19.00	   10.84	 -348.34	    7.88
     83.2185	   23.00	   10.84	 -344.34	    7.88
     83.2519	   11.00	   10.84	 -356.34	    7.89
     83.2854	   11.00	   10.84	 -356.34	    7.89
     83.3188	   15.00	   10.84	 -352.34	    7.89
     83.3522	   18.00	   10.84	 -349.34	    7.90
     83.3856	   16.00	   10.84	 -351.34	    7.90
     83.4190	   11.00	   10.85	 -356.34	    7.91
     83.4525	   20.00	   10.85	 -347.35	    7.91
     83.4859	   24.00	   10.81	 -343.31	    7.92
     83.5193	    9.00	   10.81	 -358.31	    7.92
     83.5527	   14.00	   10.82	 -353.32	    7.92
     83.5862	   12.00	   10.82	 -355.32	    7.93
     83.6196	   14.00	   10.83	 -353.33	    7.93
     83.6530	   17.00	   10.84	 -350.33	    7.94
     83.6864	   15.00	   10.84	 -352.34	    7.94
     83.7198	   17.00	   10.83	 -350.32	    7.94
     83.7533	   16.00	   10.83	 -351.33	    7.95
     83.7867	   21.00	   10.84	 -346.34	    7.95
     83.8201	   16.00	   10.85	 -351.35	    7.96
     83.8535	   19.00	   10.86	 -348.35	    7.96
     83.8870	   15.00	   10.86	 -352.36	    7.97
     83.9204	   16.00	   10.87	 -351.37	    7.97
     83.9538	   10.00	   10.88	 -357.38	    7.97
     83.9872	   22.00	   10.89	 -345.39	    7.98
     84.0207	    8.00	   10.90	 -359.40	    7.98
     84.0541	   18.00	   10.91	 -349.40	    7.99
     84.0875	   16.00	   10.92	 -351.41	    7.99
     84.1209	   10.00	   10.93	 -357.42	    8.00
     84.1543	   14.00	   10.94	 -353.44	    8.00
     84.1878	   21.00	   10.95	 -346.45	    8.00
     84.2212	   16.00	   10.96	 -351.46	    8.01
     84.2546	   17.00	   10.97	 -350.47	    8.01
     84.2880	   11.00	   10.98	 -356.48	    8.02
     84.3215	   17.00	   11.00	 -350.49	    8.02
     84.3549	   12.00	   11.01	 -355.51	    8.02
     84.3883	   15.00	   11.02	 -352.52	    8.03
     84.4217	   28.00	   11.03	 -339.53	    8.03
     84.4551	   14.00	   11.05	 -353.55	    8.04
     84.4886	   12.00	   11.06	 -355.56	    8.04
     84.5220	   15.00	   11.08	 -352.58	    8.05
     84.5554	    8.00	   11.09	 -359.59	    8.05
     84.5888	   17.00	   11.11	 -350.61	    8.05
     84.6223	   16.00	   11.13	 -351.62	    8.06
     84.6557	    9.00	   11.14	 -358.64	    8.06
     84.6891	   11.00	   11.16	 -356.66	    8.07
     84.7225	   18.00	   11.42	 -349.92	    8.07
     84.7560	   20.00	   11.44	 -347.94	    8.08
     84.7894	   17.00	   11.47	 -350.97	    8.08
     84.8228	   19.00	   11.49	 -348.99	    8.08
     84.8562	    8.00	   11.52	 -360.02	    8.09
     84.8896	   12.00	   11.55	 -356.04	    8.09
     84.9231	   20.00	   11.58	 -348.07	    8.10
     84.9565	   14.00	   11.60	 -354.10	    8.10
     84.9899	   11.00	   11.76	 -357.25	    8.10
     85.0233	   17.00	   11.79	 -351.29	    8.11
     85.0567	   19.00	   11.82	 -349.32	    8.11
     85.0902	    8.00	   11.86	 -360.36	    8.12
     85.1236	   11.00	   11.90	 -357.40	    8.12
     85.1570	   14.00	   11.94	 -354.44	    8.13
     85.1904	   19.00	   11.99	 -349.48	    8.13
     85.2239	   17.00	   12.03	 -351.53	    8.13
     85.2573	   15.00	   12.08	 -353.58	    8.14
     85.2907	    9.00	   12.13	 -359.63	    8.14
     85.3241	    9.00	   12.18	 -359.68	    8.15
     85.3576	    9.00	   12.24	 -359.74	    8.15
     85.3910	   10.00	   12.30	 -358.80	    8.16
     85.4244	   11.00	   12.36	 -357.86	    8.16
     85.4578	   15.00	   12.43	 -353.93	    8.16
     85.4912	   16.00	   12.50	 -353.00	    8.17
     85.5247	   22.00	   12.58	 -347.08	    8.17
     85.5581	   12.00	   12.66	 -357.16	    8.18
     85.5915	   22.00	   12.75	 -347.25	    8.18
     85.6249	   19.00	   12.85	 -350.35	    8.19
     85.6584	   15.00	   12.95	 -354.45	    8.19
     85.6918	   22.00	   13.07	 -347.56	    8.19
     85.7252	   22.00	   13.19	 -347.68	    8.20
     85.7586	   21.00	   13.32	 -348.82	    8.20
     85.7920	   14.00	   13.46	 -355.96	    8.21
     85.8255	   15.00	   13.62	 -355.12	    8.21
     85.8589	   16.00	   13.79	 -354.29	    8.21
     85.8923	   11.00	   13.99	 -359.48	    8.22
     85.9257	   22.00	   14.20	 -348.69	    8.22
     85.9592	   18.00	   14.43	 -352.93	    8.23
     85.9926	   11.00	   14.70	 -360.19	    8.23
     86.0260	   17.00	   14.99	 -354.49	    8.24
     86.0594	   20.00	   15.32	 -351.82	    8.24
     86.0928	   25.00	   15.70	 -347.20	    8.24
     86.1263	   20.00	   16.13	 -352.63	    8.25
     86.1597	   18.00	   16.62	 -355.12	    8.25
     86.1931	   16.00	   17.18	 -357.68	    8.26
     86.2265	   14.00	   17.83	 -360.32	    8.26
     86.2600	   21.00	   18.57	 -354.07	    8.27
     86.2934	   17.00	   19.43	 -358.93	    8.27
     86.3268	   17.00	   20.42	 -359.91	    8.27
     86.3602	   20.00	   21.55	 -358.05	    8.28
     86.3937	   27.00	   22.85	 -352.35	    8.28
     86.4271	   20.00	   24.32	 -360.82	    8.29
     86.4605	   30.00	   25.96	 -352.46	    8.29
     86.4939	   25.00	   27.75	 -359.25	    8.29
     86.5273	   32.00	   29.66	 -354.15	    8.30
     86.5608	   31.00	   31.58	 -357.08	    8.30
     86.5942	   35.00	   33.40	 -354.90	    8.31
     86.6276	   39.00	   34.96	 -352.46	    8.31
     86.6610	   50.00	   36.13	 -342.62	    8.32
     86.6945	   56.00	   36.79	 -337.29	    8.32
     86.7279	   38.00	   36.96	 -355.46	    8.32
     86.7613	   50.00	   36.70	 -343.20	    8.33
     86.7947	   38.00	   36.14	 -354.64	    8.33
     86.8281	   38.00	   35.40	 -353.89	    8.34
     86.8616	   41.00	   34.53	 -350.03	    8.34
     86.8950	   47.00	   33.57	 -343.06	    8.35
     86.9284	   50.00	   32.48	 -338.98	    8.35
     86.9618	   27.00	   31.26	 -360.75	    8.35
     86.9953	   33.00	   29.90	 -353.39	    8.36
     87.0287	   20.00	   28.44	 -364.94	    8.36
     87.0621	   42.00	   26.96	 -341.45	    8.37
     87.0955	   19.00	   25.50	 -363.00	    8.37
     87.1289	   24.00	   24.14	 -356.63	    8.37
     87.1624	   19.00	   22.88	 -360.38	    8.38
     87.1958	   27.00	   21.76	 -351.26	    8.38
     87.2292	   23.00	   20.78	 -354.28	    8.39
     87.2626	   19.00	   19.92	 -357.42	    8.39
     87.2961	   34.00	   19.18	 -341.68	    8.40
     87.3295	   23.00	   18.54	 -352.04	    8.40
     87.3629	   30.00	   17.99	 -344.49	    8.40
     87.3963	   31.00	   17.53	 -343.02	    8.41
     87.4297	   22.00	   17.13	 -351.62	    8.41
     87.4632	   24.00	   16.79	 -349.29	    8.42
     87.4966	   17.00	   16.50	 -356.00	    8.42
     87.5300	   22.00	   16.26	 -350.75	    8.43
     87.5634	   15.00	   16.05	 -357.55	    8.43
     87.5969	   18.00	   15.88	 -354.37	    8.43
     87.6303	   20.00	   15.73	 -352.23	    8.44
     87.6637	   19.00	   15.62	 -353.11	    8.44
     87.6971	   19.00	   15.52	 -353.02	    8.45
     87.7306	   20.00	   15.45	 -351.94	    8.45
     87.7640	   12.00	   15.39	 -359.89	    8.45
     87.7974	   15.00	   15.35	 -356.85	    8.46
     87.8308	   27.00	   15.33	 -344.83	    8.46
     87.8642	   25.00	   15.32	 -346.82	    8.47
     87.8977	   27.00	   15.33	 -344.83	    8.47
     87.9311	   21.00	   15.35	 -350.85	    8.48
     87.9645	   16.00	   15.38	 -355.88	    8.48
     87.9979	   19.00	   15.43	 -352.92	    8.48
     88.0314	   18.00	   15.49	 -353.98	    8.49
     88.0648	   14.00	   15.56	 -358.05	    8.49
     88.0982	   12.00	   15.64	 -360.14	    8.50
     88.1316	   16.00	   15.74	 -356.23	    8.50
     88.1650	   19.00	   15.85	 -353.34	    8.51
     88.1985	   14.00	   15.97	 -358.47	    8.51
     88.2319	   14.00	   16.11	 -358.61	    8.51
     88.2653	   11.00	   16.27	 -361.76	    8.52
     88.2987	   19.00	   16.44	 -353.93	    8.52
     88.3322	   23.00	   16.63	 -350.12	    8.53
     88.3656	   24.00	   16.83	 -349.33	    8.53
     88.3990	   20.00	   17.06	 -353.56	    8.53
     88.4324	   21.00	   17.31	 -352.81	    8.54
     88.4659	   19.00	   17.58	 -355.08	    8.54
     88.4993	   12.00	   17.89	 -362.38	    8.55
     88.5327	   15.00	   18.22	 -359.71	    8.55
     88.5661	   16.00	   18.58	 -359.08	    8.56
     88.5995	   35.00	   18.98	 -340.47	    8.56
     88.6330	   22.00	   19.41	 -353.91	    8.56
     88.6664	   27.00	   19.90	 -349.40	    8.57
     88.6998	   20.00	   20.43	 -356.93	    8.57
     88.7332	   19.00	   21.02	 -358.52	    8.58
     88.7667	   15.00	   21.68	 -363.18	    8.58
     88.8001	   31.00	   22.41	 -347.91	    8.59
     88.8335	   22.00	   23.23	 -357.73	    8.59
     88.8669	   31.00	   24.15	 -349.65	    8.59
     88.9003	   27.00	   25.19	 -354.68	    8.60
     88.9338	   30.00	   26.35	 -352.85	    8.60
     88.9672	   35.00	   27.68	 -349.18	    8.61
     89.0006	   30.00	   29.19	 -355.69	    8.61
     89.0340	   52.00	   30.91	 -335.41	    8.62
     89.0675	   47.00	   32.89	 -342.39	    8.62
     89.1009	   39.00	   35.15	 -352.65	    8.62
     89.1343	   39.00	   37.76	 -355.25	    8.63
     89.1677	   47.00	   40.75	 -350.25	    8.63
     89.2011	   47.00	   44.19	 -353.69	    8.64
     89.2346	   47.00	   48.13	 -357.62	    8.64
     89.2680	   44.00	   52.62	 -365.12	    8.64
     89.3014	   49.00	   57.70	 -365.20	    8.65
     89.3348	   71.00	   63.39	 -348.89	    8.65
     89.3683	   62.00	   69.73	 -364.22	    8.66
     89.4017	   73.00	   76.42	 -359.92	    8.66
     89.4351	   76.00	   83.32	 -363.82	    8.67
     89.4685	   87.00	   90.07	 -359.56	    8.67
     89.5019	  105.00	   96.18	 -347.68	    8.67
     89.5354	  130.00	  101.14	 -327.64	    8.68
     89.5688	  137.00	  104.53	 -324.02	    8.68
     89.6022	  127.00	  106.14	 -335.64	    8.69
     89.6356	  123.00	  106.07	 -339.57	    8.69
     89.6691	  110.00	  104.71	 -351.21	    8.70
     89.7025	   79.00	  102.38	 -379.87	    8.70
     89.7359	  112.00	   99.48	 -343.97	    8.70
     89.7693	   90.00	   96.21	 -362.71	    8.71
     89.8027	   92.00	   92.60	 -357.10	    8.71
     89.8362	   96.00	   88.58	 -349.08	    8.72
     89.8696	   77.00	   84.08	 -363.57	    8.72
     89.9030	   91.00	   79.10	 -344.59	    8.72
     89.9364	   63.00	   73.76	 -367.26	    8.73
     89.9699	   79.00	   68.29	 -345.78	    8.73
     90.0033	   61.00	   62.88	 -358.37	    8.74
     90.0367	   64.00	   57.72	 -350.22	    8.74
     90.0701	   50.00	   52.94	 -359.44	    8.75
     90.1036	   63.00	   48.61	 -342.10	    8.75
     90.1370	   48.00	   44.73	 -353.23	    8.75
     90.1704	   43.00	   41.30	 -354.80	    8.76
     90.2038	   43.00	   38.28	 -351.78	    8.76
     90.2372	   42.00	   35.64	 -350.14	    8.77
     90.2707	   37.00	   33.33	 -352.83	    8.77
     90.3041	   38.00	   31.31	 -349.80	    8.78
     90.3375	   31.00	   29.54	 -355.03	    8.78
     90.3709	   50.00	   27.98	 -334.48	    8.78
     90.4044	   41.00	   26.62	 -342.12	    8.79
     90.4378	   23.00	   25.41	 -358.91	    8.79
     90.4712	   38.00	   24.35	 -342.85	    8.80
     90.5046	   27.00	   23.40	 -352.90	    8.80
     90.5380	   22.00	   22.56	 -357.06	    8.80
     90.5715	   33.00	   21.81	 -345.30	    8.81
     90.6049	   22.00	   21.13	 -355.63	    8.81
     90.6383	   27.00	   20.52	 -350.02	    8.82
     90.6717	   20.00	   19.97	 -356.47	    8.82
     90.7052	   17.00	   19.47	 -358.97	    8.83
     90.7386	   30.00	   19.02	 -345.51	    8.83
     90.7720	   27.00	   18.60	 -348.10	    8.83
     90.8054	   29.00	   18.22	 -345.72	    8.84
     90.8389	   24.00	   17.88	 -350.38	    8.84
     90.8723	   21.00	   17.56	 -353.06	    8.85
     90.9057	   20.00	   17.27	 -353.76	    8.85
     90.9391	   18.00	   17.00	 -355.49	    8.86
     90.9725	   25.00	   16.75	 -348.25	    8.86
     91.0060	   18.00	   16.52	 -355.02	    8.86
     91.0394	   16.00	   16.30	 -356.80	    8.87
     91.0728	   18.00	   16.11	 -354.60	    8.87
     91.1062	   12.00	   15.92	 -360.42	    8.88
     91.1397	   25.00	   15.75	 -347.25	    8.88
     91.1731	   16.00	   15.59	 -356.09	    8.88
     91.2065	   19.00	   15.44	 -352.94	    8.89
     91.2399	   22.00	   15.31	 -349.80	    8.89
     91.2733	   19.00	   15.18	 -352.67	    8.90
     91.3068	   21.00	   15.06	 -350.55	    8.90
     91.3402	   17.00	   14.94	 -354.44	    8.91
     91.3736	   16.00	   14.84	 -355.34	    8.91
     91.4070	   16.00	   14.74	 -355.24	    8.91
     91.4405	   10.00	   14.65	 -361.15	    8.92
     91.4739	   20.00	   14.50	 -351.00	    8.92
     91.5073	   15.00	   14.42	 -355.92	    8.93
     91.5407	   20.00	   14.35	 -350.84	    8.93
     91.5741	   21.00	   14.28	 -349.77	    8.94
     91.6076	   17.00	   14.21	 -353.71	    8.94
     91.6410	   14.00	   14.15	 -356.65	    8.94
     91.6744	   14.00	   14.09	 -356.59	    8.95
     91.7078	   23.00	   14.04	 -347.54	    8.95
     91.7413	   23.00	   13.99	 -347.49	    8.96
     91.7747	   24.00	   13.91	 -346.41	    8.96
     91.8081	    7.00	   13.87	 -363.37	    8.96
     91.8415	   16.00	   13.83	 -354.33	    8.97
     91.8749	   12.00	   13.79	 -358.29	    8.97
     91.9084	   17.00	   13.76	 -353.26	    8.98
     91.9418	   14.00	   13.73	 -356.22	    8.98
     91.9752	   15.00	   13.70	 -355.20	    8.99
     92.0086	   17.00	   13.67	 -353.17	    8.99
     92.0421	   18.00	   13.65	 -352.15	    8.99
     92.0755	   16.00	   13.63	 -354.12	    9.00
     92.1089	   24.00	   13.61	 -346.11	    9.00
     92.1423	   17.00	   13.59	 -353.09	    9.01
     92.1758	    6.00	   13.58	 -364.07	    9.01
     92.2092	   15.00	   13.56	 -355.06	    9.02
     92.2426	   16.00	   13.55	 -354.05	    9.02
     92.2760	   19.00	   13.55	 -351.04	    9.02
     92.3094	   20.00	   13.54	 -350.04	    9.03
     92.3429	   10.00	   13.54	 -360.03	    9.03
     92.3763	   14.00	   13.53	 -356.03	    9.03
     92.4097	   12.00	   13.52	 -358.02	    9.03
     92.4431	    8.00	   13.52	 -362.01	    9.02
     92.4766	   28.00	   13.51	 -342.01	    9.02
     92.5100	   18.00	   13.51	 -352.01	    9.02
     92.5434	   21.00	   13.51	 -349.01	    9.01
     92.5768	   15.00	   13.51	 -355.01	    9.01
     92.6102	   17.00	   13.52	 -353.02	    9.00
     92.6437	   14.00	   13.53	 -356.02	    9.00
     92.6771	   15.00	   13.54	 -355.03	    8.99
     92.7105	   11.00	   13.55	 -359.05	    8.99
     92.7439	   15.00	   13.56	 -355.06	    8.98
     92.7774	   20.00	   13.58	 -350.08	    8.98
     92.8108	   10.00	   13.60	 -360.10	    8.97
     92.8442	   16.00	   13.63	 -354.12	    8.97
     92.8776	   18.00	   13.66	 -352.15	    8.96
     92.9110	   14.00	   13.69	 -356.18	    8.96
     92.9445	   19.00	   13.72	 -351.22	    8.95
     92.9779	   14.00	   13.76	 -356.26	    8.95
     93.0113	   16.00	   13.81	 -354.30	    8.94
     93.0447	    8.00	   13.85	 -362.35	    8.94
     93.0782	   15.00	   13.91	 -355.41	    8.93
     93.1116	   18.00	   13.97	 -352.47	    8.93
     93.1450	   27.00	   14.03	 -343.53	    8.92
     93.1784	   20.00	   14.11	 -350.60	    8.92
     93.2119	   21.00	   14.19	 -349.68	    8.91
     93.2453	   17.00	   14.27	 -353.77	    8.91
     93.2787	   21.00	   14.37	 -349.87	    8.90
     93.3121	   11.00	   14.48	 -359.97	    8.90
     93.3455	   16.00	   14.59	 -355.09	    8.90
     93.3790	   14.00	   14.72	 -357.22	    8.89
     93.4124	   18.00	   14.86	 -353.36	    8.89
     93.4458	   15.00	   15.02	 -356.51	    8.88
     93.4792	   28.00	   15.19	 -343.69	    8.88
     93.5126	   14.00	   15.38	 -357.88	    8.87
     93.5461	   18.00	   15.59	 -354.09	    8.87
     93.5795	   18.00	   15.82	 -354.32	    8.86
     93.6129	   18.00	   16.09	 -354.58	    8.86
     93.6463	   20.00	   16.38	 -352.88	    8.85
     93.6798	   19.00	   16.71	 -354.20	    8.85
     93.7132	   14.00	   17.08	 -359.57	    8.84
     93.7466	   16.00	   17.49	 -357.99	    8.84
     93.7800	   24.00	   17.96	 -350.46	    8.83
     93.8135	   19.00	   18.50	 -355.99	    8.83
     93.8469	   27.00	   19.10	 -348.60	    8.82
     93.8803	   22.00	   19.79	 -354.29	    8.82
     93.9137	   29.00	   20.58	 -348.07	    8.81
     93.9471	   27.00	   21.47	 -350.97	    8.81
     93.9806	   29.00	   22.49	 -349.99	    8.80
     94.0140	   24.00	   23.66	 -356.15	    8.80
     94.0474	   36.00	   24.97	 -345.47	    8.79
     94.0808	   24.00	   26.46	 -358.96	    8.79
     94.1143	   23.00	   28.13	 -361.63	    8.79
     94.1477	   29.00	   29.98	 -357.47	    8.78
     94.1811	   38.00	   31.99	 -350.49	    8.78
     94.2145	   44.00	   34.13	 -346.63	    8.77
     94.2479	   37.00	   36.34	 -355.84	    8.77
     94.2814	   35.00	   38.51	 -360.01	    8.76
     94.3148	   48.00	   40.51	 -349.01	    8.76
     94.3482	   52.00	   42.20	 -346.70	    8.75
     94.3816	   50.00	   43.45	 -349.95	    8.75
     94.4151	   66.00	   44.17	 -334.67	    8.74
     94.4485	   55.00	   44.37	 -345.87	    8.74
     94.4819	   56.00	   43.88	 -344.37	    8.73
     94.5153	   49.00	   43.27	 -350.77	    8.73
     94.5488	   63.00	   42.44	 -335.94	    8.72
     94.5822	   64.00	   41.48	 -333.97	    8.72
     94.6156	   45.00	   40.42	 -351.91	    8.71
     94.6490	   49.00	   39.26	 -346.76	    8.71
     94.6824	   38.00	   37.98	 -356.48	    8.70
     94.7159	   39.00	   36.56	 -354.06	    8.70
     94.7493	   50.00	   34.88	 -341.38	    8.69
     94.7827	   45.00	   33.20	 -344.70	    8.69
     94.8161	   32.00	   31.46	 -355.95	    8.68
     94.8496	   35.00	   29.71	 -351.20	    8.68
     94.8830	   30.00	   28.01	 -354.51	    8.67
     94.9164	   32.00	   26.41	 -350.91	    8.67
     94.9498	   27.00	   24.93	 -354.43	    8.67
     94.9832	   38.00	   23.58	 -342.08	    8.66
     95.0167	   24.00	   22.38	 -354.87	    8.66
     95.0501	   29.00	   21.30	 -348.80	    8.65
     95.0835	   21.00	   20.34	 -355.84	    8.65
     95.1169	   25.00	   19.50	 -350.99	    8.64
     95.1504	   32.00	   18.75	 -343.24	    8.64
     95.1838	   21.00	   18.09	 -353.58	    8.63
     95.2172	   20.00	   17.50	 -354.00	    8.63
     95.2506	   20.00	   16.98	 -353.48	    8.62
     95.2840	   27.00	   16.52	 -346.02	    8.62
     95.3175	   22.00	   16.11	 -350.61	    8.61
     95.3509	   21.00	   15.74	 -351.24	    8.61
     95.3843	   16.00	   15.42	 -355.91	    8.60
     95.4177	   20.00	   15.12	 -351.62	    8.60
     95.4512	   14.00	   14.85	 -357.35	    8.59
     95.4846	   15.00	   14.61	 -356.11	    8.59
     95.5180	   16.00	   14.39	 -354.89	    8.58
     95.5514	   22.00	   14.19	 -348.69	    8.58
     95.5848	   20.00	   14.01	 -350.51	    8.57
     95.6183	   15.00	   13.85	 -355.34	    8.57
     95.6517	   16.00	   13.69	 -354.19	    8.56
     95.6851	   18.00	   13.55	 -352.05	    8.56
     95.7185	   17.00	   13.42	 -352.92	    8.56
     95.7520	   18.00	   13.30	 -351.80	    8.55
     95.7854	   17.00	   13.19	 -352.69	    8.55
     95.8188	   15.00	   13.09	 -354.58	    8.54
     95.8522	   20.00	   12.99	 -349.49	    8.54
     95.8857	   23.00	   12.90	 -346.40	    8.53
     95.9191	   20.00	   12.81	 -349.31	    8.53
     95.9525	   18.00	   12.74	 -351.23	    8.52
     95.9859	   16.00	   12.66	 -353.16	    8.52
     96.0193	   19.00	   12.59	 -350.09	    8.51
     96.0528	   19.00	   12.53	 -350.03	    8.51
     96.0862	   15.00	   12.47	 -353.96	    8.50
     96.1196	   12.00	   12.41	 -356.91	    8.50
     96.1530	   20.00	   12.36	 -348.85	    8.49
     96.1865	    7.00	   12.30	 -361.80	    8.49
     96.2199	   20.00	   12.26	 -348.75	    8.48
     96.2533	   18.00	   12.21	 -350.71	    8.48
     96.2867	   10.00	   12.17	 -358.67	    8.47
     96.3201	   20.00	   12.13	 -348.62	    8.47
     96.3536	   17.00	   12.09	 -351.59	    8.46
     96.3870	   24.00	   12.05	 -344.55	    8.46
     96.4204	   14.00	   12.02	 -354.52	    8.45
     96.4538	   23.00	   11.99	 -345.48	    8.45
     96.4873	   16.00	   11.96	 -352.45	    8.44
     96.5207	   17.00	   11.93	 -351.42	    8.44
     96.5541	   15.00	   11.90	 -353.40	    8.44
     96.5875	   14.00	   11.87	 -354.37	    8.43
     96.6209	    7.00	   11.85	 -361.35	    8.43
     96.6544	   16.00	   11.83	 -352.33	    8.42
     96.6878	   14.00	   11.81	 -354.31	    8.42
     96.7212	   18.00	   11.79	 -350.29	    8.41
     96.7546	   16.00	   11.78	 -352.27	    8.41
     96.7881	    7.00	   11.76	 -361.26	    8.40
     96.8215	    9.00	   11.78	 -359.28	    8.40
     96.8549	   17.00	   11.78	 -351.27	    8.39
     96.8883	   10.00	   11.77	 -358.27	    8.39
     96.9218	   14.00	   11.77	 -354.26	    8.38
     96.9552	   18.00	   11.76	 -350.26	    8.38
     96.9886	   14.00	   11.77	 -354.26	    8.37
     97.0220	   11.00	   11.77	 -357.27	    8.37
     97.0554	   15.00	   11.78	 -353.28	    8.36
     97.0889	   10.00	   11.79	 -358.29	    8.36
     97.1223	   12.00	   11.80	 -356.30	    8.35
     97.1557	   17.00	   11.83	 -351.33	    8.35
     97.1891	   16.00	   11.84	 -352.34	    8.34
     97.2226	   15.00	   11.85	 -353.35	    8.34
     97.2560	    9.00	   11.86	 -359.36	    8.33
     97.2894	   18.00	   11.86	 -350.36	    8.33
     97.3228	   16.00	   11.86	 -352.36	    8.32
     97.3562	    3.00	   11.85	 -365.35	    8.32
     97.3897	   18.00	   11.83	 -350.33	    8.32
     97.4231	   21.00	   11.81	 -347.31	    8.31
     97.4565	   15.00	   11.79	 -353.29	    8.31
     97.4899	   18.00	   11.76	 -350.26	    8.30
     97.5234	   10.00	   11.74	 -358.23	    8.30
     97.5568	   12.00	   11.71	 -356.21	    8.29
     97.5902	   17.00	   11.68	 -351.18	    8.29
     97.6236	   12.00	   11.65	 -356.15	    8.28
     97.6570	   15.00	   11.62	 -353.12	    8.28
     97.6905	   10.00	   11.59	 -358.09	    8.27
     97.7239	    8.00	   11.56	 -360.05	    8.27
     97.7573	   20.00	   11.52	 -348.02	    8.26
     97.7907	   10.00	   11.49	 -357.99	    8.26
     97.8242	    6.00	   11.46	 -361.95	    8.25
     97.8576	   15.00	   11.43	 -352.92	    8.25
     97.8910	   11.00	   11.40	 -356.89	    8.24
     97.9244	   17.00	   11.37	 -350.87	    8.24
     97.9578	    6.00	   11.34	 -361.84	    8.23
     97.9913	   20.00	   11.32	 -347.82	    8.23
     98.0247	   17.00	   11.30	 -350.80	    8.22
     98.0581	   14.00	   11.28	 -353.78	    8.22
     98.0915	    9.00	   11.26	 -358.76	    8.21
     98.1250	   18.00	   11.24	 -349.74	    8.21
     98.1584	   14.00	   11.23	 -353.73	    8.21
     98.1918	   11.00	   11.21	 -356.71	    8.20
     98.2252	   11.00	   11.20	 -356.70	    8.20
     98.2587	   14.00	   11.19	 -353.68	    8.19
     98.2921	   20.00	   11.17	 -347.67	    8.19
     98.3255	   14.00	   11.16	 -353.66	    8.18
     98.3589	   14.00	   11.15	 -353.65	    8.18
     98.3923	   11.00	   11.14	 -356.64	    8.17
     98.4258	    7.00	   11.13	 -360.63	    8.17
     98.4592	   17.00	   11.12	 -350.62	    8.16
     98.4926	   22.00	   11.11	 -345.61	    8.16
     98.5260	   16.00	   11.10	 -351.60	    8.15
     98.5595	   14.00	   11.09	 -353.59	    8.15
     98.5929	   17.00	   11.08	 -350.58	    8.14
     98.6263	   18.00	   11.07	 -349.57	    8.14
     98.6597	   10.00	   11.07	 -357.56	    8.13
     98.6931	   11.00	   11.06	 -356.56	    8.13
     98.7266	   20.00	   11.05	 -347.55	    8.12
     98.7600	   10.00	   11.04	 -357.54	    8.12
     98.7934	   11.00	   11.04	 -356.54	    8.11
     98.8268	   15.00	   11.03	 -352.53	    8.11
     98.8603	   16.00	   11.02	 -351.52	    8.10
     98.8937	   12.00	   11.02	 -355.52	    8.10
     98.9271	   12.00	   11.01	 -355.51	    8.09
     98.9605	   17.00	   11.01	 -350.50	    8.09
     98.9939	   15.00	   11.00	 -352.50	    8.09
     99.0274	   21.00	   11.00	 -346.49	    8.08
     99.0608	   14.00	   10.99	 -353.49	    8.08
     99.0942	   19.00	   10.98	 -348.48	    8.07
     99.1276	   21.00	   10.98	 -346.48	    8.07
     99.1611	   12.00	   10.98	 -355.47	    8.06
     99.1945	   11.00	   10.97	 -356.47	    8.06
     99.2279	    8.00	   10.97	 -359.46	    8.05
     99.2613	   11.00	   10.96	 -356.46	    8.05
     99.2948	   12.00	   10.96	 -355.46	    8.04
     99.3282	   21.00	   10.95	 -346.45	    8.04
     99.3616	   18.00	   10.95	 -349.45	    8.03
     99.3950	   15.00	   10.95	 -352.44	    8.03
     99.4284	   22.00	   10.94	 -345.44	    8.02
     99.4619	   12.00	   10.85	 -355.35	    8.02
     99.4953	   20.00	   10.85	 -347.35	    8.01
     99.5287	   17.00	   10.85	 -350.35	    8.01
     99.5621	   12.00	   10.85	 -355.35	    8.00
     99.5956	   18.00	   10.85	 -349.34	    8.00
     99.6290	   14.00	   10.85	 -353.34	    7.99
     99.6624	    8.00	   10.99	 -359.49	    7.99
     99.6958	   20.00	   10.99	 -347.49	    7.98
     99.7292	   16.00	   10.99	 -351.49	    7.98
     99.7627	   14.00	   11.00	 -353.49	    7.97
     99.7961	   16.00	   10.95	 -351.45	    7.97
     99.8295	   15.00	   10.96	 -352.46	    7.97
     99.8629	   11.00	   10.96	 -356.46	    7.96
     99.8964	   28.00	   10.96	 -339.46	    7.96
     99.9298	   20.00	   10.97	 -347.47	    7.95
     99.9632	   12.00	   10.97	 -355.47	    7.95
     99.9966	   17.00	   11.05	 -350.55	    7.94
    100.0300	   18.00	   11.06	 -349.55	    7.94
    100.0635	   11.00	   11.06	 -356.56	    7.93
    100.0969	   20.00	   11.07	 -347.57	    7.93
    100.1303	    5.00	   11.08	 -362.57	    7.92
    100.1637	   15.00	   11.08	 -352.58	    7.92
    100.1972	   18.00	   11.09	 -349.59	    7.91
    100.2306	   17.00	   11.10	 -350.60	    7.91
    100.2640	   23.00	   11.11	 -344.61	    7.90
    100.2974	   20.00	   11.12	 -347.62	    7.90
    100.3308	   15.00	   11.13	 -352.63	    7.89
    100.3643	   15.00	   11.14	 -352.64	    7.89
    100.3977	   12.00	   11.15	 -355.65	    7.88
    100.4311	   16.00	   11.16	 -351.66	    7.88
    100.4645	   16.00	   11.18	 -351.68	    7.87
    100.4980	   10.00	   11.19	 -357.69	    7.87
    100.5314	   15.00	   11.21	 -352.70	    7.86
    100.5648	   12.00	   11.22	 -355.72	    7.86
    100.5982	   19.00	   11.28	 -348.77	    7.86
    100.6317	   12.00	   11.29	 -355.79	    7.85
    100.6651	   19.00	   11.31	 -348.81	    7.85
    100.6985	   16.00	   11.34	 -351.83	    7.84
    100.7319	   11.00	   11.36	 -356.86	    7.84
    100.7653	   11.00	   11.38	 -356.88	    7.83
    100.7988	   16.00	   11.41	 -351.91	    7.83
    100.8322	   12.00	   11.44	 -355.93	    7.82
    100.8656	   15.00	   11.47	 -352.96	    7.82
    100.8990	   15.00	   11.50	 -353.00	    7.81
    100.9325	   11.00	   11.53	 -357.03	    7.81
    100.9659	   15.00	   11.59	 -353.08	    7.80
    100.9993	   16.00	   11.63	 -352.12	    7.80
    101.0327	   23.00	   11.67	 -345.17	    7.79
    101.0661	   17.00	   11.71	 -351.21	    7.79
    101.0996	   17.00	   11.78	 -351.27	    7.80
    101.1330	   18.00	   11.85	 -350.35	    7.81
    101.1664	   11.00	   11.92	 -357.42	    7.82
    101.1998	   18.00	   12.00	 -350.50	    7.84
    101.2333	   18.00	   12.09	 -350.59	    7.85
    101.2667	   11.00	   12.18	 -357.68	    7.86
    101.3001	   24.00	   12.28	 -344.78	    7.88
    101.3335	   19.00	   12.39	 -349.89	    7.89
    101.3670	    8.00	   12.51	 -361.00	    7.90
    101.4004	   19.00	   12.63	 -350.13	    7.92
    101.4338	   12.00	   12.77	 -357.27	    7.93
    101.4672	   15.00	   12.92	 -354.42	    7.94
    101.5006	   19.00	   13.08	 -350.58	    7.96
    101.5341	   12.00	   13.27	 -357.76	    7.97
    101.5675	   12.00	   13.46	 -357.96	    7.98
    101.6009	   14.00	   13.68	 -356.18	    8.00
    101.6343	   25.00	   13.93	 -345.43	    8.01
    101.6678	   17.00	   14.20	 -353.70	    8.02
    101.7012	   23.00	   14.50	 -348.00	    8.04
    101.7346	   16.00	   14.83	 -355.33	    8.05
    101.7680	   22.00	   15.20	 -349.70	    8.06
    101.8014	   23.00	   15.62	 -349.11	    8.08
    101.8349	   27.00	   16.07	 -345.57	    8.09
    101.8683	   25.00	   16.58	 -348.07	    8.10
    101.9017	   20.00	   17.13	 -353.63	    8.12
    101.9351	   16.00	   17.73	 -358.22	    8.13
    101.9686	   25.00	   18.36	 -349.86	    8.14
    102.0020	   35.00	   19.03	 -340.53	    8.16
    102.0354	   23.00	   19.71	 -353.21	    8.17
    102.0688	   20.00	   20.38	 -356.87	    8.18
    102.1022	   30.00	   21.00	 -347.50	    8.20
    102.1357	   38.00	   21.55	 -340.04	    8.21
    102.1691	   35.00	   21.98	 -343.48	    8.22
    102.2025	   18.00	   22.29	 -360.78	    8.24
    102.2359	   16.00	   22.45	 -362.95	    8.25
    102.2694	   44.00	   22.49	 -334.98	    8.26
    102.3028	   27.00	   22.41	 -351.91	    8.28
    102.3362	   22.00	   22.25	 -356.75	    8.29
    102.3696	   28.00	   22.04	 -350.54	    8.30
    102.4030	   18.00	   21.79	 -360.29	    8.32
    102.4365	   19.00	   21.53	 -359.03	    8.33
    102.4699	   36.00	   21.24	 -341.74	    8.34
    102.5033	   33.00	   20.93	 -344.43	    8.36
    102.5367	   20.00	   20.59	 -357.09	    8.37
    102.5702	   22.00	   20.21	 -354.71	    8.38
    102.6036	   23.00	   19.79	 -353.29	    8.40
    102.6370	   25.00	   19.35	 -350.84	    8.41
    102.6704	   15.00	   18.88	 -360.38	    8.42
    102.7038	   19.00	   18.41	 -355.91	    8.44
    102.7373	   18.00	   17.95	 -356.45	    8.45
    102.7707	   16.00	   17.51	 -358.01	    8.46
    102.8041	   14.00	   17.11	 -359.60	    8.48
    102.8375	   17.00	   16.73	 -356.23	    8.49
    102.8710	   16.00	   16.39	 -356.89	    8.50
    102.9044	   22.00	   16.09	 -350.59	    8.52
    102.9378	   10.00	   15.82	 -362.32	    8.53
    102.9712	   21.00	   15.59	 -351.09	    8.54
    103.0047	    8.00	   15.39	 -363.89	    8.56
    103.0381	   16.00	   15.21	 -355.71	    8.57
    103.0715	   18.00	   15.06	 -353.56	    8.58
    103.1049	   21.00	   14.94	 -350.43	    8.60
    103.1383	   11.00	   14.83	 -360.33	    8.61
    103.1718	   19.00	   14.74	 -352.24	    8.62
    103.2052	   10.00	   14.68	 -361.17	    8.64
    103.2386	   10.00	   14.62	 -361.12	    8.65
    103.2720	   20.00	   14.58	 -351.08	    8.66
    103.3055	   16.00	   14.55	 -355.05	    8.68
    103.3389	   11.00	   14.54	 -360.03	    8.69
    103.3723	   14.00	   14.53	 -357.03	    8.70
    103.4057	   11.00	   14.54	 -360.04	    8.72
    103.4391	   11.00	   14.55	 -360.05	    8.73
    103.4726	   22.00	   14.58	 -349.08	    8.74
    103.5060	   27.00	   14.61	 -344.11	    8.76
    103.5394	   17.00	   14.65	 -354.15	    8.77
    103.5728	   18.00	   14.71	 -353.20	    8.78
    103.6063	   18.00	   14.76	 -353.26	    8.80
    103.6397	   15.00	   14.83	 -356.33	    8.81
    103.6731	   14.00	   14.91	 -357.41	    8.82
    103.7065	   24.00	   15.00	 -347.49	    8.84
    103.7400	   23.00	   15.09	 -348.59	    8.85
    103.7734	   19.00	   15.19	 -352.69	    8.86
    103.8068	   18.00	   15.31	 -353.81	    8.88
    103.8402	   20.00	   15.43	 -351.93	    8.89
    103.8736	   18.00	   15.57	 -354.07	    8.90
    103.9071	   17.00	   15.72	 -355.21	    8.92
    103.9405	   14.00	   15.87	 -358.37	    8.93
    103.9739	   20.00	   16.05	 -352.54	    8.94
    104.0073	   18.00	   16.23	 -354.73	    8.96
    104.0407	   14.00	   16.44	 -358.93	    8.97
    104.0742	   18.00	   16.66	 -355.15	    8.98
    104.1076	   15.00	   16.90	 -358.39	    9.00
    104.1410	   19.00	   17.15	 -354.65	    9.01
    104.1744	   23.00	   17.44	 -350.93	    9.02
    104.2079	   16.00	   17.74	 -358.24	    9.04
    104.2413	   28.00	   18.08	 -346.57	    9.05
    104.2747	   24.00	   18.44	 -350.94	    9.06
    104.3081	   16.00	   18.84	 -359.34	    9.08
    104.3416	   20.00	   19.28	 -355.78	    9.09
    104.3750	   21.00	   19.76	 -355.26	    9.10
    104.4084	   27.00	   20.29	 -349.79	    9.12
    104.4418	   27.00	   20.94	 -350.44	    9.13
    104.4752	   36.00	   21.59	 -342.09	    9.14
    104.5087	   24.00	   22.31	 -354.81	    9.16
    104.5421	   19.00	   23.11	 -360.60	    9.17
    104.5755	   25.00	   23.99	 -355.49	    9.18
    104.6089	   21.00	   24.98	 -360.48	    9.20
    104.6424	   30.00	   26.08	 -352.57	    9.21
    104.6758	   29.00	   27.30	 -354.80	    9.22
    104.7092	   30.00	   28.66	 -355.16	    9.24
    104.7426	   29.00	   30.17	 -357.67	    9.25
    104.7760	   42.00	   31.85	 -346.34	    9.26
    104.8095	   35.00	   33.73	 -355.23	    9.28
    104.8429	   36.00	   35.76	 -356.26	    9.29
    104.8763	   44.00	   37.98	 -350.48	    9.30
    104.9097	   44.00	   40.37	 -352.87	    9.32
    104.9432	   36.00	   42.91	 -363.40	    9.33
    104.9766	   51.00	   45.54	 -351.04	    9.34
    105.0100	   31.00	   48.22	 -373.71	    9.36
    105.0434	   59.00	   50.83	 -348.33	    9.37
    105.0769	   58.00	   53.26	 -351.76	    9.38
    105.1103	   71.00	   55.40	 -340.90	    9.40
    105.1437	   65.00	   57.12	 -348.62	    9.41
    105.1771	   71.00	   58.34	 -343.84	    9.42
    105.2105	   55.00	   59.03	 -360.53	    9.44
    105.2440	   73.00	   59.22	 -342.71	    9.45
    105.2774	   77.00	   58.96	 -338.46	    9.46
    105.3108	   52.00	   58.37	 -362.87	    9.48
    105.3442	   55.00	   57.56	 -359.06	    9.49
    105.3777	   58.00	   56.61	 -355.10	    9.50
    105.4111	   50.00	   55.58	 -362.07	    9.52
    105.4445	   59.00	   54.49	 -351.98	    9.53
    105.4779	   45.00	   53.33	 -364.83	    9.54
    105.5113	   60.00	   52.09	 -348.58	    9.56
    105.5448	   75.00	   50.72	 -332.22	    9.57
    105.5782	   52.00	   49.23	 -353.73	    9.58
    105.6116	   56.00	   47.63	 -348.12	    9.60
    105.6450	   49.00	   45.93	 -353.43	    9.61
    105.6785	   46.00	   44.21	 -354.70	    9.62
    105.7119	   33.00	   42.50	 -365.99	    9.64
    105.7453	   54.00	   40.86	 -343.36	    9.65
    105.7787	   47.00	   39.34	 -348.84	    9.66
    105.8121	   39.00	   37.97	 -355.46	    9.68
    105.8456	   36.00	   36.76	 -357.26	    9.69
    105.8790	   41.00	   35.73	 -351.22	    9.70
    105.9124	   28.00	   34.87	 -363.36	    9.72
    105.9458	   41.00	   34.17	 -349.67	    9.73
    105.9793	   34.00	   33.61	 -356.11	    9.74
    106.0127	   32.00	   33.18	 -357.68	    9.76
    106.0461	   38.00	   32.83	 -351.33	    9.77
    106.0795	   42.00	   32.53	 -347.03	    9.78
    106.1129	   32.00	   32.25	 -356.74	    9.80
    106.1464	   42.00	   31.94	 -346.44	    9.81
    106.1798	   35.00	   31.59	 -353.08	    9.82
    106.2132	   35.00	   31.17	 -352.67	    9.84
    106.2466	   27.00	   30.69	 -360.19	    9.85
    106.2801	   33.00	   30.16	 -353.65	    9.86
    106.3135	   31.00	   29.59	 -355.09	    9.88
    106.3469	   39.00	   29.00	 -346.50	    9.89
    106.3803	   37.00	   28.42	 -347.92	    9.90
    106.4137	   32.00	   27.84	 -352.34	    9.92
    106.4472	   31.00	   27.28	 -352.77	    9.93
    106.4806	   24.00	   26.72	 -359.21	    9.94
    106.5140	   19.00	   26.16	 -363.65	    9.96
    106.5474	   31.00	   25.59	 -351.08	    9.97
    106.5809	   30.00	   25.00	 -351.50	    9.98
    106.6143	   32.00	   24.39	 -348.89	   10.00
    106.6477	   35.00	   23.78	 -345.27	   10.01
    106.6811	   18.00	   23.16	 -361.65	   10.02
    106.7146	   23.00	   22.54	 -356.04	   10.04
    106.7480	   24.00	   21.94	 -354.44	   10.05
    106.7814	   19.00	   21.37	 -358.87	   10.06
    106.8148	   19.00	   20.83	 -358.32	   10.08
    106.8482	   18.00	   20.32	 -358.82	   10.09
    106.8817	   19.00	   19.85	 -357.35	   10.10
    106.9151	   18.00	   19.42	 -357.92	   10.12
    106.9485	   18.00	   19.03	 -357.53	   10.13
    106.9819	   23.00	   18.67	 -352.17	   10.14
    107.0154	   15.00	   18.34	 -359.84	   10.16
    107.0488	   21.00	   18.05	 -353.54	   10.17
    107.0822	   20.00	   17.78	 -354.27	   10.18
    107.1156	   16.00	   17.53	 -358.03	   10.20
    107.1490	   18.00	   17.31	 -355.81	   10.21
    107.1825	   22.00	   17.11	 -351.61	   10.22
    107.2159	   20.00	   16.92	 -353.42	   10.24
    107.2493	   20.00	   16.76	 -353.25	   10.25
    107.2827	   18.00	   16.60	 -355.10	   10.26
    107.3162	    9.00	   16.46	 -363.96	   10.28
    107.3496	   20.00	   16.34	 -352.84	   10.29
    107.3830	   12.00	   16.23	 -360.72	   10.30
    107.4164	   23.00	   16.12	 -349.62	   10.32
    107.4499	   17.00	   16.02	 -355.52	   10.33
    107.4833	   22.00	   15.93	 -350.43	   10.34
    107.5167	   21.00	   15.85	 -351.35	   10.36
    107.5501	   15.00	   15.78	 -357.27	   10.37
    107.5835	   33.00	   15.71	 -339.21	   10.38
    107.6170	   11.00	   15.61	 -361.11	   10.40
    107.6504	   15.00	   15.56	 -357.05	   10.41
    107.6838	   18.00	   15.50	 -354.00	   10.42
    107.7172	   17.00	   15.46	 -354.96	   10.44
    107.7507	   10.00	   15.42	 -361.91	   10.45
    107.7841	   14.00	   15.38	 -357.88	   10.46
    107.8175	   18.00	   15.34	 -353.84	   10.48
    107.8509	   17.00	   15.31	 -354.81	   10.49
    107.8843	   12.00	   15.28	 -359.78	   10.50
    107.9178	   19.00	   15.26	 -352.76	   10.52
    107.9512	   12.00	   15.24	 -359.73	   10.53
    107.9846	   18.00	   15.20	 -353.70	   10.54
    108.0180	   22.00	   15.19	 -349.68	   10.56
    108.0515	   24.00	   15.17	 -347.67	   10.57
    108.0849	   15.00	   15.16	 -356.66	   10.58
    108.1183	   19.00	   15.15	 -352.65	   10.60
    108.1517	   15.00	   15.15	 -356.65	   10.61
    108.1852	   10.00	   15.15	 -361.64	   10.62
    108.2186	   17.00	   15.15	 -354.64	   10.64
    108.2520	   18.00	   15.15	 -353.64	   10.65
    108.2854	   12.00	   15.15	 -359.65	   10.66
    108.3188	   17.00	   15.16	 -354.65	   10.68
    108.3523	   19.00	   15.17	 -352.66	   10.69
    108.3857	   31.00	   15.18	 -340.67	   10.70
    108.4191	    7.00	   15.19	 -364.69	   10.72
    108.4525	   18.00	   15.21	 -353.70	   10.73
    108.4859	   16.00	   15.22	 -355.72	   10.74
    108.5194	   19.00	   15.24	 -352.74	   10.76
    108.5528	   19.00	   15.27	 -352.76	   10.77
    108.5862	   15.00	   15.29	 -356.79	   10.78
    108.6196	   16.00	   15.32	 -355.82	   10.80
    108.6531	   17.00	   15.35	 -354.85	   10.81
    108.6865	    8.00	   15.39	 -363.88	   10.82
    108.7199	   11.00	   15.42	 -360.92	   10.84
    108.7533	   17.00	   15.46	 -354.96	   10.85
    108.7868	   17.00	   15.51	 -355.00	   10.86
    108.8202	   16.00	   15.55	 -356.05	   10.88
    108.8536	   20.00	   15.61	 -352.10	   10.89
    108.8870	   14.00	   15.66	 -358.16	   10.90
    108.9204	   19.00	   15.72	 -353.22	   10.92
    108.9539	   20.00	   15.78	 -352.28	   10.93
    108.9873	   15.00	   15.85	 -357.35	   10.94
    109.0207	   15.00	   15.93	 -357.43	   10.96
    109.0541	   19.00	   16.01	 -353.51	   10.97
    109.0876	   14.00	   16.10	 -358.59	   10.98
    109.1210	   18.00	   16.19	 -354.69	   11.00
    109.1544	   18.00	   16.29	 -354.79	   11.01
    109.1878	   19.00	   16.40	 -353.90	   11.02
    109.2212	   21.00	   16.52	 -352.02	   11.04
    109.2547	   20.00	   16.65	 -353.15	   11.05
    109.2881	   19.00	   16.79	 -354.29	   11.06
    109.3215	   18.00	   16.94	 -355.44	   11.08
    109.3549	   16.00	   17.11	 -357.61	   11.09
    109.3884	    8.00	   17.29	 -365.79	   11.10
    109.4218	   18.00	   17.49	 -355.99	   11.12
    109.4552	   19.00	   17.71	 -355.21	   11.13
    109.4886	   15.00	   17.95	 -359.45	   11.14
    109.5220	   18.00	   18.22	 -356.72	   11.16
    109.5555	   17.00	   18.51	 -358.01	   11.17
    109.5889	   15.00	   18.83	 -360.33	   11.18
    109.6223	   16.00	   19.19	 -359.69	   11.20
    109.6557	   14.00	   19.58	 -362.08	   11.21
    109.6892	   22.00	   20.01	 -354.51	   11.22
    109.7226	   31.00	   20.49	 -345.99	   11.24
    109.7560	   20.00	   21.02	 -357.51	   11.25
    109.7894	   21.00	   21.60	 -357.09	   11.26
    109.8229	   24.00	   22.23	 -354.73	   11.28
    109.8563	   22.00	   22.93	 -357.43	   11.29
    109.8897	   24.00	   23.69	 -356.18	   11.30
    109.9231	   25.00	   24.50	 -356.00	   11.32
    109.9565	   30.00	   25.38	 -351.87	   11.33
    109.9900	   24.00	   26.29	 -358.79	   11.34
    110.0234	   28.00	   27.25	 -355.74	   11.36
    110.0568	   25.00	   28.21	 -359.70	   11.37
    110.0902	   42.00	   29.15	 -343.64	   11.38
    110.1237	   23.00	   30.03	 -363.53	   11.40
    110.1571	   29.00	   30.82	 -358.32	   11.41
    110.1905	   29.00	   31.49	 -358.98	   11.42
    110.2239	   33.00	   31.99	 -355.49	   11.44
    110.2573	   35.00	   32.31	 -353.81	   11.45
    110.2908	   29.00	   32.46	 -359.96	   11.46
    110.3242	   30.00	   32.44	 -358.94	   11.48
    110.3576	   39.00	   32.28	 -349.78	   11.49
    110.3910	   30.00	   32.02	 -358.51	   11.50
    110.4245	   31.00	   31.68	 -357.18	   11.52
    110.4579	   37.00	   31.30	 -350.79	   11.53
    110.4913	   42.00	   30.88	 -345.38	   11.54
    110.5247	   34.00	   30.45	 -352.95	   11.56
    110.5581	   27.00	   30.00	 -359.49	   11.57
    110.5916	   23.00	   29.51	 -363.01	   11.58
    110.6250	   37.00	   28.98	 -348.48	   11.60
    110.6584	   35.00	   28.41	 -349.90	   11.61
    110.6918	   33.00	   27.78	 -351.28	   11.62
    110.7253	   35.00	   26.97	 -348.46	   11.64
    110.7587	   33.00	   26.26	 -349.76	   11.65
    110.7921	   34.00	   25.54	 -348.04	   11.66
    110.8255	   21.00	   24.82	 -360.31	   11.68
    110.8589	   22.00	   24.10	 -358.60	   11.69
    110.8924	   23.00	   23.41	 -356.91	   11.70
    110.9258	   14.00	   22.76	 -365.26	   11.72
    110.9592	   24.00	   22.14	 -354.64	   11.73
    110.9926	   21.00	   21.57	 -357.07	   11.74
    111.0261	   24.00	   21.05	 -353.55	   11.76
    111.0595	   19.00	   20.57	 -358.07	   11.77
    111.0929	   21.00	   20.13	 -355.63	   11.78
    111.1263	   17.00	   19.66	 -359.16	   11.80
    111.1598	   22.00	   19.30	 -353.80	   11.81
    111.1932	   19.00	   18.97	 -356.47	   11.82
    111.2266	   16.00	   18.68	 -359.17	   11.84
    111.2600	   18.00	   18.41	 -356.91	   11.85
    111.2934	   22.00	   18.17	 -352.67	   11.86
    111.3269	   25.00	   17.95	 -349.45	   11.88
    111.3603	   18.00	   17.75	 -356.25	   11.89
    111.3937	   29.00	   17.57	 -345.07	   11.90
    111.4271	   20.00	   17.41	 -353.91	   11.92
    111.4606	   20.00	   17.27	 -353.76	   11.93
    111.4940	   19.00	   17.13	 -354.63	   11.94
    111.5274	   21.00	   17.01	 -352.51	   11.96
    111.5608	    8.00	   16.90	 -365.40	   11.97
    111.5942	   16.00	   16.80	 -357.30	   11.98
    111.6277	   15.00	   16.71	 -358.21	   12.00
    111.6611	   18.00	   16.62	 -355.12	   12.01
    111.6945	   14.00	   16.55	 -359.05	   12.02
    111.7279	   16.00	   16.48	 -356.98	   12.04
    111.7614	   15.00	   16.42	 -357.91	   12.05
    111.7948	   20.00	   16.32	 -352.82	   12.06
    111.8282	   12.00	   16.27	 -360.77	   12.08
    111.8616	   16.00	   16.22	 -356.72	   12.09
    111.8951	   19.00	   16.18	 -353.68	   12.10
    111.9285	   16.00	   16.14	 -356.64	   12.12
    111.9619	   19.00	   16.11	 -353.60	   12.13
    111.9953	   17.00	   16.07	 -355.57	   12.14
    112.0287	   12.00	   16.05	 -360.54	   12.16
    112.0622	   18.00	   16.02	 -354.52	   12.17
    112.0956	   18.00	   16.00	 -354.50	   12.18
    112.1290	   14.00	   15.98	 -358.48	   12.20
    112.1624	   17.00	   15.96	 -355.46	   12.21
    112.1959	   15.00	   15.93	 -357.43	   12.23
    112.2293	   10.00	   15.92	 -362.42	   12.24
    112.2627	   18.00	   15.91	 -354.41	   12.25
    112.2961	    8.00	   15.93	 -364.42	   12.27
    112.3295	   11.00	   15.92	 -361.42	   12.28
    112.3630	   17.00	   15.92	 -355.42	   12.30
    112.3964	   18.00	   15.92	 -354.42	   12.31
    112.4298	   17.00	   15.92	 -355.42	   12.32
    112.4632	   21.00	   15.93	 -351.42	   12.34
    112.4967	   10.00	   15.93	 -362.43	   12.35
    112.5301	   14.00	   15.94	 -358.44	   12.37
    112.5635	   10.00	   15.96	 -362.45	   12.38
    112.5969	   17.00	   15.97	 -355.47	   12.40
    112.6303	   20.00	   15.99	 -352.49	   12.41
    112.6638	   20.00	   16.01	 -352.51	   12.42
    112.6972	   19.00	   16.03	 -353.53	   12.44
    112.7306	   14.00	   16.07	 -358.57	   12.45
    112.7640	   21.00	   16.10	 -351.60	   12.47
    112.7975	   18.00	   16.14	 -354.63	   12.48
    112.8309	   14.00	   16.17	 -358.67	   12.49
    112.8643	   20.00	   16.22	 -352.71	   12.51
    112.8977	   15.00	   16.27	 -357.76	   12.52
    112.9311	   10.00	   16.32	 -362.82	   12.54
    112.9646	   21.00	   16.38	 -351.87	   12.55
    112.9980	   18.00	   16.44	 -354.94	   12.56
    113.0314	   14.00	   16.50	 -359.00	   12.58
    113.0648	   18.00	   16.58	 -355.07	   12.59
    113.0983	   12.00	   16.65	 -361.15	   12.61
    113.1317	   15.00	   16.73	 -358.23	   12.62
    113.1651	   14.00	   16.81	 -359.31	   12.63
    113.1985	   16.00	   16.88	 -357.38	   12.65
    113.2319	   19.00	   16.96	 -354.46	   12.66
    113.2654	   20.00	   17.03	 -353.52	   12.68
    113.2988	   22.00	   17.08	 -351.58	   12.69
    113.3322	   20.00	   17.13	 -353.63	   12.70
    113.3656	   21.00	   17.16	 -352.66	   12.72
    113.3991	   19.00	   17.19	 -354.68	   12.73
    113.4325	   18.00	   17.19	 -355.69	   12.75
    113.4659	   20.00	   17.19	 -353.69	   12.76
    113.4993	   18.00	   17.18	 -355.68	   12.77
    113.5328	   19.00	   17.17	 -354.66	   12.79
    113.5662	   10.00	   17.14	 -363.64	   12.80
    113.5996	   22.00	   17.12	 -351.62	   12.82
    113.6330	    8.00	   17.10	 -365.59	   12.83
    113.6664	   21.00	   17.07	 -352.57	   12.84
    113.6999	   11.00	   17.04	 -362.54	   12.86
    113.7333	   17.00	   17.01	 -356.51	   12.87
    113.7667	   11.00	   16.98	 -362.48	   12.89
    113.8001	    8.00	   16.94	 -365.44	   12.90
    113.8336	   16.00	   16.90	 -357.40	   12.91
    113.8670	   18.00	   16.86	 -355.36	   12.93
    113.9004	   14.00	   16.82	 -359.31	   12.94
    113.9338	   18.00	   16.77	 -355.27	   12.96
    113.9672	   11.00	   16.72	 -362.22	   12.97
    114.0007	   18.00	   16.68	 -355.17	   12.98
    114.0341	   17.00	   16.63	 -356.13	   13.00
    114.0675	   16.00	   16.59	 -357.09	   13.01
    114.1009	   12.00	   16.55	 -361.05	   13.03
    114.1344	   15.00	   16.51	 -358.01	   13.04
    114.1678	   16.00	   16.48	 -356.98	   13.05
    114.2012	   16.00	   16.45	 -356.95	   13.07
    114.2346	   15.00	   16.43	 -357.92	   13.08
    114.2681	   12.00	   16.40	 -360.90	   13.10
    114.3015	   16.00	   16.38	 -356.88	   13.11
    114.3349	   12.00	   16.37	 -360.86	   13.12
    114.3683	   24.00	   16.35	 -348.85	   13.14
    114.4017	   15.00	   16.34	 -357.84	   13.15
    114.4352	   17.00	   16.33	 -355.83	   13.17
    114.4686	   16.00	   16.32	 -356.82	   13.18
    114.5020	   11.00	   16.32	 -361.81	   13.19
    114.5354	   20.00	   16.31	 -352.81	   13.21
    114.5688	   14.00	   16.31	 -358.81	   13.22
    114.6023	   25.00	   16.31	 -347.80	   13.24
    114.6357	   15.00	   16.31	 -357.80	   13.25
    114.6691	   20.00	   16.31	 -352.80	   13.26
    114.7025	   17.00	   16.31	 -355.81	   13.28
    114.7360	   23.00	   16.31	 -349.81	   13.29
    114.7694	   14.00	   16.31	 -358.81	   13.31
    114.8028	   14.00	   16.32	 -358.82	   13.32
    114.8362	   18.00	   16.32	 -354.82	   13.33
    114.8697	    9.00	   16.33	 -363.83	   13.35
    114.9031	   16.00	   16.33	 -356.83	   13.36
    114.9365	   20.00	   16.34	 -352.84	   13.38
    114.9699	   16.00	   16.35	 -356.84	   13.39
    115.0033	   21.00	   16.36	 -351.85	   13.40
    115.0368	   20.00	   16.36	 -352.86	   13.42
    115.0702	   19.00	   16.37	 -353.87	   13.43
    115.1036	   11.00	   16.38	 -361.88	   13.45
    115.1370	   18.00	   16.39	 -354.89	   13.46
    115.1705	   15.00	   16.40	 -357.90	   13.47
    115.2039	   15.00	   16.41	 -357.91	   13.49
    115.2373	   17.00	   16.42	 -355.92	   13.50
    115.2707	   25.00	   16.43	 -347.93	   13.52
    115.3041	   14.00	   16.44	 -358.94	   13.53
    115.3376	   10.00	   16.45	 -362.95	   13.54
    115.3710	   16.00	   16.58	 -357.08	   13.56
    115.4044	   19.00	   16.59	 -354.09	   13.57
    115.4378	   21.00	   16.61	 -352.10	   13.59
    115.4713	   18.00	   16.62	 -355.12	   13.60
    115.5047	   10.00	   16.63	 -363.13	   13.61
    115.5381	   14.00	   16.65	 -359.14	   13.63
    115.5715	   11.00	   16.66	 -362.16	   13.64
    115.6049	   15.00	   16.67	 -358.17	   13.66
    115.6384	   18.00	   16.69	 -355.18	   13.67
    115.6718	   15.00	   16.70	 -358.20	   13.68
    115.7052	   15.00	   16.72	 -358.21	   13.70
    115.7386	   10.00	   16.73	 -363.23	   13.71
    115.7721	   16.00	   16.75	 -357.24	   13.73
    115.8055	   25.00	   16.76	 -348.26	   13.74
    115.8389	   12.00	   16.84	 -361.33	   13.75
    115.8723	   17.00	   16.85	 -356.35	   13.77
    115.9058	   18.00	   16.87	 -355.37	   13.78
    115.9392	   16.00	   16.89	 -357.38	   13.80
    115.9726	   15.00	   16.90	 -358.40	   13.81
    116.0060	    6.00	   16.92	 -367.42	   13.83
    116.0394	   19.00	   16.94	 -354.43	   13.84
    116.0729	   16.00	   16.89	 -357.39	   13.85
    116.1063	   17.00	   16.91	 -356.41	   13.87
    116.1397	   23.00	   16.93	 -350.43	   13.88
    116.1731	   15.00	   16.95	 -358.45	   13.90
    116.2066	   17.00	   16.97	 -356.46	   13.91
    116.2400	   12.00	   16.99	 -361.48	   13.92
    116.2734	   15.00	   17.01	 -358.50	   13.94
    116.3068	   16.00	   17.03	 -357.52	   13.95
    116.3402	   19.00	   17.05	 -354.54	   13.97
    116.3737	   11.00	   17.07	 -362.56	   13.98
    116.4071	   10.00	   17.09	 -363.58	   13.99
    116.4405	   18.00	   17.11	 -355.61	   14.01
    116.4739	   15.00	   17.13	 -358.63	   14.02
    116.5074	   14.00	   17.12	 -359.62	   14.04
    116.5408	   27.00	   17.14	 -346.64	   14.05
    116.5742	   15.00	   17.16	 -358.66	   14.06
    116.6076	   12.00	   17.19	 -361.68	   14.08
    116.6410	   24.00	   17.21	 -349.71	   14.09
    116.6745	   10.00	   17.23	 -363.73	   14.11
    116.7079	   12.00	   17.26	 -361.76	   14.12
    116.7413	   20.00	   17.28	 -353.78	   14.13
    116.7747	   22.00	   17.31	 -351.80	   14.15
    116.8082	   17.00	   17.33	 -356.83	   14.16
    116.8416	   14.00	   17.36	 -359.86	   14.18
    116.8750	   11.00	   17.38	 -362.88	   14.19
    116.9084	   22.00	   17.41	 -351.91	   14.20
    116.9418	   17.00	   17.44	 -356.94	   14.22
    116.9753	   17.00	   17.47	 -356.96	   14.23
    117.0087	   11.00	   17.50	 -362.99	   14.25
    117.0421	   11.00	   17.52	 -363.02	   14.26
    117.0755	   22.00	   17.55	 -352.05	   14.27
    117.1090	   14.00	   17.59	 -360.08	   14.29
    117.1424	   19.00	   17.62	 -355.11	   14.30
    117.1758	   15.00	   17.65	 -359.15	   14.32
    117.2092	   19.00	   17.68	 -355.18	   14.33
    117.2427	   15.00	   17.72	 -359.21	   14.34
    117.2761	   18.00	   17.75	 -356.25	   14.36
    117.3095	   16.00	   17.79	 -358.29	   14.37
    117.3429	   17.00	   17.83	 -357.32	   14.39
    117.3763	   29.00	   17.87	 -345.36	   14.40
    117.4098	   18.00	   17.91	 -356.40	   14.41
    117.4432	   22.00	   17.95	 -352.45	   14.43
    117.4766	   16.00	   17.99	 -358.49	   14.44
    117.5100	   18.00	   18.04	 -356.54	   14.46
    117.5435	   16.00	   18.09	 -358.59	   14.47
    117.5769	   15.00	   18.14	 -359.64	   14.48
    117.6103	   11.00	   18.19	 -363.69	   14.50
    117.6437	   24.00	   18.25	 -350.74	   14.51
    117.6771	   23.00	   18.30	 -351.80	   14.53
    117.7106	   19.00	   18.36	 -355.86	   14.54
    117.7440	   10.00	   18.43	 -364.93	   14.55
    117.7774	   19.00	   18.50	 -356.00	   14.57
    117.8108	   20.00	   18.57	 -355.07	   14.58
    117.8443	   18.00	   18.65	 -357.14	   14.60
    117.8777	   17.00	   18.73	 -358.23	   14.61
    117.9111	   23.00	   18.82	 -352.31	   14.62
    117.9445	   16.00	   18.91	 -359.41	   14.64
    117.9780	   23.00	   19.01	 -352.51	   14.65
    118.0114	   18.00	   19.12	 -357.62	   14.67
    118.0448	   17.00	   19.23	 -358.73	   14.68
    118.0782	   14.00	   19.36	 -361.86	   14.69
    118.1116	   20.00	   19.49	 -355.99	   14.71
    118.1451	   24.00	   19.64	 -352.13	   14.72
    118.1785	   18.00	   19.79	 -358.29	   14.74
    118.2119	   19.00	   19.96	 -357.45	   14.75
    118.2453	   19.00	   20.14	 -357.63	   14.76
    118.2788	   12.00	   20.33	 -364.82	   14.78
    118.3122	   21.00	   20.53	 -356.03	   14.79
    118.3456	   23.00	   20.75	 -354.25	   14.81
    118.3790	   17.00	   20.98	 -360.47	   14.82
    118.4124	   21.00	   21.22	 -356.72	   14.83
    118.4459	   20.00	   21.47	 -357.96	   14.85
    118.4793	   15.00	   21.72	 -363.22	   14.86
    118.5127	   15.00	   21.98	 -363.48	   14.88
    118.5461	   23.00	   22.23	 -355.73	   14.89
    118.5796	   24.00	   22.47	 -354.97	   14.90
    118.6130	   20.00	   22.70	 -359.20	   14.92
    118.6464	   25.00	   22.90	 -354.40	   14.93
    118.6798	   22.00	   23.07	 -357.57	   14.95
    118.7132	   24.00	   23.20	 -355.70	   14.96
    118.7467	   24.00	   23.30	 -355.80	   14.97
    118.7801	   37.00	   23.36	 -342.86	   14.99
    118.8135	   17.00	   23.39	 -362.88	   15.00
    118.8469	   23.00	   23.38	 -356.88	   15.02
    118.8804	   28.00	   23.35	 -351.85	   15.03
    118.9138	   23.00	   23.30	 -356.80	   15.04
    118.9472	   25.00	   23.24	 -354.74	   15.06
    118.9806	   24.00	   23.18	 -355.67	   15.07
    119.0140	   20.00	   23.10	 -359.60	   15.09
    119.0475	   14.00	   23.03	 -365.53	   15.10
    119.0809	   17.00	   22.95	 -362.45	   15.11
    119.1143	   21.00	   22.86	 -358.36	   15.13
    119.1477	   22.00	   22.77	 -357.27	   15.14
    119.1812	   18.00	   22.68	 -361.17	   15.16
    119.2146	   19.00	   22.57	 -360.06	   15.17
    119.2480	   20.00	   22.45	 -358.95	   15.18
    119.2814	   25.00	   22.32	 -353.82	   15.20
    119.3148	   15.00	   22.19	 -363.68	   15.21
    119.3483	   14.00	   22.05	 -364.54	   15.23
    119.3817	   19.00	   21.90	 -359.40	   15.24
    119.4151	   17.00	   21.76	 -361.25	   15.26
    119.4485	   19.00	   21.62	 -359.12	   15.27
    119.4820	   22.00	   21.48	 -355.98	   15.28
    119.5154	   23.00	   21.34	 -354.84	   15.28
    119.5488	   16.00	   21.21	 -361.71	   15.28
    119.5822	   15.00	   21.09	 -362.59	   15.28
    119.6157	   18.00	   20.98	 -359.48	   15.28
    119.6491	   16.00	   20.88	 -361.38	   15.28
    119.6825	   28.00	   20.79	 -349.29	   15.28
    119.7159	   22.00	   20.71	 -355.21	   15.28
    119.7493	   21.00	   20.64	 -356.14	   15.28
    119.7828	   21.00	   20.58	 -356.08	   15.28
    119.8162	   21.00	   20.53	 -356.03	   15.28
    119.8496	   19.00	   20.49	 -357.99	   15.28
    119.8830	   25.00	   20.45	 -351.95	   15.28
    119.9165	   19.00	   20.42	 -357.92	   15.28
    119.9499	   12.00	   20.40	 -364.90	   15.28
    119.9833	   17.00	   20.80	 -360.30	   15.28
     18.2601	        	        	        	        	       0	(  1  1  1)	  0  1 :  1
     18.3055	        	        	        	        	       0	(  1  1  1)	  0  2 :  1
     30.0515	        	        	        	        	       0	(  0  2  2)	  0  1 :  1
     30.1272	        	        	        	        	       0	(  0  2  2)	  0  2 :  1
     35.4008	        	        	        	        	       0	(  1  1  3)	  0  1 :  1
     35.4908	        	        	        	        	       0	(  1  1  3)	  0  2 :  1
     37.0319	        	        	        	        	       0	(  2  2  2)	  0  1 :  1
     37.1264	        	        	        	        	       0	(  2  2  2)	  0  2 :  1
     43.0285	        	        	        	        	       0	(  0  0  4)	  0  1 :  1
     43.1397	        	        	        	        	       0	(  0  0  4)	  0  2 :  1
     47.1137	        	        	        	        	       0	(  1  3  3)	  0  1 :  1
     47.2367	        	        	        	        	       0	(  1  3  3)	  0  2 :  1
     53.3858	        	        	        	        	       0	(  4  2  2)	  0  1 :  1
     53.5276	        	        	        	        	       0	(  4  2  2)	  0  2 :  1
     56.9105	        	        	        	        	       0	(  1  1  5)	  0  1 :  1
     56.9105	        	        	        	        	       0	(  3  3  3)	  0  1 :  1
     57.0634	        	        	        	        	       0	(  1  1  5)	  0  2 :  1
     57.0634	        	        	        	        	       0	(  3  3  3)	  0  2 :  1
     62.4956	        	        	        	        	       0	(  4  4  0)	  0  1 :  1
     62.6668	        	        	        	        	       0	(  4  4  0)	  0  2 :  1
     65.7112	        	        	        	        	       0	(  3  1  5)	  0  1 :  1
     65.8934	        	        	        	        	       0	(  3  1  5)	  0  2 :  1
     66.7646	        	        	        	        	       0	(  4  2  4)	  0  1 :  1
     66.9506	        	        	        	        	       0	(  4  2  4)	  0  2 :  1
     70.9012	        	        	        	        	       0	(  0  2  6)	  0  1 :  1
     71.1021	        	        	        	        	       0	(  0  2  6)	  0  2 :  1
     73.9359	        	        	        	        	       0	(  5  3  3)	  0  1 :  1
     74.1483	        	        	        	        	       0	(  5  3  3)	  0  2 :  1
     74.9368	        	        	        	        	       0	(  2  2  6)	  0  1 :  1
     75.1531	        	        	        	        	       0	(  2  2  6)	  0  2 :  1
     78.8973	        	        	        	        	       0	(  4  4  4)	  0  1 :  1
     79.1295	        	        	        	        	       0	(  4  4  4)	  0  2 :  1
     81.8317	        	        	        	        	       0	(  1  1  7)	  0  1 :  1
     81.8317	        	        	        	        	       0	(  5  1  5)	  0  1 :  1
     82.0764	        	        	        	        	       0	(  1  1  7)	  0  2 :  1
     82.0764	        	        	        	        	       0	(  5  1  5)	  0  2 :  1
     86.6789	        	        	        	        	       0	(  2  4  6)	  0  1 :  1
     86.9453	        	        	        	        	       0	(  2  4  6)	  0  2 :  1
     89.5737	        	        	        	        	       0	(  5  3  5)	  0  1 :  1
     89.5737	        	        	        	        	       0	(  7  3  1)	  0  1 :  1
     89.8539	        	        	        	        	       0	(  5  3  5)	  0  2 :  1
     89.8539	        	        	        	        	       0	(  7  3  1)	  0  2 :  1
     94.3996	        	        	        	        	       0	(  0  8  0)	  0  1 :  1
     94.7046	        	        	        	        	       0	(  0  8  0)	  0  2 :  1
     97.3081	        	        	        	        	       0	(  7  3  3)	  0  1 :  1
     97.6292	        	        	        	        	       0	(  7  3  3)	  0  2 :  1
     98.2815	        	        	        	        	       0	(  6  4  4)	  0  1 :  1
     98.6081	        	        	        	        	       0	(  6  4  4)	  0  2 :  1
    102.2022	        	        	        	        	       0	(  2  8  2)	  0  1 :  1
    102.2022	        	        	        	        	       0	(  0  6  6)	  0  1 :  1
    102.5524	        	        	        	        	       0	(  2  8  2)	  0  2 :  1
    102.5524	        	        	        	        	       0	(  0  6  6)	  0  2 :  1
    105.1803	        	        	        	        	       0	(  7  5  1)	  0  1 :  1
    105.1803	        	        	        	        	       0	(  5  5  5)	  0  1 :  1
    105.5499	        	        	        	        	       0	(  7  5  1)	  0  2 :  1
    105.5499	        	        	        	        	       0	(  5  5  5)	  0  2 :  1
    106.1820	        	        	        	        	       0	(  2  6  6)	  0  1 :  1
    106.5584	        	        	        	        	       0	(  2  6  6)	  0  2 :  1
    110.2440	        	        	        	        	       0	(  0  8  4)	  0  1 :  1
    110.6496	        	        	        	        	       0	(  0  8  4)	  0  2 :  1
    113.3605	        	        	        	        	       0	(  7  3  5)	  0  1 :  1
    113.3605	        	        	        	        	       0	(  9  1  1)	  0  1 :  1
    113.7908	        	        	        	        	       0	(  7  3  5)	  0  2 :  1
    113.7908	        	        	        	        	       0	(  9  1  1)	  0  2 :  1
    114.4154	        	        	        	        	       0	(  2  8  4)	  0  1 :  1
    114.8544	        	        	        	        	       0	(  2  8  4)	  0  2 :  1
    118.7298	        	        	        	        	       0	(  4  6  6)	  0  1 :  1
    119.2077	        	        	        	        	       0	(  4  6  6)	  0  2 :  1
    122.0851	        	        	        	        	       0	(  9  1  3)	  0  1 :  1
    122.5969	        	        	        	        	       0	(  9  1  3)	  0  2 :  1
    127.9770	        	        	        	        	       0	(  4  8  4)	  0  1 :  1
    128.5580	        	        	        	        	       0	(  4  8  4)	  0  2 :  1
    131.7473	        	        	        	        	       0	(  7  5  5)	  0  1 :  1
    131.7473	        	        	        	        	       0	(  7  7  1)	  0  1 :  1
    131.7473	        	        	        	        	       0	(  3  3  9)	  0  1 :  1
    132.3809	        	        	        	        	       0	(  7  5  5)	  0  2 :  1
    132.3809	        	        	        	        	       0	(  7  7  1)	  0  2 :  1
    132.3809	        	        	        	        	       0	(  3  3  9)	  0  2 :  1
    138.5917	        	        	        	        	       0	(  8  2  6)	  0  1 :  1
    138.5917	        	        	        	        	       0	( 10  2  0)	  0  1 :  1
    139.3445	        	        	        	        	       0	(  8  2  6)	  0  2 :  1
    139.3445	        	        	        	        	       0	( 10  2  0)	  0  2 :  1
    143.1796	        	        	        	        	       0	(  5  1  9)	  0  1 :  1
    143.1796	        	        	        	        	       0	(  7  3  7)	  0  1 :  1
    144.0365	        	        	        	        	       0	(  5  1  9)	  0  2 :  1
    144.0365	        	        	        	        	       0	(  7  3  7)	  0  2 :  1
    144.8206	        	        	        	        	       0	( 10  2  2)	  0  1 :  1
    144.8206	        	        	        	        	       0	(  6  6  6)	  0  1 :  1
    145.7214	        	        	        	        	       0	( 10  2  2)	  0  2 :  1
    145.7214	        	        	        	        	       0	(  6  6  6)	  0  2 :  1
