 Fe3O4   Chi2:  3.1369  CELL:    8.39205   8.39205   8.39205   90.0000   90.0000   90.0000   SPGR: 227:1                  TEMP:      0.00
  1   2543     1.54060     1.54439     0.00000     0.03480     0.00000    0
    84     0     1
       0.00000      15.00000
 2Theta	Yobs	Ycal	Yobs-Ycal	Backg	Posr	(hkl)	K
     15.0167	  370.00	  368.33	 -306.58	  355.15
     15.0501	  394.00	  368.34	 -282.59	  355.15
     15.0836	  366.00	  368.35	 -310.60	  355.15
     15.1170	  379.00	  368.37	 -297.62	  355.15
     15.1504	  342.00	  368.38	 -334.63	  355.15
     15.1838	  378.00	  368.61	 -298.86	  355.37
     15.2172	  413.00	  367.41	 -262.66	  354.15
     15.2507	  348.00	  366.20	 -326.45	  352.93
     15.2841	  429.00	  365.00	 -244.25	  351.71
     15.3175	  360.00	  363.80	 -312.05	  350.50
     15.3509	  381.00	  362.60	 -289.85	  349.28
     15.3844	  395.00	  361.40	 -274.65	  348.06
     15.4178	  372.00	  360.19	 -296.44	  346.84
     15.4512	  365.00	  358.99	 -302.24	  345.62
     15.4846	  338.00	  357.80	 -328.05	  344.40
     15.5180	  383.00	  356.60	 -281.85	  343.18
     15.5515	  326.00	  355.40	 -337.65	  341.96
     15.5849	  364.00	  354.20	 -298.45	  340.74
     15.6183	  352.00	  353.00	 -309.25	  339.52
     15.6517	  368.00	  351.81	 -292.06	  338.31
     15.6852	  330.00	  350.61	 -328.86	  337.09
     15.7186	  387.00	  349.42	 -270.67	  335.87
     15.7520	  374.00	  348.23	 -282.48	  334.65
     15.7854	  352.00	  347.04	 -303.29	  333.43
     15.8189	  396.00	  345.84	 -258.09	  332.21
     15.8523	  365.00	  344.65	 -287.90	  330.99
     15.8857	  359.00	  343.47	 -292.72	  329.77
     15.9191	  371.00	  342.28	 -279.53	  328.55
     15.9525	  336.00	  341.09	 -313.34	  327.33
     15.9860	  353.00	  339.91	 -295.16	  326.12
     16.0194	  354.00	  338.73	 -292.98	  324.90
     16.0528	  425.00	  337.54	 -220.79	  323.68
     16.0862	  369.00	  336.19	 -275.44	  322.29
     16.1197	  346.00	  334.83	 -297.08	  320.88
     16.1531	  348.00	  333.46	 -293.71	  319.47
     16.1865	  359.00	  332.10	 -281.35	  318.06
     16.2199	  350.00	  330.74	 -288.99	  316.66
     16.2533	  344.00	  329.38	 -293.63	  315.25
     16.2868	  307.00	  328.02	 -329.27	  313.84
     16.3202	  340.00	  326.67	 -294.92	  312.43
     16.3536	  360.00	  325.32	 -273.57	  311.02
     16.3870	  344.00	  323.97	 -288.22	  309.62
     16.4205	  341.00	  322.62	 -289.87	  308.21
     16.4539	  372.00	  321.28	 -257.53	  306.80
     16.4873	  317.00	  319.94	 -311.19	  305.39
     16.5207	  338.00	  318.61	 -288.86	  303.98
     16.5541	  345.00	  317.27	 -280.52	  302.58
     16.5876	  329.00	  315.95	 -295.20	  301.17
     16.6210	  367.00	  314.63	 -255.88	  299.76
     16.6544	  338.00	  313.31	 -283.56	  298.35
     16.6878	  340.00	  312.00	 -280.25	  296.94
     16.7213	  322.00	  310.69	 -296.94	  295.54
     16.7547	  353.00	  309.39	 -264.64	  294.13
     16.7881	  353.00	  308.10	 -263.35	  292.72
     16.8215	  288.00	  306.82	 -327.07	  291.31
     16.8549	  324.00	  305.71	 -289.96	  290.07
     16.8884	  373.00	  304.94	 -240.19	  289.16
     16.9218	  357.00	  304.18	 -255.43	  288.25
     16.9552	  314.00	  303.43	 -297.68	  287.34
     16.9886	  338.00	  302.69	 -272.94	  286.43
     17.0221	  367.00	  301.96	 -243.21	  285.52
     17.0555	  327.00	  301.25	 -282.50	  284.61
     17.0889	  320.00	  300.55	 -288.80	  283.70
     17.1223	  350.00	  299.87	 -258.12	  282.79
     17.1558	  336.00	  299.21	 -271.46	  281.88
     17.1892	  330.00	  298.57	 -276.82	  280.98
     17.2226	  326.00	  297.96	 -280.21	  280.07
     17.2560	  340.00	  297.36	 -265.61	  279.16
     17.2894	  316.00	  296.80	 -289.05	  278.25
     17.3229	  328.00	  296.27	 -276.52	  277.34
     17.3563	  341.00	  295.78	 -263.03	  276.43
     17.3897	  352.00	  295.32	 -251.57	  275.52
     17.4231	  349.00	  294.92	 -254.17	  274.61
     17.4566	  329.00	  294.56	 -273.81	  273.70
     17.4900	  298.00	  294.27	 -304.52	  272.79
     17.5234	  323.00	  294.04	 -279.29	  271.88
     17.5568	  327.00	  293.90	 -275.15	  270.97
     17.5902	  325.00	  293.85	 -277.10	  270.06
     17.6237	  307.00	  293.90	 -295.15	  269.15
     17.6571	  316.00	  294.09	 -286.34	  268.24
     17.6905	  319.00	  294.42	 -283.67	  267.33
     17.7239	  298.00	  294.93	 -305.18	  266.42
     17.7574	  352.00	  295.66	 -251.91	  265.51
     17.7908	  285.00	  296.64	 -319.89	  264.60
     17.8242	  307.00	  297.94	 -299.19	  263.69
     17.8576	  306.00	  299.60	 -301.85	  262.78
     17.8910	  275.00	  301.72	 -334.97	  261.87
     17.9245	  280.00	  304.37	 -332.62	  260.96
     17.9579	  307.00	  307.70	 -308.95	  260.08
     17.9913	  334.00	  311.87	 -286.12	  259.28
     18.0247	  313.00	  316.92	 -312.17	  258.48
     18.0582	  356.00	  323.00	 -275.25	  257.67
     18.0916	  299.00	  330.20	 -339.45	  256.87
     18.1250	  300.00	  338.58	 -346.83	  256.06
     18.1584	  310.00	  348.07	 -346.32	  255.26
     18.1919	  325.00	  358.37	 -341.62	  254.45
     18.2253	  343.00	  368.87	 -334.12	  253.65
     18.2587	  306.00	  378.54	 -380.79	  252.84
     18.2921	  343.00	  386.06	 -351.31	  252.04
     18.3255	  392.00	  390.05	 -306.30	  251.23
     18.3590	  375.00	  389.63	 -322.88	  250.43
     18.3924	  338.00	  384.72	 -354.97	  249.63
     18.4258	  353.00	  376.12	 -331.37	  248.82
     18.4592	  315.00	  365.13	 -358.38	  248.02
     18.4927	  350.00	  353.12	 -311.37	  247.21
     18.5261	  321.00	  341.14	 -328.39	  246.41
     18.5595	  321.00	  329.89	 -317.14	  245.60
     18.5929	  302.00	  319.70	 -325.95	  244.80
     18.6263	  268.00	  310.69	 -350.94	  243.99
     18.6598	  295.00	  302.81	 -316.06	  243.19
     18.6932	  271.00	  295.97	 -333.22	  242.38
     18.7266	  283.00	  290.04	 -315.29	  241.58
     18.7600	  304.00	  284.90	 -289.15	  240.77
     18.7935	  298.00	  280.43	 -290.68	  239.97
     18.8269	  285.00	  276.51	 -299.76	  239.17
     18.8603	  284.00	  273.05	 -297.30	  238.36
     18.8937	  272.00	  269.98	 -306.23	  237.56
     18.9271	  275.00	  267.23	 -300.48	  236.75
     18.9606	  284.00	  264.75	 -289.00	  235.95
     18.9940	  275.00	  262.48	 -295.73	  235.14
     19.0274	  241.00	  260.40	 -327.65	  234.34
     19.0608	  277.00	  258.48	 -289.73	  233.53
     19.0943	  232.00	  256.69	 -332.94	  232.73
     19.1277	  259.00	  255.01	 -304.26	  231.92
     19.1611	  265.00	  253.29	 -296.54	  230.99
     19.1945	  286.00	  251.65	 -273.90	  230.05
     19.2280	  284.00	  250.08	 -274.33	  229.11
     19.2614	  253.00	  248.58	 -303.83	  228.17
     19.2948	  253.00	  247.13	 -302.38	  227.23
     19.3282	  253.00	  245.72	 -300.97	  226.29
     19.3616	  237.00	  244.36	 -315.61	  225.35
     19.3951	  263.00	  243.04	 -288.29	  224.41
     19.4285	  218.00	  241.75	 -332.00	  223.48
     19.4619	  229.00	  240.48	 -319.73	  222.54
     19.4953	  229.00	  239.25	 -318.50	  221.60
     19.5288	  225.00	  238.04	 -321.29	  220.66
     19.5622	  267.00	  236.85	 -278.10	  219.72
     19.5956	  243.00	  235.67	 -300.92	  218.78
     19.6290	  259.00	  234.52	 -283.77	  217.84
     19.6624	  232.00	  233.38	 -309.63	  216.91
     19.6959	  263.00	  232.25	 -277.50	  215.97
     19.7293	  226.00	  231.14	 -313.39	  215.03
     19.7627	  248.00	  230.04	 -290.29	  214.09
     19.7961	  233.00	  228.95	 -304.20	  213.15
     19.8296	  263.00	  227.87	 -273.12	  212.21
     19.8630	  236.00	  226.80	 -299.05	  211.27
     19.8964	  248.00	  225.74	 -285.99	  210.34
     19.9298	  210.00	  224.68	 -322.93	  209.40
     19.9632	  240.00	  223.63	 -291.88	  208.46
     19.9967	  209.00	  222.59	 -321.84	  207.52
     20.0301	  205.00	  221.55	 -324.80	  206.58
     20.0635	  215.00	  220.52	 -313.77	  205.64
     20.0969	  234.00	  219.50	 -293.75	  204.70
     20.1304	  236.00	  218.48	 -290.73	  203.76
     20.1638	  240.00	  217.46	 -285.71	  202.83
     20.1972	  218.00	  216.45	 -306.70	  201.89
     20.2306	  255.00	  215.44	 -268.69	  200.95
     20.2640	  224.00	  214.43	 -298.68	  200.01
     20.2975	  199.00	  213.43	 -322.68	  199.07
     20.3309	  238.00	  212.61	 -282.86	  198.31
     20.3643	  197.00	  211.89	 -323.14	  197.64
     20.3977	  216.00	  211.16	 -303.41	  196.97
     20.4312	  255.00	  210.44	 -263.69	  196.30
     20.4646	  228.00	  209.72	 -289.97	  195.63
     20.4980	  234.00	  209.00	 -283.25	  194.96
     20.5314	  228.00	  208.29	 -288.54	  194.29
     20.5649	  214.00	  207.57	 -301.82	  193.62
     20.5983	  256.00	  206.86	 -259.11	  192.95
     20.6317	  224.00	  206.15	 -290.40	  192.28
     20.6651	  221.00	  205.44	 -292.69	  191.61
     20.6985	  226.00	  204.74	 -286.99	  190.94
     20.7320	  205.00	  204.03	 -307.28	  190.27
     20.7654	  213.00	  203.33	 -298.58	  189.60
     20.7988	  248.00	  202.62	 -262.87	  188.92
     20.8322	  210.00	  201.92	 -300.17	  188.25
     20.8657	  212.00	  201.22	 -297.47	  187.58
     20.8991	  184.00	  200.52	 -324.77	  186.91
     20.9325	  203.00	  199.83	 -305.08	  186.24
     20.9659	  219.00	  199.13	 -288.38	  185.57
     20.9993	  196.00	  198.43	 -310.68	  184.90
     21.0328	  222.00	  197.74	 -283.99	  184.23
     21.0662	  247.00	  197.05	 -258.30	  183.56
     21.0996	  214.00	  196.35	 -290.60	  182.89
     21.1330	  223.00	  195.66	 -280.91	  182.22
     21.1665	  213.00	  194.97	 -290.22	  181.55
     21.1999	  222.00	  194.28	 -280.53	  180.88
     21.2333	  207.00	  193.59	 -294.84	  180.21
     21.2667	  208.00	  192.90	 -293.15	  179.54
     21.3001	  191.00	  192.21	 -309.46	  178.87
     21.3336	  199.00	  191.52	 -300.77	  178.20
     21.3670	  191.00	  190.83	 -308.08	  177.53
     21.4004	  209.00	  190.15	 -289.40	  176.86
     21.4338	  220.00	  189.46	 -277.71	  176.19
     21.4673	  185.00	  188.77	 -312.02	  175.52
     21.5007	  214.00	  188.13	 -282.38	  174.89
     21.5341	  215.00	  187.57	 -280.82	  174.34
     21.5675	  212.00	  187.02	 -283.27	  173.80
     21.6010	  174.00	  186.46	 -320.71	  173.26
     21.6344	  193.00	  185.91	 -301.16	  172.72
     21.6678	  200.00	  185.35	 -293.60	  172.18
     21.7012	  192.00	  184.80	 -301.05	  171.64
     21.7346	  185.00	  184.25	 -307.50	  171.10
     21.7681	  207.00	  183.69	 -284.94	  170.55
     21.8015	  205.00	  183.14	 -286.39	  170.01
     21.8349	  203.00	  182.59	 -287.84	  169.47
     21.8683	  179.00	  182.03	 -311.28	  168.93
     21.9018	  200.00	  181.48	 -289.73	  168.39
     21.9352	  219.00	  180.93	 -270.18	  167.85
     21.9686	  222.00	  180.38	 -266.63	  167.30
     22.0020	  179.00	  179.83	 -309.08	  166.76
     22.0354	  208.00	  179.28	 -279.53	  166.22
     22.0689	  177.00	  178.73	 -309.98	  165.68
     22.1023	  171.00	  178.18	 -315.43	  165.14
     22.1357	  179.00	  177.63	 -306.88	  164.60
     22.1691	  208.00	  177.08	 -277.33	  164.06
     22.2026	  214.00	  176.53	 -270.78	  163.51
     22.2360	  184.00	  175.98	 -300.23	  162.97
     22.2694	  175.00	  175.43	 -308.68	  162.43
     22.3028	  184.00	  174.88	 -299.13	  161.89
     22.3362	  181.00	  174.33	 -301.58	  161.35
     22.3697	  184.00	  173.78	 -298.03	  160.81
     22.4031	  183.00	  173.23	 -298.48	  160.27
     22.4365	  163.00	  172.68	 -317.93	  159.72
     22.4699	  178.00	  172.13	 -302.38	  159.18
     22.5034	  183.00	  171.59	 -296.84	  158.64
     22.5368	  185.00	  171.04	 -294.29	  158.10
     22.5702	  194.00	  170.49	 -284.74	  157.56
     22.6036	  174.00	  169.94	 -304.19	  157.02
     22.6371	  162.00	  169.40	 -315.65	  156.47
     22.6705	  149.00	  168.85	 -328.10	  155.93
     22.7039	  180.00	  168.30	 -296.55	  155.39
     22.7373	  179.00	  167.75	 -297.00	  154.85
     22.7707	  179.00	  167.21	 -296.46	  154.31
     22.8042	  177.00	  166.66	 -297.91	  153.77
     22.8376	  157.00	  166.11	 -317.36	  153.23
     22.8710	  178.00	  165.57	 -295.82	  152.68
     22.9044	  168.00	  165.02	 -305.27	  152.14
     22.9379	  171.00	  164.47	 -301.72	  151.60
     22.9713	  182.00	  163.93	 -290.18	  151.06
     23.0047	  176.00	  163.38	 -295.63	  150.52
     23.0381	  198.00	  162.83	 -273.08	  149.98
     23.0715	  182.00	  162.29	 -288.54	  149.43
     23.1050	  197.00	  161.74	 -272.99	  148.89
     23.1384	  182.00	  161.20	 -287.45	  148.35
     23.1718	  199.00	  160.65	 -269.90	  147.81
     23.2052	  175.00	  160.11	 -293.36	  147.27
     23.2387	  168.00	  159.56	 -299.81	  146.73
     23.2721	  154.00	  159.01	 -313.26	  146.19
     23.3055	  155.00	  158.47	 -311.72	  145.64
     23.3389	  179.00	  157.92	 -287.17	  145.10
     23.3723	  177.00	  157.38	 -288.63	  144.56
     23.4058	  172.00	  156.83	 -293.08	  144.02
     23.4392	  170.00	  156.29	 -294.54	  143.48
     23.4726	  167.00	  155.74	 -296.99	  142.94
     23.5060	  182.00	  155.20	 -281.45	  142.39
     23.5395	  142.00	  154.66	 -320.91	  141.86
     23.5729	  161.00	  154.26	 -301.51	  141.46
     23.6063	  160.00	  153.85	 -302.10	  141.06
     23.6397	  167.00	  153.44	 -294.69	  140.65
     23.6731	  164.00	  153.04	 -297.29	  140.25
     23.7066	  160.00	  152.63	 -300.88	  139.85
     23.7400	  153.00	  152.23	 -307.48	  139.45
     23.7734	  155.00	  151.82	 -305.07	  139.05
     23.8068	  175.00	  151.42	 -284.67	  138.64
     23.8403	  154.00	  151.01	 -305.26	  138.24
     23.8737	  170.00	  150.61	 -288.86	  137.84
     23.9071	  175.00	  150.20	 -283.45	  137.44
     23.9405	  179.00	  149.80	 -279.05	  137.03
     23.9740	  193.00	  149.39	 -264.64	  136.63
     24.0074	  171.00	  148.99	 -286.24	  136.23
     24.0408	  185.00	  148.58	 -271.83	  135.83
     24.0742	  172.00	  147.96	 -284.21	  135.42
     24.1076	  169.00	  147.56	 -286.81	  135.02
     24.1411	  189.00	  147.16	 -266.41	  134.62
     24.1745	  172.00	  146.76	 -283.01	  134.22
     24.2079	  223.00	  146.36	 -231.61	  133.82
     24.2413	  200.00	  145.95	 -254.20	  133.41
     24.2748	  153.00	  145.55	 -300.80	  133.01
     24.3082	  169.00	  145.15	 -284.40	  132.61
     24.3416	  166.00	  144.75	 -287.00	  132.21
     24.3750	  181.00	  144.34	 -271.59	  131.80
     24.4084	  177.00	  144.57	 -275.82	  131.40
     24.4419	  182.00	  144.18	 -270.43	  131.00
     24.4753	  145.00	  144.09	 -307.34	  130.60
     24.5087	  167.00	  143.70	 -284.95	  130.20
     24.5421	  158.00	  143.31	 -293.56	  129.79
     24.5756	  141.00	  142.92	 -310.17	  129.39
     24.6090	  135.00	  142.53	 -315.78	  128.99
     24.6424	  154.00	  142.14	 -296.39	  128.59
     24.6758	  149.00	  141.75	 -301.00	  128.18
     24.7092	  154.00	  141.36	 -295.61	  127.78
     24.7427	  135.00	  140.97	 -314.22	  127.38
     24.7761	  142.00	  140.58	 -306.83	  126.98
     24.8095	  136.00	  140.19	 -312.44	  126.57
     24.8429	  141.00	  139.81	 -307.06	  126.17
     24.8764	  123.00	  139.42	 -324.67	  125.77
     24.9098	  141.00	  139.03	 -306.28	  125.37
     24.9432	  145.00	  138.64	 -301.89	  124.97
     24.9766	  133.00	  138.25	 -313.50	  124.56
     25.0100	  145.00	  137.87	 -301.12	  124.16
     25.0435	  142.00	  137.48	 -303.73	  123.76
     25.0769	  160.00	  137.09	 -285.34	  123.36
     25.1103	  143.00	  136.71	 -301.96	  122.95
     25.1437	  155.00	  136.32	 -289.57	  122.55
     25.1772	  143.00	  135.93	 -301.18	  122.15
     25.2106	  120.00	  135.55	 -323.80	  121.75
     25.2440	  156.00	  135.16	 -287.41	  121.35
     25.2774	  136.00	  134.78	 -307.03	  120.94
     25.3109	  136.00	  134.39	 -306.64	  120.54
     25.3443	  139.00	  134.01	 -303.26	  120.14
     25.3777	  154.00	  133.63	 -287.88	  119.74
     25.4111	  126.00	  133.24	 -315.49	  119.33
     25.4445	  127.00	  132.86	 -314.11	  118.93
     25.4780	  133.00	  132.48	 -307.73	  118.53
     25.5114	  108.00	  132.13	 -332.38	  118.16
     25.5448	  174.00	  131.98	 -266.23	  117.99
     25.5782	  129.00	  131.84	 -311.09	  117.83
     25.6117	  148.00	  131.69	 -291.94	  117.66
     25.6451	  147.00	  131.55	 -292.80	  117.49
     25.6785	  122.00	  131.40	 -317.65	  117.32
     25.7119	  124.00	  131.26	 -315.51	  117.16
     25.7453	  138.00	  131.11	 -301.36	  116.99
     25.7788	  152.00	  130.97	 -287.22	  116.82
     25.8122	  140.00	  130.83	 -299.08	  116.65
     25.8456	  125.00	  130.68	 -313.93	  116.49
     25.8790	  117.00	  130.54	 -321.79	  116.32
     25.9125	  125.00	  130.40	 -313.65	  116.15
     25.9459	  139.00	  130.26	 -299.51	  115.98
     25.9793	  124.00	  130.12	 -314.37	  115.82
     26.0127	  143.00	  129.98	 -295.23	  115.65
     26.0461	  122.00	  129.84	 -316.09	  115.48
     26.0796	  135.00	  129.71	 -302.96	  115.31
     26.1130	  116.00	  129.57	 -321.82	  115.15
     26.1464	  131.00	  129.43	 -306.68	  114.98
     26.1798	  123.00	  129.30	 -314.55	  114.81
     26.2133	  147.00	  129.16	 -290.41	  114.64
     26.2467	  133.00	  129.03	 -304.28	  114.47
     26.2801	  128.00	  128.90	 -309.15	  114.31
     26.3135	  155.00	  128.76	 -282.01	  114.14
     26.3470	  128.00	  128.63	 -308.88	  113.97
     26.3804	  123.00	  128.50	 -313.75	  113.80
     26.4138	  129.00	  128.37	 -307.62	  113.64
     26.4472	  140.00	  128.25	 -296.50	  113.47
     26.4806	  131.00	  128.12	 -305.37	  113.30
     26.5141	  127.00	  127.99	 -309.24	  113.13
     26.5475	  108.00	  127.87	 -328.12	  112.97
     26.5809	  127.00	  127.74	 -308.99	  112.80
     26.6143	  139.00	  127.62	 -296.87	  112.63
     26.6478	  123.00	  127.50	 -312.75	  112.46
     26.6812	  138.00	  127.38	 -297.63	  112.30
     26.7146	  137.00	  127.26	 -298.51	  112.13
     26.7480	  141.00	  127.15	 -294.40	  111.96
     26.7814	  143.00	  127.03	 -292.28	  111.79
     26.8149	  122.00	  126.92	 -313.17	  111.63
     26.8483	  156.00	  126.80	 -279.05	  111.46
     26.8817	  121.00	  126.69	 -313.94	  111.29
     26.9151	  120.00	  126.59	 -314.84	  111.12
     26.9486	  136.00	  126.48	 -298.73	  110.95
     26.9820	  163.00	  126.37	 -271.62	  110.79
     27.0154	  136.00	  126.27	 -298.52	  110.62
     27.0488	  116.00	  126.17	 -318.42	  110.45
     27.0822	  132.00	  126.07	 -302.32	  110.28
     27.1157	  126.00	  125.97	 -308.22	  110.12
     27.1491	  118.00	  125.88	 -316.13	  109.95
     27.1825	  113.00	  125.79	 -321.04	  109.78
     27.2159	  124.00	  125.70	 -309.95	  109.61
     27.2494	  124.00	  125.61	 -309.86	  109.45
     27.2828	  135.00	  125.53	 -298.78	  109.28
     27.3162	  124.00	  125.45	 -309.70	  109.11
     27.3496	  135.00	  125.37	 -298.62	  108.94
     27.3830	  102.00	  125.30	 -331.55	  108.78
     27.4165	  148.00	  125.38	 -285.63	  108.76
     27.4499	  132.00	  125.57	 -301.82	  108.85
     27.4833	  124.00	  125.77	 -310.02	  108.95
     27.5167	  113.00	  125.97	 -321.22	  109.04
     27.5502	  126.00	  126.17	 -308.42	  109.13
     27.5836	  112.00	  126.38	 -322.63	  109.22
     27.6170	  123.00	  126.59	 -311.84	  109.31
     27.6504	  117.00	  126.81	 -318.06	  109.40
     27.6839	  132.00	  127.03	 -303.28	  109.49
     27.7173	  123.00	  127.25	 -312.50	  109.59
     27.7507	  117.00	  127.49	 -318.74	  109.68
     27.7841	  141.00	  127.73	 -294.98	  109.77
     27.8175	  163.00	  127.97	 -273.22	  109.86
     27.8510	  139.00	  128.22	 -297.47	  109.95
     27.8844	  148.00	  128.48	 -288.73	  110.04
     27.9178	  143.00	  128.75	 -294.00	  110.13
     27.9512	  128.00	  129.02	 -309.27	  110.23
     27.9847	  165.00	  129.30	 -272.55	  110.32
     28.0181	  127.00	  129.59	 -310.84	  110.41
     28.0515	  128.00	  129.89	 -310.14	  110.50
     28.0849	  125.00	  130.20	 -313.45	  110.59
     28.1183	  129.00	  130.52	 -309.77	  110.68
     28.1518	  139.00	  130.85	 -300.10	  110.77
     28.1852	  145.00	  131.19	 -294.44	  110.87
     28.2186	  134.00	  131.55	 -305.80	  110.96
     28.2520	  154.00	  131.92	 -286.17	  111.05
     28.2855	  143.00	  132.30	 -297.55	  111.14
     28.3189	  141.00	  132.70	 -299.95	  111.23
     28.3523	  162.00	  133.12	 -279.37	  111.32
     28.3857	  148.00	  133.55	 -293.80	  111.41
     28.4191	  150.00	  134.01	 -292.26	  111.51
     28.4526	  135.00	  134.48	 -307.73	  111.60
     28.4860	  132.00	  134.98	 -311.23	  111.69
     28.5194	  134.00	  135.50	 -309.75	  111.78
     28.5528	  138.00	  136.04	 -306.29	  111.87
     28.5863	  124.00	  136.61	 -320.86	  111.96
     28.6197	  131.00	  137.22	 -314.47	  112.05
     28.6531	  129.00	  137.85	 -317.10	  112.15
     28.6865	  155.00	  138.53	 -291.78	  112.24
     28.7200	  140.00	  139.24	 -307.49	  112.33
     28.7534	  120.00	  139.99	 -328.24	  112.42
     28.7868	  132.00	  140.79	 -317.04	  112.51
     28.8202	  167.00	  141.63	 -282.88	  112.60
     28.8536	  146.00	  142.54	 -304.79	  112.69
     28.8871	  137.00	  143.50	 -314.75	  112.79
     28.9205	  147.00	  144.53	 -305.78	  112.88
     28.9539	  153.00	  145.63	 -300.88	  112.97
     28.9873	  176.00	  146.81	 -279.06	  113.06
     29.0208	  156.00	  148.08	 -300.33	  113.15
     29.0542	  145.00	  149.45	 -312.70	  113.24
     29.0876	  157.00	  150.93	 -302.18	  113.33
     29.1210	  155.00	  152.54	 -305.79	  113.43
     29.1544	  157.00	  154.42	 -305.67	  113.67
     29.1879	  166.00	  156.51	 -298.76	  113.95
     29.2213	  161.00	  158.77	 -306.02	  114.24
     29.2547	  168.00	  161.23	 -301.48	  114.53
     29.2881	  168.00	  163.91	 -304.16	  114.82
     29.3216	  187.00	  166.84	 -288.09	  115.10
     29.3550	  156.00	  170.05	 -322.30	  115.39
     29.3884	  156.00	  173.60	 -325.85	  115.68
     29.4218	  191.00	  177.51	 -294.76	  115.97
     29.4552	  180.00	  181.86	 -310.11	  116.25
     29.4887	  184.00	  186.70	 -310.95	  116.54
     29.5221	  186.00	  192.10	 -314.35	  116.83
     29.5555	  197.00	  198.16	 -309.41	  117.11
     29.5889	  192.00	  204.96	 -321.21	  117.40
     29.6224	  215.00	  212.61	 -305.86	  117.69
     29.6558	  227.00	  221.23	 -302.48	  117.98
     29.6892	  203.00	  233.41	 -338.66	  118.26
     29.7226	  213.00	  244.41	 -339.66	  118.55
     29.7561	  258.00	  256.78	 -307.03	  118.84
     29.7895	  256.00	  271.88	 -324.13	  119.13
     29.8229	  275.00	  287.38	 -320.63	  119.41
     29.8563	  279.00	  304.51	 -333.76	  119.70
     29.8897	  285.00	  323.20	 -346.45	  119.99
     29.9232	  309.00	  343.22	 -342.47	  120.28
     29.9566	  307.00	  364.09	 -365.34	  120.56
     29.9900	  379.00	  385.06	 -314.31	  120.85
     30.0234	  394.00	  405.03	 -319.28	  121.14
     30.0569	  367.00	  422.65	 -363.90	  121.42
     30.0903	  433.00	  436.48	 -311.73	  121.71
     30.1237	  411.00	  445.19	 -342.44	  122.00
     30.1571	  497.00	  447.89	 -259.14	  122.29
     30.1905	  441.00	  444.35	 -311.60	  122.57
     30.2240	  420.00	  435.01	 -323.26	  122.86
     30.2574	  474.00	  420.91	 -255.16	  123.15
     30.2908	  369.00	  403.40	 -342.65	  123.44
     30.3242	  398.00	  383.90	 -294.15	  123.72
     30.3577	  409.00	  363.67	 -262.92	  124.01
     30.3911	  372.00	  343.71	 -279.96	  124.30
     30.4245	  349.00	  324.70	 -283.95	  124.59
     30.4579	  324.00	  307.05	 -291.30	  124.87
     30.4913	  285.00	  290.98	 -314.23	  125.16
     30.5248	  297.00	  276.52	 -287.77	  125.45
     30.5582	  306.00	  263.64	 -265.89	  125.73
     30.5916	  263.00	  252.23	 -297.48	  126.02
     30.6250	  283.00	  242.18	 -267.43	  126.31
     30.6585	  261.00	  233.33	 -280.58	  126.60
     30.6919	  254.00	  225.56	 -279.81	  126.88
     30.7253	  192.00	  218.73	 -334.98	  127.17
     30.7587	  196.00	  212.74	 -324.99	  127.46
     30.7921	  227.00	  207.47	 -288.72	  127.75
     30.8256	  200.00	  202.84	 -311.09	  128.03
     30.8590	  205.00	  198.76	 -302.01	  128.32
     30.8924	  197.00	  195.16	 -306.41	  128.61
     30.9258	  236.00	  191.98	 -264.23	  128.90
     30.9593	  210.00	  189.16	 -287.41	  129.18
     30.9927	  218.00	  186.67	 -276.92	  129.47
     31.0261	  213.00	  184.46	 -279.71	  129.76
     31.0595	  196.00	  182.49	 -294.74	  130.04
     31.0930	  240.00	  180.74	 -248.99	  130.33
     31.1264	  198.00	  179.19	 -289.44	  130.62
     31.1598	  232.00	  177.80	 -254.05	  130.91
     31.1932	  206.00	  176.57	 -278.82	  131.19
     31.2266	  197.00	  175.48	 -286.73	  131.48
     31.2601	  224.00	  174.50	 -258.75	  131.77
     31.2935	  167.00	  173.84	 -315.09	  132.06
     31.3269	  178.00	  173.08	 -303.33	  132.34
     31.3603	  194.00	  172.60	 -286.85	  132.82
     31.3938	  185.00	  172.35	 -295.60	  133.35
     31.4272	  201.00	  172.07	 -279.32	  133.87
     31.4606	  196.00	  171.87	 -284.12	  134.40
     31.4940	  145.00	  171.72	 -334.97	  134.93
     31.5274	  182.00	  171.63	 -297.88	  135.45
     31.5609	  183.00	  171.60	 -296.85	  135.98
     31.5943	  175.00	  171.61	 -304.86	  136.51
     31.6277	  151.00	  171.66	 -328.91	  137.03
     31.6611	  175.00	  171.76	 -305.01	  137.56
     31.6946	  178.00	  171.90	 -302.15	  138.09
     31.7280	  172.00	  172.07	 -308.32	  138.61
     31.7614	  145.00	  172.28	 -335.53	  139.14
     31.7948	  167.00	  172.52	 -313.77	  139.67
     31.8282	  169.00	  172.79	 -312.04	  140.19
     31.8617	  150.00	  173.08	 -331.33	  140.72
     31.8951	  171.00	  173.41	 -310.66	  141.25
     31.9285	  169.00	  173.75	 -313.00	  141.77
     31.9619	  161.00	  174.12	 -321.37	  142.30
     31.9954	  177.00	  174.52	 -305.77	  142.83
     32.0288	  194.00	  174.93	 -289.18	  143.35
     32.0622	  209.00	  175.37	 -274.62	  143.88
     32.0956	  191.00	  175.83	 -293.08	  144.41
     32.1291	  185.00	  176.30	 -299.55	  144.94
     32.1625	  215.00	  176.80	 -270.05	  145.46
     32.1959	  201.00	  177.31	 -284.56	  145.99
     32.2293	  242.00	  177.84	 -244.09	  146.52
     32.2627	  230.00	  178.39	 -256.64	  147.04
     32.2962	  278.00	  178.96	 -209.21	  147.57
     32.3296	  271.00	  179.54	 -216.79	  148.10
     32.3630	  286.00	  180.14	 -202.39	  148.62
     32.3964	  300.00	  180.75	 -189.00	  149.15
     32.4299	  299.00	  181.38	 -190.63	  149.68
     32.4633	  277.00	  181.90	 -213.15	  150.07
     32.4967	  268.00	  182.41	 -222.66	  150.44
     32.5301	  266.00	  182.92	 -225.17	  150.81
     32.5635	  253.00	  183.46	 -238.71	  151.17
     32.5970	  239.00	  184.01	 -253.26	  151.54
     32.6304	  238.00	  184.58	 -254.83	  151.90
     32.6638	  192.00	  185.16	 -301.41	  152.27
     32.6972	  203.00	  185.77	 -291.02	  152.63
     32.7307	  220.00	  186.39	 -274.64	  153.00
     32.7641	  204.00	  187.02	 -291.27	  153.37
     32.7975	  236.00	  187.68	 -259.93	  153.73
     32.8309	  199.00	  188.35	 -297.60	  154.10
     32.8643	  229.00	  189.05	 -268.30	  154.46
     32.8978	  225.00	  189.76	 -273.01	  154.83
     32.9312	  206.00	  190.49	 -292.74	  155.19
     32.9646	  229.00	  191.25	 -270.50	  155.56
     32.9980	  259.00	  192.03	 -241.28	  155.93
     33.0315	  220.00	  192.83	 -281.08	  156.29
     33.0649	  256.00	  193.65	 -245.90	  156.66
     33.0983	  264.00	  194.50	 -238.75	  157.02
     33.1317	  256.00	  195.37	 -247.62	  157.39
     33.1651	  292.00	  196.27	 -212.52	  157.75
     33.1986	  263.00	  197.20	 -242.45	  158.12
     33.2320	  283.00	  198.16	 -223.41	  158.49
     33.2654	  261.00	  199.15	 -246.40	  158.85
     33.2988	  216.00	  200.17	 -292.42	  159.22
     33.3323	  270.00	  201.22	 -239.47	  159.58
     33.3657	  265.00	  202.31	 -245.56	  159.95
     33.3991	  264.00	  203.44	 -247.69	  160.31
     33.4325	  211.00	  204.61	 -301.86	  160.68
     33.4660	  233.00	  205.82	 -281.07	  161.05
     33.4994	  209.00	  207.08	 -306.33	  161.41
     33.5328	  193.00	  208.39	 -323.64	  161.78
     33.5662	  221.00	  209.74	 -296.99	  162.14
     33.5996	  194.00	  211.15	 -325.40	  162.51
     33.6331	  210.00	  212.62	 -310.87	  162.87
     33.6665	  209.00	  214.15	 -313.40	  163.24
     33.6999	  200.00	  215.74	 -323.99	  163.61
     33.7333	  248.00	  217.40	 -277.65	  163.97
     33.7668	  181.00	  219.14	 -346.39	  164.34
     33.8002	  214.00	  220.96	 -315.21	  164.70
     33.8336	  199.00	  222.86	 -332.11	  165.07
     33.8670	  184.00	  224.86	 -349.11	  165.43
     33.9004	  198.00	  226.96	 -337.21	  165.80
     33.9339	  227.00	  229.16	 -310.41	  166.17
     33.9673	  198.00	  231.48	 -341.73	  166.53
     34.0007	  278.00	  233.92	 -264.17	  166.90
     34.0341	  254.00	  236.50	 -290.75	  167.26
     34.0676	  234.00	  239.22	 -313.47	  167.63
     34.1010	  287.00	  242.11	 -263.36	  167.99
     34.1344	  265.00	  245.16	 -288.41	  168.36
     34.1678	  304.00	  248.41	 -252.66	  168.73
     34.2012	  342.00	  251.43	 -217.68	  168.66
     34.2347	  298.00	  254.66	 -264.91	  168.58
     34.2681	  334.00	  258.13	 -232.38	  168.49
     34.3015	  351.00	  261.88	 -219.13	  168.41
     34.3349	  321.00	  265.92	 -253.17	  168.32
     34.3684	  319.00	  270.29	 -259.54	  168.24
     34.4018	  331.00	  275.03	 -252.28	  168.16
     34.4352	  315.00	  280.17	 -273.42	  168.07
     34.4686	  286.00	  285.76	 -308.01	  167.99
     34.5020	  302.00	  291.84	 -298.09	  167.91
     34.5355	  313.00	  298.48	 -293.73	  167.82
     34.5689	  299.00	  305.75	 -315.00	  167.74
     34.6023	  316.00	  313.72	 -305.97	  167.65
     34.6357	  331.00	  322.47	 -299.72	  167.57
     34.6692	  314.00	  332.11	 -326.36	  167.49
     34.7026	  312.00	  342.75	 -339.00	  167.40
     34.7360	  355.00	  354.51	 -307.76	  167.32
     34.7694	  334.00	  367.55	 -341.80	  167.23
     34.8029	  377.00	  382.03	 -313.28	  167.15
     34.8363	  373.00	  398.15	 -333.40	  167.07
     34.8697	  378.00	  416.10	 -346.35	  166.98
     34.9031	  424.00	  436.14	 -320.39	  166.90
     34.9365	  452.00	  458.53	 -314.78	  166.82
     34.9700	  437.00	  483.53	 -354.78	  166.73
     35.0034	  517.00	  511.48	 -302.73	  166.65
     35.0368	  514.00	  542.68	 -336.93	  166.56
     35.0702	  577.00	  577.43	 -308.68	  166.48
     35.1037	  619.00	  616.04	 -305.29	  166.40
     35.1371	  604.00	  658.69	 -362.94	  166.31
     35.1705	  672.00	  705.49	 -341.74	  166.23
     35.2039	  739.00	  756.32	 -325.57	  166.15
     35.2373	  763.00	  810.74	 -355.99	  166.06
     35.2708	  801.00	  867.90	 -375.15	  165.98
     35.3042	  923.00	  926.40	 -311.65	  165.89
     35.3376	  972.00	  984.16	 -320.41	  165.81
     35.3710	 1034.00	 1038.55	 -312.80	  165.73
     35.4045	 1108.00	 1086.39	 -286.64	  165.64
     35.4379	 1162.00	 1124.29	 -270.54	  165.44
     35.4713	 1233.00	 1149.09	 -224.34	  164.92
     35.5047	 1206.00	 1159.00	 -261.25	  164.39
     35.5382	 1232.00	 1153.16	 -229.41	  163.86
     35.5716	 1185.00	 1132.14	 -255.39	  163.34
     35.6050	 1121.00	 1097.74	 -284.99	  162.81
     35.6384	 1055.00	 1052.70	 -305.95	  162.28
     35.6718	  972.00	 1000.19	 -336.44	  161.76
     35.7053	  916.00	  943.32	 -335.57	  161.23
     35.7387	  904.00	  884.88	 -289.13	  160.70
     35.7721	  779.00	  827.08	 -356.33	  160.18
     35.8055	  804.00	  771.51	 -275.76	  159.65
     35.8390	  695.00	  719.23	 -332.48	  159.12
     35.8724	  667.00	  670.81	 -312.06	  158.60
     35.9058	  601.00	  626.48	 -333.73	  158.07
     35.9392	  579.00	  585.63	 -314.88	  157.54
     35.9726	  497.00	  549.32	 -360.57	  157.02
     36.0061	  519.00	  516.37	 -305.62	  156.49
     36.0395	  427.00	  487.13	 -368.38	  155.96
     36.0729	  416.00	  460.94	 -353.19	  155.43
     36.1063	  373.00	  437.53	 -372.78	  154.91
     36.1398	  371.00	  416.60	 -353.85	  154.38
     36.1732	  344.00	  397.89	 -362.14	  153.85
     36.2066	  345.00	  381.15	 -344.40	  153.33
     36.2400	  311.00	  366.18	 -363.43	  152.80
     36.2734	  279.00	  352.78	 -382.03	  152.27
     36.3069	  270.00	  340.79	 -379.04	  151.75
     36.3403	  311.00	  330.05	 -327.30	  151.22
     36.3737	  283.00	  320.46	 -345.71	  150.69
     36.4071	  259.00	  311.89	 -361.14	  150.17
     36.4406	  244.00	  304.26	 -368.51	  149.64
     36.4740	  208.00	  297.49	 -397.74	  149.11
     36.5074	  225.00	  291.52	 -374.77	  148.59
     36.5408	  224.00	  285.75	 -370.00	  147.51
     36.5742	  213.00	  279.21	 -374.46	  144.96
     36.6077	  215.00	  273.35	 -366.60	  142.41
     36.6411	  227.00	  268.14	 -349.39	  139.87
     36.6745	  218.00	  263.56	 -353.81	  137.32
     36.7079	  215.00	  259.60	 -352.85	  134.77
     36.7414	  246.00	  256.24	 -318.49	  132.22
     36.7748	  209.00	  253.46	 -352.71	  129.68
     36.8082	  186.00	  251.24	 -373.49	  127.13
     36.8416	  221.00	  249.54	 -336.79	  124.58
     36.8750	  238.00	  248.30	 -318.55	  122.03
     36.9085	  235.00	  247.42	 -320.67	  119.48
     36.9419	  235.00	  247.64	 -320.89	  117.82
     36.9753	  240.00	  248.84	 -317.09	  117.07
     37.0087	  221.00	  249.86	 -337.11	  116.32
     37.0422	  256.00	  250.48	 -302.73	  115.57
     37.0756	  251.00	  250.44	 -307.69	  114.82
     37.1090	  250.00	  249.53	 -307.78	  114.07
     37.1424	  250.00	  247.62	 -305.87	  113.32
     37.1759	  277.00	  244.63	 -275.88	  112.57
     37.2093	  225.00	  241.20	 -324.45	  111.82
     37.2427	  222.00	  236.30	 -322.55	  111.08
     37.2761	  237.00	  230.71	 -301.96	  110.33
     37.3095	  221.00	  224.91	 -312.16	  109.58
     37.3430	  232.00	  218.57	 -294.82	  108.83
     37.3764	  207.00	  212.17	 -313.42	  108.08
     37.4098	  186.00	  205.85	 -328.10	  107.33
     37.4432	  167.00	  199.75	 -341.00	  106.58
     37.4767	  156.00	  193.93	 -346.18	  105.83
     37.5101	  150.00	  188.44	 -346.69	  105.08
     37.5435	  129.00	  183.30	 -362.55	  104.33
     37.5769	  156.00	  178.50	 -330.75	  103.58
     37.6103	  139.00	  174.04	 -343.29	  102.83
     37.6438	  149.00	  169.89	 -329.14	  102.08
     37.6772	  141.00	  166.04	 -333.29	  101.33
     37.7106	  132.00	  162.46	 -338.71	  100.58
     37.7440	  109.00	  159.12	 -358.37	   99.84
     37.7775	  151.00	  156.00	 -313.25	   99.09
     37.8109	  109.00	  153.09	 -352.34	   98.34
     37.8443	  117.00	  150.35	 -341.60	   97.59
     37.8777	  107.00	  147.77	 -349.02	   96.84
     37.9111	  109.00	  145.34	 -344.59	   96.09
     37.9446	  125.00	  143.04	 -326.29	   95.34
     37.9780	   99.00	  140.86	 -350.11	   94.59
     38.0114	  124.00	  138.78	 -323.03	   93.84
     38.0448	  111.00	  136.79	 -334.04	   93.09
     38.0783	  120.00	  134.90	 -323.15	   92.34
     38.1117	  125.00	  133.07	 -316.32	   91.59
     38.1451	  113.00	  131.32	 -326.57	   90.84
     38.1785	  111.00	  129.64	 -326.89	   90.09
     38.2120	  165.00	  128.01	 -271.26	   89.34
     38.2454	  128.00	  126.43	 -306.68	   88.60
     38.2788	  161.00	  124.96	 -272.21	   87.91
     38.3122	  193.00	  123.62	 -238.87	   87.30
     38.3456	  190.00	  122.32	 -240.57	   86.69
     38.3791	  197.00	  121.06	 -232.31	   86.08
     38.4125	  191.00	  119.83	 -237.08	   85.47
     38.4459	  146.00	  118.63	 -280.88	   84.86
     38.4793	  127.00	  117.46	 -298.71	   84.25
     38.5128	  146.00	  116.33	 -278.58	   83.64
     38.5462	  129.00	  115.21	 -294.46	   83.03
     38.5796	  110.00	  114.13	 -312.38	   82.42
     38.6130	  112.00	  113.06	 -309.31	   81.81
     38.6464	   94.00	  112.02	 -326.27	   81.20
     38.6799	  110.00	  111.00	 -309.25	   80.59
     38.7133	   91.00	  109.99	 -327.24	   79.98
     38.7467	  108.00	  109.01	 -309.26	   79.37
     38.7801	  112.00	  108.04	 -304.29	   78.76
     38.8136	  105.00	  107.08	 -310.33	   78.15
     38.8470	   96.00	  106.14	 -318.39	   77.55
     38.8804	   99.00	  105.22	 -314.47	   76.94
     38.9138	  105.00	  104.31	 -307.56	   76.33
     38.9472	  103.00	  103.41	 -308.66	   75.72
     38.9807	   95.00	  102.52	 -315.77	   75.11
     39.0141	  105.00	  101.65	 -304.90	   74.50
     39.0475	   85.00	  100.79	 -324.04	   73.89
     39.0809	   76.00	   99.93	 -332.18	   73.28
     39.1144	   91.00	   99.09	 -316.34	   72.67
     39.1478	  104.00	   98.48	 -302.73	   72.28
     39.1812	  104.00	   98.07	 -302.32	   72.09
     39.2146	   94.00	   97.68	 -311.93	   71.90
     39.2481	   87.00	   97.30	 -318.55	   71.71
     39.2815	   85.00	   96.92	 -320.17	   71.53
     39.3149	   93.00	   96.55	 -311.80	   71.34
     39.3483	   98.00	   96.19	 -306.44	   71.15
     39.3817	   83.00	   95.84	 -321.09	   70.96
     39.4152	   91.00	   95.49	 -312.74	   70.78
     39.4486	   89.00	   95.15	 -314.40	   70.59
     39.4820	   88.00	   94.82	 -315.07	   70.40
     39.5154	   75.00	   94.49	 -327.74	   70.21
     39.5489	   81.00	   94.17	 -321.42	   70.02
     39.5823	   84.00	   93.86	 -318.11	   69.84
     39.6157	   69.00	   93.55	 -332.80	   69.65
     39.6491	   82.00	   93.25	 -319.50	   69.46
     39.6825	   88.00	   92.96	 -313.21	   69.27
     39.7160	   85.00	   92.67	 -315.92	   69.09
     39.7494	   97.00	   92.38	 -303.63	   68.90
     39.7828	   87.00	   92.10	 -313.35	   68.71
     39.8162	  107.00	   91.83	 -293.08	   68.52
     39.8497	   81.00	   91.56	 -318.81	   68.33
     39.8831	   90.00	   91.29	 -309.54	   68.15
     39.9165	   92.00	   91.04	 -307.29	   67.96
     39.9499	   92.00	   90.78	 -307.03	   67.77
     39.9833	   88.00	   90.53	 -310.78	   67.58
     40.0168	   89.00	   90.29	 -309.54	   67.40
     40.0502	   80.00	   90.05	 -318.30	   67.21
     40.0836	   81.00	   89.82	 -317.07	   67.02
     40.1170	   92.00	   89.59	 -305.84	   66.83
     40.1505	  113.00	   89.36	 -284.61	   66.65
     40.1839	   70.00	   89.14	 -327.39	   66.46
     40.2173	  106.00	   88.93	 -291.18	   66.27
     40.2507	  104.00	   88.72	 -292.97	   66.08
     40.2841	  116.00	   88.52	 -280.77	   65.89
     40.3176	  117.00	   88.32	 -279.57	   65.71
     40.3510	  112.00	   88.13	 -284.38	   65.52
     40.3844	   95.00	   87.94	 -301.19	   65.33
     40.4178	  118.00	   87.75	 -278.00	   65.14
     40.4513	  120.00	   87.58	 -275.83	   64.96
     40.4847	  127.00	   87.40	 -268.65	   64.77
     40.5181	  133.00	   87.24	 -262.49	   64.58
     40.5515	  128.00	   87.08	 -267.33	   64.39
     40.5850	  139.00	   86.92	 -256.17	   64.20
     40.6184	  121.00	   86.77	 -274.02	   64.02
     40.6518	  134.00	   86.63	 -260.88	   63.83
     40.6852	  126.00	   86.49	 -268.74	   63.64
     40.7186	  112.00	   86.37	 -282.62	   63.45
     40.7521	  109.00	   86.24	 -285.49	   63.27
     40.7855	  122.00	   86.13	 -272.38	   63.08
     40.8189	  120.00	   86.02	 -274.27	   62.89
     40.8523	  133.00	   85.92	 -261.17	   62.70
     40.8858	  106.00	   85.83	 -288.08	   62.52
     40.9192	  109.00	   85.74	 -284.99	   62.33
     40.9526	  129.00	   85.67	 -264.92	   62.14
     40.9860	  103.00	   85.60	 -290.85	   61.95
     41.0194	   94.00	   85.54	 -299.79	   61.76
     41.0529	  109.00	   85.50	 -284.75	   61.58
     41.0863	  103.00	   85.46	 -290.71	   61.39
     41.1197	  126.00	   85.54	 -267.79	   61.30
     41.1531	  123.00	   85.69	 -270.94	   61.28
     41.1866	   94.00	   85.85	 -300.10	   61.25
     41.2200	   97.00	   86.04	 -297.29	   61.23
     41.2534	   80.00	   86.23	 -314.48	   61.20
     41.2868	  102.00	   86.43	 -292.68	   61.18
     41.3202	   94.00	   86.65	 -300.90	   61.15
     41.3537	   77.00	   84.51	 -315.76	   61.13
     41.3871	   94.00	   84.79	 -299.04	   61.10
     41.4205	   94.00	   85.09	 -299.34	   61.08
     41.4539	   93.00	   84.23	 -299.48	   61.05
     41.4874	  118.00	   84.58	 -274.83	   61.03
     41.5208	  103.00	   84.96	 -290.21	   61.00
     41.5542	   77.00	   85.35	 -316.60	   60.98
     41.5876	   89.00	   85.78	 -305.03	   60.95
     41.6211	   90.00	   86.23	 -304.48	   60.93
     41.6545	  107.00	   86.71	 -287.96	   60.90
     41.6879	  100.00	   87.23	 -295.48	   60.88
     41.7213	   91.00	   87.78	 -305.03	   60.85
     41.7547	  108.00	   88.37	 -288.62	   60.83
     41.7882	   88.00	   89.00	 -309.25	   60.80
     41.8216	  105.00	   89.67	 -292.92	   60.78
     41.8550	  103.00	   90.39	 -295.64	   60.75
     41.8884	  120.00	   91.17	 -279.42	   60.73
     41.9219	   85.00	   92.01	 -315.26	   60.70
     41.9553	  122.00	   92.91	 -279.16	   60.68
     41.9887	  102.00	   93.88	 -300.13	   60.65
     42.0221	  131.00	   94.93	 -272.18	   60.63
     42.0555	  100.00	   96.07	 -304.32	   60.60
     42.0890	  108.00	   97.30	 -297.55	   60.58
     42.1224	  111.00	   98.63	 -295.88	   60.56
     42.1558	  116.00	  100.08	 -292.33	   60.53
     42.1892	  122.00	  101.66	 -287.91	   60.51
     42.2227	  131.00	  103.38	 -280.63	   60.48
     42.2561	  116.00	  105.25	 -297.50	   60.46
     42.2895	  124.00	  107.31	 -291.56	   60.43
     42.3229	  129.00	  109.55	 -288.80	   60.41
     42.3563	  129.00	  112.02	 -291.27	   60.38
     42.3898	  129.00	  114.72	 -293.97	   60.36
     42.4232	  125.00	  117.70	 -300.95	   60.33
     42.4566	  129.00	  120.97	 -300.22	   60.31
     42.4900	  154.00	  124.56	 -278.81	   60.28
     42.5235	  165.00	  128.53	 -271.78	   60.26
     42.5569	  191.00	  132.89	 -250.14	   60.23
     42.5903	  160.00	  137.68	 -285.93	   60.21
     42.6237	  177.00	  142.95	 -274.20	   60.18
     42.6572	  171.00	  148.73	 -285.98	   60.16
     42.6906	  193.00	  155.05	 -270.30	   60.13
     42.7240	  220.00	  161.92	 -250.17	   60.11
     42.7574	  218.00	  169.36	 -259.61	   60.08
     42.7908	  216.00	  177.35	 -269.60	   60.06
     42.8243	  210.00	  185.83	 -284.08	   60.03
     42.8577	  224.00	  194.72	 -278.97	   60.01
     42.8911	  266.00	  203.86	 -246.11	   59.98
     42.9245	  275.00	  213.05	 -246.30	   59.96
     42.9580	  284.00	  222.02	 -246.27	   59.93
     42.9914	  282.00	  230.22	 -256.47	   59.91
     43.0248	  330.00	  237.69	 -215.94	   59.88
     43.0582	  307.00	  243.84	 -245.09	   59.86
     43.0916	  291.00	  248.21	 -265.46	   59.84
     43.1251	  307.00	  250.74	 -251.99	   59.81
     43.1585	  312.00	  251.16	 -247.41	   59.79
     43.1919	  306.00	  249.45	 -251.70	   59.76
     43.2253	  311.00	  245.74	 -242.99	   59.74
     43.2588	  290.00	  240.25	 -258.50	   59.70
     43.2922	  252.00	  233.30	 -289.55	   59.66
     43.3256	  256.00	  225.27	 -277.52	   59.62
     43.3590	  252.00	  216.53	 -272.78	   59.58
     43.3924	  221.00	  207.42	 -294.67	   59.54
     43.4259	  238.00	  198.22	 -268.47	   59.50
     43.4593	  198.00	  189.19	 -299.44	   59.46
     43.4927	  211.00	  180.48	 -277.73	   59.42
     43.5261	  176.00	  172.21	 -304.46	   59.38
     43.5596	  186.00	  164.46	 -286.71	   59.34
     43.5930	  182.00	  157.26	 -283.51	   59.30
     43.6264	  166.00	  150.62	 -292.87	   59.26
     43.6598	  136.00	  144.52	 -316.77	   59.22
     43.6932	  161.00	  138.94	 -286.19	   59.18
     43.7267	  154.00	  133.85	 -288.10	   59.14
     43.7601	  146.00	  129.21	 -291.46	   59.10
     43.7935	  116.00	  124.99	 -317.24	   59.07
     43.8269	  107.00	  121.15	 -322.40	   59.03
     43.8604	  122.00	  117.65	 -303.90	   58.99
     43.8938	  105.00	  114.47	 -317.72	   58.95
     43.9272	  113.00	  111.56	 -306.81	   58.91
     43.9606	  113.00	  108.91	 -304.16	   58.87
     43.9940	  106.00	  106.49	 -308.74	   58.83
     44.0275	  102.00	  104.27	 -310.52	   58.79
     44.0609	   99.00	  102.24	 -311.49	   58.75
     44.0943	  126.00	  100.38	 -282.63	   58.71
     44.1277	  107.00	   98.66	 -299.91	   58.67
     44.1612	   88.00	   97.08	 -317.33	   58.63
     44.1946	   83.00	   95.62	 -320.87	   58.59
     44.2280	  106.00	   94.27	 -296.52	   58.55
     44.2614	   88.00	   93.02	 -313.27	   58.51
     44.2949	   99.00	   91.86	 -301.11	   58.47
     44.3283	  106.00	   90.79	 -293.04	   58.43
     44.3617	   93.00	   89.78	 -305.03	   58.39
     44.3951	   89.00	   88.85	 -308.10	   58.36
     44.4285	   96.00	   87.97	 -300.22	   58.32
     44.4620	   80.00	   87.15	 -315.40	   58.28
     44.4954	   96.00	   86.39	 -298.64	   58.24
     44.5288	  125.00	   85.67	 -268.92	   58.20
     44.5622	  102.00	   84.99	 -291.24	   58.16
     44.5957	  112.00	   84.35	 -280.60	   58.12
     44.6291	  113.00	   83.75	 -279.00	   58.08
     44.6625	  117.00	   83.18	 -274.43	   58.04
     44.6959	   89.00	   82.65	 -301.90	   58.00
     44.7293	   94.00	   82.14	 -296.39	   57.96
     44.7628	  100.00	   81.66	 -289.91	   57.92
     44.7962	   73.00	   81.21	 -316.46	   57.88
     44.8296	   79.00	   80.78	 -310.03	   57.84
     44.8630	   70.00	   80.37	 -318.62	   57.80
     44.8965	   81.00	   79.98	 -307.23	   57.76
     44.9299	   87.00	   79.60	 -300.85	   57.72
     44.9633	   88.00	   79.25	 -299.50	   57.69
     44.9967	  103.00	   78.91	 -284.16	   57.65
     45.0302	   73.00	   78.59	 -313.84	   57.61
     45.0636	   76.00	   78.28	 -310.53	   57.57
     45.0970	   80.00	   77.99	 -306.24	   57.53
     45.1304	   71.00	   77.71	 -314.96	   57.49
     45.1638	   81.00	   77.44	 -304.69	   57.45
     45.1973	   70.00	   77.18	 -315.43	   57.41
     45.2307	   84.00	   76.93	 -301.18	   57.37
     45.2641	   66.00	   76.69	 -318.94	   57.33
     45.2975	   63.00	   76.46	 -321.71	   57.29
     45.3310	   96.00	   76.24	 -288.49	   57.25
     45.3644	   74.00	   76.03	 -310.28	   57.21
     45.3978	   90.00	   75.83	 -294.08	   57.17
     45.4312	   66.00	   75.63	 -317.88	   57.13
     45.4646	   69.00	   75.44	 -314.69	   57.09
     45.4981	   68.00	   75.26	 -315.51	   57.05
     45.5315	   87.00	   75.09	 -296.34	   57.01
     45.5649	   81.00	   74.92	 -302.17	   56.98
     45.5983	   68.00	   74.75	 -315.00	   56.94
     45.6318	   61.00	   74.60	 -321.85	   56.90
     45.6652	   66.00	   74.45	 -316.70	   56.86
     45.6986	   71.00	   74.30	 -311.55	   56.82
     45.7320	   68.00	   74.16	 -314.41	   56.78
     45.7654	   77.00	   74.03	 -305.28	   56.74
     45.7989	   76.00	   73.90	 -306.15	   56.70
     45.8323	   79.00	   73.77	 -303.02	   56.66
     45.8657	   73.00	   73.65	 -308.90	   56.62
     45.8991	   80.00	   73.54	 -301.79	   56.58
     45.9326	   74.00	   73.40	 -307.65	   56.51
     45.9660	   62.00	   73.26	 -319.51	   56.44
     45.9994	   61.00	   73.12	 -320.37	   56.37
     46.0328	   61.00	   72.99	 -320.24	   56.29
     46.0662	   74.00	   72.87	 -307.12	   56.22
     46.0997	   82.00	   72.75	 -299.00	   56.15
     46.1331	   84.00	   72.63	 -296.88	   56.07
     46.1665	   65.00	   72.52	 -315.77	   56.00
     46.1999	   53.00	   72.41	 -327.66	   55.93
     46.2334	   87.00	   72.31	 -293.56	   55.86
     46.2668	   68.00	   72.22	 -312.47	   55.78
     46.3002	   71.00	   72.13	 -309.38	   55.71
     46.3336	   58.00	   72.04	 -322.29	   55.64
     46.3671	   61.00	   71.97	 -319.22	   55.56
     46.4005	   70.00	   71.90	 -310.15	   55.49
     46.4339	   69.00	   71.84	 -311.09	   55.42
     46.4673	   59.00	   71.78	 -321.03	   55.35
     46.5007	   70.00	   71.73	 -309.98	   55.27
     46.5342	   77.00	   71.70	 -302.95	   55.20
     46.5676	   67.00	   71.67	 -312.92	   55.13
     46.6010	   64.00	   71.65	 -315.90	   55.05
     46.6344	   75.00	   71.64	 -304.89	   54.98
     46.6679	   69.00	   71.65	 -310.90	   54.91
     46.7013	   71.00	   71.67	 -308.92	   54.84
     46.7347	   70.00	   71.70	 -309.95	   54.76
     46.7681	   76.00	   71.74	 -303.99	   54.69
     46.8015	   70.00	   71.80	 -310.05	   54.62
     46.8350	   66.00	   71.87	 -314.12	   54.54
     46.8684	   94.00	   71.95	 -286.20	   54.47
     46.9018	   63.00	   72.04	 -317.29	   54.40
     46.9352	   92.00	   72.15	 -288.40	   54.33
     46.9687	   70.00	   72.26	 -310.51	   54.25
     47.0021	   87.00	   72.37	 -293.62	   54.18
     47.0355	   65.00	   72.47	 -315.72	   54.11
     47.0689	   79.00	   72.56	 -301.81	   54.03
     47.1023	   70.00	   72.64	 -310.89	   53.96
     47.1358	   77.00	   72.69	 -303.94	   53.89
     47.1692	   73.00	   72.70	 -307.95	   53.82
     47.2026	   74.00	   72.67	 -306.92	   53.74
     47.2360	   75.00	   72.59	 -305.84	   53.67
     47.2695	   65.00	   72.48	 -315.73	   53.60
     47.3029	   70.00	   72.31	 -310.56	   53.52
     47.3363	   68.00	   72.10	 -312.35	   53.45
     47.3697	   76.00	   72.16	 -304.41	   53.38
     47.4032	   79.00	   71.90	 -301.15	   53.31
     47.4366	   73.00	   71.61	 -306.86	   53.23
     47.4700	   81.00	   71.30	 -298.55	   53.16
     47.5034	   87.00	   71.14	 -292.39	   53.09
     47.5368	   65.00	   70.84	 -314.09	   53.01
     47.5703	   87.00	   70.53	 -291.78	   52.94
     47.6037	   77.00	   70.23	 -301.48	   52.87
     47.6371	   76.00	   69.95	 -302.20	   52.80
     47.6705	   59.00	   69.67	 -318.92	   52.72
     47.7040	   60.00	   69.41	 -317.66	   52.65
     47.7374	   82.00	   69.15	 -295.40	   52.58
     47.7708	   87.00	   68.92	 -290.17	   52.50
     47.8042	   68.00	   68.69	 -308.94	   52.43
     47.8376	   53.00	   68.48	 -323.73	   52.36
     47.8711	   54.00	   68.27	 -322.52	   52.29
     47.9045	   74.00	   68.08	 -302.33	   52.21
     47.9379	   81.00	   67.90	 -295.15	   52.14
     47.9713	   59.00	   67.72	 -316.97	   52.07
     48.0048	   67.00	   67.56	 -308.81	   51.99
     48.0382	   90.00	   67.40	 -285.65	   51.92
     48.0716	   78.00	   67.25	 -297.50	   51.85
     48.1050	   74.00	   67.10	 -301.35	   51.78
     48.1384	   84.00	   66.96	 -291.21	   51.70
     48.1719	   60.00	   66.82	 -315.07	   51.63
     48.2053	   74.00	   66.69	 -300.94	   51.56
     48.2387	   70.00	   66.57	 -304.82	   51.48
     48.2721	   85.00	   66.44	 -289.69	   51.41
     48.3056	   78.00	   66.33	 -296.58	   51.34
     48.3390	   71.00	   66.21	 -303.46	   51.26
     48.3724	   67.00	   66.10	 -307.35	   51.19
     48.4058	   76.00	   65.99	 -298.24	   51.12
     48.4393	   70.00	   65.88	 -304.13	   51.05
     48.4727	   67.00	   65.78	 -307.03	   50.97
     48.5061	   70.00	   65.67	 -303.92	   50.90
     48.5395	   69.00	   65.57	 -304.82	   50.83
     48.5729	   71.00	   65.47	 -302.72	   50.75
     48.6064	   67.00	   65.38	 -306.63	   50.68
     48.6398	   69.00	   65.28	 -304.53	   50.61
     48.6732	   78.00	   65.19	 -295.44	   50.54
     48.7066	   68.00	   65.10	 -305.35	   50.46
     48.7401	   90.00	   65.01	 -283.26	   50.39
     48.7735	   78.00	   64.92	 -295.17	   50.32
     48.8069	   80.00	   64.83	 -293.08	   50.24
     48.8403	   79.00	   64.74	 -293.99	   50.17
     48.8737	   66.00	   64.66	 -306.91	   50.10
     48.9072	   93.00	   64.57	 -279.82	   50.03
     48.9406	   92.00	   64.49	 -280.74	   49.95
     48.9740	   82.00	   64.41	 -290.66	   49.88
     49.0074	   73.00	   64.33	 -299.58	   49.81
     49.0409	   93.00	   64.25	 -279.50	   49.73
     49.0743	   80.00	   64.17	 -292.42	   49.66
     49.1077	   75.00	   63.52	 -296.77	   49.59
     49.1411	   83.00	   63.45	 -288.70	   49.52
     49.1745	   85.00	   63.38	 -286.63	   49.44
     49.2080	  104.00	   63.03	 -267.28	   49.37
     49.2414	  152.00	   62.96	 -219.21	   49.30
     49.2748	  119.00	   62.90	 -252.15	   49.22
     49.3082	  112.00	   62.83	 -259.08	   49.15
     49.3417	   94.00	   62.77	 -277.02	   49.08
     49.3751	  121.00	   62.71	 -249.96	   49.01
     49.4085	  110.00	   62.64	 -260.89	   48.93
     49.4419	  106.00	   62.58	 -264.83	   48.86
     49.4753	  128.00	   62.52	 -242.77	   48.79
     49.5088	  110.00	   62.46	 -260.71	   48.71
     49.5422	  107.00	   62.49	 -263.74	   48.73
     49.5756	  106.00	   62.62	 -264.87	   48.85
     49.6090	   94.00	   62.75	 -277.00	   48.96
     49.6425	   96.00	   62.88	 -275.13	   49.08
     49.6759	   93.00	   63.01	 -278.26	   49.20
     49.7093	   87.00	   63.14	 -284.39	   49.31
     49.7427	  105.00	   63.27	 -266.52	   49.43
     49.7761	  110.00	   63.40	 -261.65	   49.54
     49.8096	  111.00	   63.54	 -260.79	   49.66
     49.8430	  112.00	   63.67	 -259.92	   49.77
     49.8764	   91.00	   63.80	 -281.05	   49.89
     49.9098	   97.00	   63.94	 -275.19	   50.00
     49.9433	  112.00	   64.08	 -260.33	   50.12
     49.9767	   97.00	   64.21	 -275.46	   50.24
     50.0101	   96.00	   64.35	 -276.60	   50.35
     50.0435	   85.00	   64.49	 -287.74	   50.47
     50.0770	   87.00	   64.63	 -285.88	   50.58
     50.1104	  100.00	   64.77	 -273.02	   50.70
     50.1438	  105.00	   64.91	 -268.16	   50.81
     50.1772	   92.00	   65.05	 -281.30	   50.93
     50.2106	   89.00	   65.19	 -284.44	   51.05
     50.2441	  100.00	   65.34	 -273.59	   51.16
     50.2775	  100.00	   65.48	 -273.73	   51.28
     50.3109	   99.00	   65.63	 -274.88	   51.39
     50.3443	   78.00	   65.77	 -296.02	   51.51
     50.3778	  107.00	   65.92	 -267.17	   51.62
     50.4112	   85.00	   66.07	 -289.32	   51.74
     50.4446	  108.00	   66.22	 -266.47	   51.85
     50.4780	   94.00	   66.37	 -280.62	   51.97
     50.5114	   99.00	   66.52	 -275.77	   52.09
     50.5449	   88.00	   66.68	 -286.93	   52.20
     50.5783	   74.00	   66.83	 -301.08	   52.32
     50.6117	   95.00	   66.99	 -280.24	   52.43
     50.6451	   82.00	   67.15	 -293.40	   52.55
     50.6786	   75.00	   67.31	 -300.56	   52.66
     50.7120	   96.00	   67.47	 -279.72	   52.78
     50.7454	   93.00	   67.63	 -282.88	   52.89
     50.7788	   85.00	   67.80	 -291.05	   53.01
     50.8122	   84.00	   69.01	 -293.26	   53.13
     50.8457	   76.00	   69.19	 -301.44	   53.24
     50.8791	   91.00	   69.38	 -286.63	   53.36
     50.9125	   84.00	   69.56	 -293.81	   53.47
     50.9459	   67.00	   69.75	 -311.00	   53.59
     50.9794	   84.00	   70.46	 -294.71	   53.70
     51.0128	   97.00	   70.66	 -281.91	   53.82
     51.0462	   87.00	   70.86	 -292.11	   53.94
     51.0796	   68.00	   71.06	 -311.31	   54.05
     51.1131	   76.00	   71.27	 -303.52	   54.17
     51.1465	   76.00	   71.48	 -303.73	   54.28
     51.1799	   83.00	   71.69	 -296.94	   54.40
     51.2133	   96.00	   71.91	 -284.16	   54.51
     51.2467	   80.00	   72.13	 -300.38	   54.63
     51.2802	   68.00	   72.35	 -312.60	   54.74
     51.3136	   76.00	   72.58	 -304.83	   54.86
     51.3470	   69.00	   72.82	 -312.07	   54.98
     51.3804	   68.00	   73.05	 -313.30	   55.09
     51.4139	   74.00	   73.30	 -307.55	   55.21
     51.4473	   80.00	   73.55	 -301.80	   55.32
     51.4807	   65.00	   73.80	 -317.05	   55.44
     51.5141	   76.00	   74.06	 -306.31	   55.55
     51.5475	   71.00	   74.32	 -311.57	   55.67
     51.5810	   61.00	   74.60	 -321.85	   55.78
     51.6144	   61.00	   74.88	 -322.13	   55.90
     51.6478	   62.00	   75.16	 -321.41	   56.02
     51.6812	   74.00	   75.46	 -309.71	   56.13
     51.7147	   61.00	   75.76	 -323.01	   56.25
     51.7481	   70.00	   76.07	 -314.32	   56.36
     51.7815	   83.00	   76.39	 -301.64	   56.48
     51.8149	   89.00	   76.70	 -295.95	   56.57
     51.8483	   80.00	   76.91	 -305.16	   56.55
     51.8818	   65.00	   77.13	 -320.38	   56.54
     51.9152	   80.00	   77.36	 -305.61	   56.52
     51.9486	   83.00	   77.61	 -302.86	   56.50
     51.9820	   73.00	   77.87	 -313.12	   56.48
     52.0155	   69.00	   78.14	 -317.39	   56.46
     52.0489	   77.00	   78.43	 -309.68	   56.44
     52.0823	   73.00	   78.74	 -313.99	   56.43
     52.1157	   75.00	   79.07	 -312.32	   56.41
     52.1492	   66.00	   79.42	 -321.67	   56.39
     52.1826	   74.00	   79.79	 -314.04	   56.37
     52.2160	   85.00	   80.18	 -303.43	   56.35
     52.2494	   76.00	   80.61	 -312.86	   56.33
     52.2828	   77.00	   81.06	 -312.31	   56.32
     52.3163	   93.00	   81.54	 -296.79	   56.30
     52.3497	   70.00	   82.05	 -320.30	   56.28
     52.3831	   78.00	   82.60	 -312.85	   56.26
     52.4165	   92.00	   83.19	 -299.44	   56.24
     52.4500	   73.00	   83.82	 -319.07	   56.22
     52.4834	   92.00	   84.50	 -300.75	   56.21
     52.5168	   89.00	   85.23	 -304.48	   56.19
     52.5502	   75.00	   86.02	 -319.27	   56.17
     52.5836	   92.00	   86.87	 -303.12	   56.15
     52.6171	   82.00	   87.78	 -314.03	   56.13
     52.6505	   77.00	   88.77	 -320.02	   56.11
     52.6839	   85.00	   89.83	 -313.08	   56.10
     52.7173	  110.00	   90.99	 -289.24	   56.08
     52.7508	   95.00	   92.23	 -305.48	   56.06
     52.7842	  100.00	   93.58	 -301.83	   56.04
     52.8176	  106.00	   95.03	 -297.28	   56.02
     52.8510	  107.00	   96.61	 -297.86	   56.00
     52.8844	   94.00	   98.31	 -312.56	   55.99
     52.9179	   96.00	  100.14	 -312.39	   55.97
     52.9513	  107.00	  102.12	 -303.37	   55.95
     52.9847	  109.00	  104.24	 -303.49	   55.93
     53.0181	   94.00	  106.51	 -320.76	   55.91
     53.0516	  118.00	  108.93	 -299.18	   55.89
     53.0850	  100.00	  111.50	 -319.75	   55.88
     53.1184	  131.00	  114.20	 -291.45	   55.86
     53.1518	  139.00	  117.02	 -286.27	   55.84
     53.1852	  132.00	  119.93	 -296.18	   55.82
     53.2187	  139.00	  122.89	 -292.14	   55.80
     53.2521	  127.00	  125.83	 -307.08	   55.78
     53.2855	  126.00	  128.74	 -310.99	   55.76
     53.3189	  121.00	  131.51	 -318.76	   55.75
     53.3524	  168.00	  134.08	 -274.33	   55.73
     53.3858	  171.00	  136.34	 -273.59	   55.71
     53.4192	  151.00	  138.22	 -295.47	   55.69
     53.4526	  169.00	  139.66	 -278.91	   55.67
     53.4861	  163.00	  140.59	 -285.84	   55.65
     53.5195	  192.00	  140.98	 -257.23	   55.64
     53.5529	  171.00	  140.81	 -278.06	   55.62
     53.5863	  165.00	  140.09	 -283.34	   55.60
     53.6197	  164.00	  138.87	 -283.12	   55.58
     53.6532	  169.00	  137.20	 -276.45	   55.56
     53.6866	  168.00	  135.15	 -275.40	   55.54
     53.7200	  165.00	  132.81	 -276.06	   55.53
     53.7534	  176.00	  130.24	 -262.49	   55.51
     53.7869	  187.00	  127.53	 -248.78	   55.49
     53.8203	  170.00	  124.74	 -262.99	   55.47
     53.8537	  154.00	  121.95	 -276.20	   55.45
     53.8871	  175.00	  119.20	 -252.45	   55.43
     53.9205	  166.00	  116.53	 -258.78	   55.42
     53.9540	  190.00	  113.97	 -232.22	   55.40
     53.9874	  192.00	  111.54	 -227.79	   55.38
     54.0208	  178.00	  109.25	 -239.50	   55.36
     54.0542	  162.00	  107.12	 -253.37	   55.34
     54.0877	  158.00	  105.13	 -255.38	   55.32
     54.1211	  185.00	  103.29	 -226.54	   55.31
     54.1545	  181.00	  101.60	 -228.85	   55.29
     54.1879	  138.00	  100.04	 -270.29	   55.27
     54.2213	  153.00	   98.62	 -253.87	   55.25
     54.2548	  129.00	   97.32	 -276.57	   55.23
     54.2882	  145.00	   96.13	 -259.38	   55.21
     54.3216	  149.00	   95.06	 -254.31	   55.20
     54.3550	  141.00	   94.08	 -261.33	   55.18
     54.3885	  121.00	   93.20	 -280.45	   55.16
     54.4219	  133.00	   92.40	 -267.65	   55.14
     54.4553	  125.00	   91.69	 -274.94	   55.12
     54.4887	  147.00	   91.05	 -252.30	   55.10
     54.5222	  104.00	   90.48	 -294.73	   55.09
     54.5556	  100.00	   89.97	 -298.22	   55.07
     54.5890	  135.00	   89.53	 -262.78	   55.05
     54.6224	  113.00	   89.14	 -284.39	   55.03
     54.6558	  112.00	   88.81	 -285.06	   55.01
     54.6893	  121.00	   88.52	 -275.77	   54.99
     54.7227	  110.00	   88.29	 -286.54	   54.97
     54.7561	  110.00	   88.09	 -286.34	   54.96
     54.7895	  106.00	   87.95	 -290.20	   54.94
     54.8230	  102.00	   87.84	 -294.09	   54.92
     54.8564	  125.00	   87.77	 -271.02	   54.90
     54.8898	  126.00	   87.74	 -269.99	   54.88
     54.9232	  108.00	   87.75	 -288.00	   54.86
     54.9566	  100.00	   87.79	 -296.04	   54.85
     54.9901	  128.00	   87.88	 -268.13	   54.83
     55.0235	  119.00	   87.99	 -277.24	   54.81
     55.0569	  119.00	   88.15	 -277.40	   54.79
     55.0903	  127.00	   88.33	 -269.58	   54.77
     55.1238	  120.00	   88.56	 -276.81	   54.75
     55.1572	  150.00	   88.82	 -247.07	   54.74
     55.1906	  140.00	   89.11	 -257.36	   54.72
     55.2240	  119.00	   89.45	 -278.70	   54.70
     55.2574	  141.00	   89.82	 -257.07	   54.68
     55.2909	  133.00	   90.23	 -265.48	   54.66
     55.3243	  124.00	   90.69	 -274.94	   54.64
     55.3577	  128.00	   91.19	 -271.44	   54.63
     55.3911	  125.00	   91.73	 -274.98	   54.61
     55.4246	  120.00	   92.31	 -280.56	   54.59
     55.4580	  131.00	   92.95	 -270.20	   54.57
     55.4914	  123.00	   93.64	 -278.89	   54.55
     55.5248	  125.00	   94.38	 -277.63	   54.53
     55.5583	  119.00	   95.19	 -284.44	   54.52
     55.5917	  153.00	   96.05	 -251.30	   54.50
     55.6251	  103.00	   96.98	 -302.23	   54.48
     55.6585	  114.00	   97.98	 -292.23	   54.46
     55.6919	  149.00	   99.05	 -258.30	   54.44
     55.7254	  123.00	  100.21	 -285.46	   54.42
     55.7588	  137.00	  101.45	 -272.70	   54.41
     55.7922	  142.00	  102.78	 -269.03	   54.39
     55.8256	  108.00	  104.22	 -304.47	   54.37
     55.8591	  151.00	  105.76	 -263.01	   54.35
     55.8925	  133.00	  107.42	 -282.67	   54.33
     55.9259	  147.00	  109.21	 -270.46	   54.31
     55.9593	  152.00	  111.14	 -267.39	   54.30
     55.9927	  150.00	  113.21	 -271.46	   54.28
     56.0262	  154.00	  115.44	 -269.69	   54.26
     56.0596	  151.00	  117.85	 -275.10	   54.24
     56.0930	  133.00	  120.45	 -295.70	   54.22
     56.1264	  156.00	  123.25	 -275.50	   54.20
     56.1599	  156.00	  126.27	 -278.52	   54.19
     56.1933	  136.00	  129.54	 -301.79	   54.17
     56.2267	  147.00	  133.06	 -294.31	   54.15
     56.2601	  161.00	  138.35	 -285.60	   54.13
     56.2935	  167.00	  142.47	 -283.72	   54.11
     56.3270	  163.00	  146.92	 -292.17	   54.09
     56.3604	  165.00	  151.71	 -294.96	   54.07
     56.3938	  162.00	  156.87	 -303.12	   54.06
     56.4272	  193.00	  163.15	 -278.40	   54.04
     56.4607	  200.00	  169.11	 -277.36	   54.02
     56.4941	  227.00	  175.49	 -256.74	   54.00
     56.5275	  240.00	  182.29	 -250.54	   53.98
     56.5609	  242.00	  189.50	 -255.75	   53.96
     56.5943	  213.00	  197.13	 -292.38	   53.95
     56.6278	  237.00	  205.12	 -276.37	   53.93
     56.6612	  270.00	  213.44	 -251.69	   53.91
     56.6946	  268.00	  222.00	 -262.25	   53.89
     56.7280	  263.00	  230.71	 -275.96	   53.87
     56.7615	  290.00	  239.43	 -257.68	   53.85
     56.7949	  284.00	  248.01	 -272.26	   53.84
     56.8283	  311.00	  256.25	 -253.50	   53.82
     56.8617	  326.00	  263.95	 -246.20	   53.80
     56.8952	  352.00	  270.87	 -227.12	   53.78
     56.9286	  319.00	  276.80	 -266.05	   53.76
     56.9620	  333.00	  281.53	 -256.78	   53.74
     56.9954	  323.00	  284.89	 -270.14	   53.73
     57.0288	  358.00	  286.75	 -237.00	   53.71
     57.0623	  322.00	  287.05	 -273.30	   53.69
     57.0957	  350.00	  285.77	 -244.02	   53.67
     57.1291	  298.00	  282.98	 -293.23	   53.65
     57.1625	  313.00	  278.80	 -274.05	   53.63
     57.1960	  309.00	  273.37	 -272.62	   53.62
     57.2294	  304.00	  266.88	 -271.13	   53.60
     57.2628	  306.00	  259.56	 -261.81	   53.58
     57.2962	  277.00	  251.60	 -282.85	   53.56
     57.3296	  265.00	  243.23	 -286.48	   53.54
     57.3631	  259.00	  234.63	 -283.88	   53.52
     57.3965	  262.00	  225.96	 -272.21	   53.51
     57.4299	  249.00	  217.36	 -276.61	   53.49
     57.4633	  206.00	  208.96	 -311.21	   53.47
     57.4968	  243.00	  200.83	 -266.08	   53.45
     57.5302	  226.00	  193.04	 -275.29	   53.43
     57.5636	  228.00	  185.64	 -265.89	   53.42
     57.5970	  211.00	  178.68	 -275.93	   53.45
     57.6304	  209.00	  172.14	 -271.39	   53.49
     57.6639	  178.00	  166.01	 -296.26	   53.52
     57.6973	  191.00	  160.29	 -277.54	   53.56
     57.7307	  171.00	  154.96	 -292.21	   53.59
     57.7641	  151.00	  150.00	 -307.25	   53.62
     57.7976	  186.00	  145.40	 -267.65	   53.66
     57.8310	  168.00	  141.13	 -281.38	   53.69
     57.8644	  147.00	  137.17	 -298.42	   53.72
     57.8978	  147.00	  133.50	 -294.75	   53.76
     57.9313	  143.00	  130.10	 -295.35	   53.79
     57.9647	  139.00	  126.95	 -296.20	   53.82
     57.9981	  145.00	  124.03	 -287.28	   53.86
     58.0315	  145.00	  121.33	 -284.58	   53.89
     58.0649	  124.00	  118.82	 -303.07	   53.92
     58.0984	  137.00	  116.49	 -287.74	   53.96
     58.1318	  121.00	  114.33	 -301.58	   53.99
     58.1652	  124.00	  112.32	 -296.57	   54.02
     58.1986	  110.00	  110.46	 -308.71	   54.06
     58.2321	  103.00	  108.72	 -313.97	   54.09
     58.2655	  113.00	  107.11	 -302.36	   54.13
     58.2989	   82.00	  105.60	 -331.85	   54.16
     58.3323	  114.00	  104.20	 -298.45	   54.19
     58.3657	   99.00	  102.90	 -312.15	   54.23
     58.3992	  109.00	  101.68	 -300.93	   54.26
     58.4326	  105.00	  100.54	 -303.79	   54.29
     58.4660	  104.00	   99.48	 -303.73	   54.33
     58.4994	   98.00	   98.49	 -308.74	   54.36
     58.5329	   99.00	   97.57	 -306.82	   54.39
     58.5663	   84.00	   96.70	 -320.95	   54.43
     58.5997	   90.00	   95.90	 -314.15	   54.46
     58.6331	   84.00	   95.14	 -319.39	   54.49
     58.6665	  103.00	   94.43	 -299.68	   54.53
     58.7000	   91.00	   93.77	 -311.02	   54.56
     58.7334	   97.00	   93.16	 -304.41	   54.59
     58.7668	   87.00	   92.58	 -313.83	   54.63
     58.8002	   94.00	   92.04	 -306.29	   54.66
     58.8337	   79.00	   91.54	 -320.79	   54.70
     58.8671	   93.00	   91.07	 -306.32	   54.73
     58.9005	   89.00	   90.63	 -309.88	   54.76
     58.9339	   95.00	   90.23	 -303.48	   54.80
     58.9674	   67.00	   89.85	 -331.10	   54.83
     59.0008	   77.00	   89.50	 -320.75	   54.86
     59.0342	  119.00	   89.18	 -278.43	   54.90
     59.0676	  103.00	   88.88	 -294.13	   54.93
     59.1010	   85.00	   88.60	 -311.85	   54.96
     59.1345	   98.00	   88.35	 -298.60	   55.00
     59.1679	  105.00	   88.11	 -291.36	   55.03
     59.2013	  116.00	   87.90	 -280.15	   55.06
     59.2347	   98.00	   87.71	 -297.96	   55.10
     59.2682	   94.00	   87.54	 -301.79	   55.13
     59.3016	   91.00	   87.39	 -304.64	   55.16
     59.3350	   76.00	   87.25	 -319.50	   55.20
     59.3684	   73.00	   87.17	 -322.42	   55.23
     59.4018	   88.00	   87.07	 -307.32	   55.27
     59.4353	   79.00	   86.98	 -316.23	   55.30
     59.4687	   91.00	   86.91	 -304.16	   55.33
     59.5021	   70.00	   86.86	 -325.11	   55.37
     59.5355	   94.00	   86.82	 -301.07	   55.40
     59.5690	   99.00	   86.82	 -296.07	   55.43
     59.6024	   88.00	   86.81	 -307.06	   55.47
     59.6358	   95.00	   86.82	 -300.07	   55.50
     59.6692	   95.00	   86.55	 -299.80	   55.53
     59.7026	   97.00	   86.59	 -297.84	   55.57
     59.7361	   91.00	   86.64	 -303.89	   55.60
     59.7695	   81.00	   86.71	 -313.96	   55.63
     59.8029	   94.00	   86.65	 -300.90	   55.67
     59.8363	   99.00	   86.75	 -296.00	   55.70
     59.8698	   97.00	   86.86	 -298.11	   55.73
     59.9032	  103.00	   86.99	 -292.24	   55.77
     59.9366	   88.00	   87.13	 -307.38	   55.80
     59.9700	   92.00	   87.29	 -303.54	   55.83
     60.0034	   81.00	   87.46	 -314.71	   55.87
     60.0369	   80.00	   87.65	 -315.90	   55.90
     60.0703	  105.00	   87.85	 -291.10	   55.94
     60.1037	   89.00	   88.07	 -307.32	   55.97
     60.1371	   93.00	   88.31	 -303.56	   56.00
     60.1706	   99.00	   88.56	 -297.81	   56.04
     60.2040	  119.00	   88.83	 -278.08	   56.07
     60.2374	   94.00	   89.12	 -303.37	   56.10
     60.2708	   87.00	   89.42	 -310.67	   56.14
     60.3042	  107.00	   89.75	 -291.00	   56.17
     60.3377	   88.00	   90.10	 -310.35	   56.20
     60.3711	   85.00	   90.46	 -313.71	   56.24
     60.4045	  100.00	   90.85	 -299.10	   56.27
     60.4379	  112.00	   91.26	 -287.51	   56.30
     60.4714	  100.00	   91.69	 -299.94	   56.34
     60.5048	  123.00	   92.15	 -277.40	   56.37
     60.5382	   88.00	   92.63	 -312.88	   56.40
     60.5716	   71.00	   93.14	 -330.39	   56.44
     60.6051	  113.00	   93.68	 -288.93	   56.47
     60.6385	  103.00	   94.24	 -299.49	   56.51
     60.6719	  109.00	   94.84	 -294.09	   56.54
     60.7053	   84.00	   95.47	 -319.72	   56.57
     60.7387	   91.00	   96.03	 -313.28	   56.51
     60.7722	   94.00	   96.62	 -310.87	   56.43
     60.8056	   99.00	   97.25	 -306.50	   56.36
     60.8390	   96.00	   97.92	 -310.17	   56.28
     60.8724	  118.00	   98.63	 -288.88	   56.21
     60.9059	   94.00	   99.39	 -313.64	   56.13
     60.9393	  103.00	  100.19	 -305.44	   56.05
     60.9727	  100.00	  101.05	 -309.30	   55.98
     61.0061	   96.00	  101.96	 -314.21	   55.90
     61.0395	  104.00	  102.93	 -307.18	   55.83
     61.0730	   92.00	  103.97	 -320.22	   55.75
     61.1064	  102.00	  105.06	 -311.31	   55.68
     61.1398	  108.00	  106.23	 -306.48	   55.60
     61.1732	  103.00	  107.48	 -312.73	   55.52
     61.2067	  113.00	  108.81	 -304.06	   55.45
     61.2401	  132.00	  110.23	 -286.48	   55.37
     61.2735	  120.00	  111.74	 -299.99	   55.30
     61.3069	  113.00	  113.35	 -308.60	   55.22
     61.3403	  129.00	  115.07	 -294.32	   55.15
     61.3738	  118.00	  116.91	 -307.16	   55.07
     61.4072	  111.00	  118.87	 -316.12	   54.99
     61.4406	  124.00	  120.97	 -305.22	   54.92
     61.4740	  128.00	  123.21	 -303.46	   54.84
     61.5075	  118.00	  125.62	 -315.87	   54.77
     61.5409	  136.00	  128.19	 -300.44	   54.69
     61.5743	  137.00	  130.95	 -302.20	   54.62
     61.6077	  136.00	  133.90	 -306.15	   54.54
     61.6412	  129.00	  137.07	 -316.32	   54.46
     61.6746	  136.00	  140.46	 -312.71	   54.39
     61.7080	  184.00	  144.11	 -268.36	   54.31
     61.7414	  161.00	  148.01	 -295.26	   54.24
     61.7748	  160.00	  152.20	 -300.45	   54.16
     61.8083	  196.00	  156.70	 -268.95	   54.09
     61.8417	  180.00	  161.51	 -289.76	   54.01
     61.8751	  219.00	  166.67	 -255.92	   53.93
     61.9085	  191.00	  172.20	 -289.45	   53.86
     61.9420	  209.00	  178.11	 -277.36	   53.78
     61.9754	  234.00	  184.42	 -258.67	   53.71
     62.0088	  206.00	  191.15	 -293.40	   53.63
     62.0422	  223.00	  198.30	 -283.55	   53.56
     62.0756	  257.00	  205.87	 -257.12	   53.48
     62.1091	  259.00	  213.88	 -263.13	   53.40
     62.1425	  278.00	  222.29	 -252.54	   53.33
     62.1759	  270.00	  231.08	 -269.33	   53.25
     62.2093	  283.00	  240.21	 -265.46	   53.18
     62.2428	  288.00	  249.61	 -269.86	   53.10
     62.2762	  308.00	  259.19	 -259.44	   53.03
     62.3096	  342.00	  268.84	 -235.09	   52.95
     62.3430	  354.00	  278.42	 -232.67	   52.87
     62.3764	  330.00	  287.78	 -266.03	   52.80
     62.4099	  386.00	  296.72	 -218.97	   52.72
     62.4433	  367.00	  305.05	 -246.30	   52.65
     62.4767	  369.00	  312.56	 -251.81	   52.57
     62.5101	  372.00	  319.05	 -255.30	   52.50
     62.5436	  391.00	  324.32	 -241.57	   52.42
     62.5770	  414.00	  328.22	 -222.47	   52.34
     62.6104	  415.00	  330.62	 -223.87	   52.27
     62.6438	  394.00	  331.44	 -245.69	   52.19
     62.6772	  428.00	  330.67	 -210.92	   52.12
     62.7107	  374.00	  328.33	 -262.58	   52.04
     62.7441	  377.00	  324.50	 -255.75	   51.97
     62.7775	  357.00	  319.30	 -270.55	   51.89
     62.8109	  373.00	  312.89	 -248.14	   51.81
     62.8444	  350.00	  305.46	 -263.71	   51.74
     62.8778	  373.00	  297.19	 -232.44	   51.66
     62.9112	  357.00	  288.28	 -239.53	   51.59
     62.9446	  335.00	  278.92	 -252.17	   51.51
     62.9781	  339.00	  269.30	 -238.55	   51.44
     63.0115	  335.00	  259.57	 -232.82	   51.36
     63.0449	  334.00	  249.87	 -224.12	   51.28
     63.0783	  305.00	  240.31	 -243.56	   51.21
     63.1117	  251.00	  230.99	 -288.24	   51.13
     63.1452	  304.00	  221.97	 -226.22	   51.06
     63.1786	  262.00	  213.31	 -259.56	   50.98
     63.2120	  232.00	  205.04	 -281.29	   50.91
     63.2454	  284.00	  197.18	 -221.43	   50.83
     63.2789	  250.00	  188.72	 -246.97	   50.76
     63.3123	  247.00	  181.71	 -242.96	   50.68
     63.3457	  269.00	  175.11	 -214.36	   50.60
     63.3791	  222.00	  168.91	 -255.16	   50.53
     63.4125	  192.00	  162.59	 -278.84	   50.45
     63.4460	  191.00	  157.14	 -274.39	   50.38
     63.4794	  216.00	  152.05	 -244.30	   50.30
     63.5128	  233.00	  147.29	 -222.54	   50.23
     63.5462	  239.00	  142.83	 -212.08	   50.15
     63.5797	  198.00	  138.66	 -248.91	   50.07
     63.6131	  174.00	  134.76	 -269.01	   50.00
     63.6465	  183.00	  131.11	 -256.36	   49.92
     63.6799	  147.00	  127.70	 -288.95	   49.85
     63.7133	  190.00	  124.50	 -242.75	   49.77
     63.7468	  171.00	  121.50	 -258.75	   49.70
     63.7802	  156.00	  118.69	 -270.94	   49.62
     63.8136	  152.00	  116.06	 -272.31	   49.54
     63.8470	  155.00	  113.58	 -266.83	   49.47
     63.8805	  152.00	  111.26	 -267.51	   49.39
     63.9139	  178.00	  109.07	 -239.32	   49.32
     63.9473	  155.00	  107.01	 -260.26	   49.24
     63.9807	  149.00	  105.07	 -264.32	   49.17
     64.0142	  140.00	  103.25	 -271.50	   49.09
     64.0476	  136.00	  101.52	 -273.77	   49.01
     64.0810	  127.00	   99.89	 -281.14	   48.94
     64.1144	  128.00	   98.36	 -278.61	   48.86
     64.1478	  122.00	   96.90	 -283.15	   48.79
     64.1813	  120.00	   95.53	 -283.78	   48.71
     64.2147	  122.00	   94.22	 -280.47	   48.64
     64.2481	  114.00	   92.99	 -287.24	   48.56
     64.2815	  127.00	   91.81	 -273.06	   48.48
     64.3149	  114.00	   90.70	 -284.95	   48.41
     64.3484	  128.00	   89.65	 -269.90	   48.33
     64.3818	  107.00	   88.77	 -290.02	   48.26
     64.4152	  107.00	   87.82	 -289.07	   48.18
     64.4486	   94.00	   86.91	 -301.16	   48.11
     64.4821	  108.00	   86.05	 -286.30	   48.03
     64.5155	   93.00	   85.23	 -300.48	   47.95
     64.5489	   88.00	   84.45	 -304.70	   47.88
     64.5823	   89.00	   83.77	 -303.02	   47.80
     64.6158	   95.00	   83.07	 -296.32	   47.73
     64.6492	   71.00	   82.39	 -319.64	   47.65
     64.6826	   99.00	   81.75	 -291.00	   47.58
     64.7160	  104.00	   81.15	 -285.40	   47.50
     64.7494	   93.00	   80.57	 -295.82	   47.42
     64.7829	   95.00	   80.02	 -293.27	   47.35
     64.8163	   78.00	   79.50	 -309.75	   47.27
     64.8497	   80.00	   79.00	 -307.25	   47.20
     64.8831	   83.00	   78.53	 -303.78	   47.12
     64.9166	   75.00	   78.09	 -311.34	   47.05
     64.9500	   83.00	   77.67	 -302.92	   46.97
     64.9834	   81.00	   77.28	 -304.53	   46.89
     65.0168	   79.00	   76.91	 -306.16	   46.82
     65.0502	   81.00	   76.56	 -303.81	   46.74
     65.0837	   79.00	   76.24	 -305.49	   46.67
     65.1171	   79.00	   75.94	 -305.19	   46.59
     65.1505	   75.00	   75.66	 -308.91	   46.52
     65.1839	   78.00	   75.40	 -305.65	   46.44
     65.2174	   73.00	   75.17	 -310.42	   46.36
     65.2508	   88.00	   74.95	 -295.20	   46.29
     65.2842	   79.00	   74.76	 -304.01	   46.21
     65.3176	   61.00	   74.59	 -321.84	   46.14
     65.3511	   69.00	   74.43	 -313.68	   46.06
     65.3845	   65.00	   74.30	 -317.55	   45.99
     65.4179	   76.00	   74.18	 -306.43	   45.91
     65.4513	   70.00	   74.07	 -312.32	   45.83
     65.4847	   75.00	   73.98	 -307.23	   45.76
     65.5182	   62.00	   73.90	 -320.15	   45.68
     65.5516	   69.00	   73.82	 -313.07	   45.61
     65.5850	   82.00	   73.74	 -299.99	   45.53
     65.6184	   66.00	   73.68	 -315.93	   45.48
     65.6519	   81.00	   73.62	 -300.87	   45.42
     65.6853	   85.00	   73.55	 -296.80	   45.37
     65.7187	   80.00	   73.46	 -301.71	   45.32
     65.7521	   58.00	   73.35	 -323.60	   45.27
     65.7855	   64.00	   73.22	 -317.47	   45.22
     65.8190	   82.00	   73.06	 -299.31	   45.17
     65.8524	   69.00	   72.87	 -312.12	   45.11
     65.8858	   61.00	   72.66	 -319.91	   45.06
     65.9192	   71.00	   72.41	 -309.66	   45.01
     65.9527	   76.00	   72.13	 -304.38	   44.96
     65.9861	   73.00	   71.83	 -307.08	   44.91
     66.0195	   83.00	   71.50	 -296.75	   44.86
     66.0529	   73.00	   71.15	 -306.40	   44.81
     66.0863	   83.00	   70.79	 -296.04	   44.75
     66.1198	   73.00	   70.41	 -305.66	   44.70
     66.1532	   60.00	   70.02	 -318.27	   44.65
     66.1866	   55.00	   69.63	 -322.88	   44.60
     66.2200	   74.00	   69.23	 -303.48	   44.55
     66.2535	   65.00	   68.84	 -312.09	   44.50
     66.2869	   51.00	   68.45	 -325.70	   44.44
     66.3203	   73.00	   68.07	 -303.32	   44.39
     66.3537	   62.00	   67.69	 -313.94	   44.34
     66.3872	   60.00	   67.33	 -315.58	   44.29
     66.4206	   61.00	   66.97	 -314.22	   44.24
     66.4540	   49.00	   66.63	 -325.88	   44.19
     66.4874	   40.00	   66.30	 -334.55	   44.13
     66.5208	   63.00	   65.98	 -311.23	   44.08
     66.5543	   68.00	   65.67	 -305.92	   44.03
     66.5877	   50.00	   65.38	 -323.63	   43.98
     66.6211	   76.00	   65.09	 -297.34	   43.93
     66.6545	   60.00	   64.82	 -313.07	   43.88
     66.6880	   60.00	   64.55	 -312.80	   43.83
     66.7214	   58.00	   64.30	 -314.55	   43.77
     66.7548	   75.00	   64.06	 -297.31	   43.72
     66.7882	   76.00	   63.82	 -296.07	   43.67
     66.8216	   68.00	   63.60	 -303.85	   43.62
     66.8551	   55.00	   63.38	 -316.63	   43.57
     66.8885	   66.00	   63.17	 -305.42	   43.52
     66.9219	   65.00	   62.97	 -306.22	   43.46
     66.9553	   49.00	   62.78	 -322.03	   43.41
     66.9888	   50.00	   62.59	 -320.84	   43.36
     67.0222	   62.00	   62.41	 -308.66	   43.31
     67.0556	   69.00	   62.23	 -301.48	   43.26
     67.0890	   54.00	   62.06	 -316.31	   43.21
     67.1224	   50.00	   61.89	 -320.14	   43.15
     67.1559	   61.00	   61.73	 -308.98	   43.10
     67.1893	   74.00	   61.58	 -295.83	   43.05
     67.2227	   51.00	   61.43	 -318.68	   43.00
     67.2561	   63.00	   61.28	 -306.53	   42.95
     67.2896	   64.00	   61.13	 -305.38	   42.90
     67.3230	   66.00	   61.33	 -303.58	   42.85
     67.3564	   48.00	   61.20	 -321.45	   42.79
     67.3898	   65.00	   61.07	 -304.32	   42.74
     67.4232	   60.00	   60.94	 -309.19	   42.69
     67.4567	   65.00	   60.82	 -304.07	   42.64
     67.4901	   49.00	   60.70	 -319.95	   42.59
     67.5235	   46.00	   60.75	 -323.00	   42.54
     67.5569	   66.00	   60.64	 -302.89	   42.48
     67.5904	   44.00	   60.53	 -324.78	   42.43
     67.6238	   68.00	   60.43	 -300.68	   42.38
     67.6572	   66.00	   60.32	 -302.57	   42.33
     67.6906	   70.00	   60.22	 -298.47	   42.28
     67.7241	   62.00	   60.12	 -306.37	   42.23
     67.7575	   63.00	   60.03	 -305.28	   42.18
     67.7909	   68.00	   59.93	 -300.18	   42.12
     67.8243	   82.00	   59.84	 -286.09	   42.07
     67.8577	   83.00	   59.75	 -285.00	   42.02
     67.8912	   74.00	   59.67	 -293.92	   41.97
     67.9246	   71.00	   59.58	 -296.83	   41.92
     67.9580	   81.00	   59.50	 -286.75	   41.87
     67.9914	   61.00	   59.42	 -306.67	   41.81
     68.0249	   61.00	   59.34	 -306.59	   41.76
     68.0583	   62.00	   59.26	 -305.51	   41.71
     68.0917	   58.00	   59.18	 -309.43	   41.66
     68.1251	   74.00	   59.11	 -293.36	   41.61
     68.1585	   68.00	   59.04	 -299.29	   41.56
     68.1920	   78.00	   58.97	 -289.22	   41.50
     68.2254	   68.00	   58.90	 -299.15	   41.45
     68.2588	   68.00	   58.84	 -299.09	   41.40
     68.2922	   80.00	   58.93	 -287.18	   41.35
     68.3257	   60.00	   58.87	 -307.12	   41.30
     68.3591	   49.00	   58.81	 -318.06	   41.25
     68.3925	   61.00	   58.76	 -306.01	   41.20
     68.4259	   62.00	   58.70	 -304.95	   41.14
     68.4594	   54.00	   58.65	 -312.90	   41.09
     68.4928	   52.00	   58.68	 -314.93	   41.04
     68.5262	   63.00	   58.63	 -303.88	   40.99
     68.5596	   68.00	   58.59	 -298.84	   40.94
     68.5930	   67.00	   58.54	 -299.79	   40.89
     68.6265	   68.00	   58.50	 -298.75	   40.83
     68.6599	   79.00	   58.46	 -287.71	   40.78
     68.6933	   61.00	   58.43	 -305.68	   40.73
     68.7267	   50.00	   58.39	 -316.64	   40.68
     68.7601	   62.00	   58.36	 -304.61	   40.63
     68.7936	   49.00	   58.33	 -317.58	   40.58
     68.8270	   68.00	   58.30	 -298.55	   40.52
     68.8604	   62.00	   58.28	 -304.53	   40.47
     68.8938	   69.00	   58.25	 -297.50	   40.42
     68.9273	   62.00	   58.23	 -304.48	   40.37
     68.9607	   56.00	   58.22	 -310.47	   40.32
     68.9941	   51.00	   56.76	 -314.01	   40.27
     69.0275	   61.00	   56.77	 -304.02	   40.22
     69.0610	   53.00	   56.77	 -312.02	   40.16
     69.0944	   67.00	   56.78	 -298.03	   40.11
     69.1278	   39.00	   56.80	 -326.05	   40.06
     69.1612	   54.00	   56.09	 -310.34	   40.01
     69.1946	   37.00	   56.12	 -327.37	   39.96
     69.2281	   63.00	   56.15	 -301.40	   39.91
     69.2615	   64.00	   56.19	 -300.44	   39.85
     69.2949	   65.00	   56.22	 -299.47	   39.80
     69.3283	   54.00	   56.27	 -310.52	   39.75
     69.3618	   65.00	   56.31	 -299.56	   39.70
     69.3952	   66.00	   56.37	 -298.62	   39.65
     69.4286	   62.00	   56.42	 -302.67	   39.60
     69.4620	   62.00	   56.49	 -302.74	   39.54
     69.4954	   66.00	   56.56	 -298.81	   39.49
     69.5289	   49.00	   56.63	 -315.88	   39.44
     69.5623	   55.00	   56.71	 -309.96	   39.39
     69.5957	   73.00	   56.80	 -292.05	   39.34
     69.6291	   48.00	   56.89	 -317.14	   39.29
     69.6626	   61.00	   57.00	 -304.25	   39.24
     69.6960	   44.00	   57.12	 -321.37	   39.20
     69.7294	   68.00	   57.28	 -297.53	   39.19
     69.7628	   67.00	   57.46	 -298.71	   39.18
     69.7962	   68.00	   57.64	 -297.89	   39.18
     69.8297	   64.00	   57.83	 -302.08	   39.17
     69.8631	   66.00	   58.04	 -300.29	   39.16
     69.8965	   69.00	   58.26	 -297.51	   39.16
     69.9299	   60.00	   58.49	 -306.74	   39.15
     69.9634	   55.00	   58.73	 -311.98	   39.14
     69.9968	   51.00	   58.99	 -316.24	   39.14
     70.0302	   56.00	   59.26	 -311.51	   39.13
     70.0636	   67.00	   59.55	 -300.80	   39.12
     70.0971	   60.00	   59.86	 -308.11	   39.12
     70.1305	   71.00	   60.18	 -297.43	   39.11
     70.1639	   50.00	   60.53	 -318.78	   39.10
     70.1973	   70.00	   60.89	 -299.14	   39.10
     70.2307	   65.00	   61.28	 -304.53	   39.09
     70.2642	   65.00	   61.69	 -304.94	   39.08
     70.2976	   61.00	   62.12	 -309.37	   39.08
     70.3310	   80.00	   62.58	 -290.83	   39.07
     70.3644	   58.00	   63.06	 -313.31	   39.06
     70.3979	   59.00	   63.56	 -312.81	   39.06
     70.4313	   60.00	   64.09	 -312.34	   39.05
     70.4647	   65.00	   64.64	 -307.89	   39.04
     70.4981	   69.00	   65.22	 -304.47	   39.04
     70.5315	   70.00	   65.82	 -304.07	   39.03
     70.5650	   59.00	   66.44	 -315.69	   39.02
     70.5984	   65.00	   67.07	 -310.32	   39.02
     70.6318	   75.00	   67.72	 -300.97	   39.01
     70.6652	  106.00	   68.37	 -270.62	   39.00
     70.6987	   74.00	   69.02	 -303.27	   39.00
     70.7321	   70.00	   69.67	 -307.92	   38.99
     70.7655	   76.00	   70.30	 -302.55	   38.98
     70.7989	   68.00	   70.91	 -311.16	   38.98
     70.8323	   70.00	   71.49	 -309.74	   38.97
     70.8658	   83.00	   72.02	 -297.27	   38.96
     70.8992	   80.00	   72.49	 -300.74	   38.96
     70.9326	   77.00	   72.91	 -304.16	   38.95
     70.9660	   98.00	   73.25	 -283.50	   38.94
     70.9995	   76.00	   73.52	 -305.77	   38.94
     71.0329	   85.00	   73.70	 -296.95	   38.93
     71.0663	   65.00	   73.80	 -317.05	   38.92
     71.0997	   73.00	   73.81	 -309.06	   38.92
     71.1331	   79.00	   73.74	 -302.99	   38.91
     71.1666	   90.00	   73.58	 -291.83	   38.90
     71.2000	   84.00	   73.35	 -297.60	   38.90
     71.2334	   76.00	   73.05	 -305.30	   38.89
     71.2668	   79.00	   72.69	 -301.94	   38.88
     71.3003	   74.00	   72.27	 -306.52	   38.88
     71.3337	   67.00	   71.82	 -313.07	   38.87
     71.3671	   83.00	   71.33	 -296.58	   38.86
     71.4005	   76.00	   70.82	 -303.07	   38.86
     71.4340	   75.00	   70.29	 -303.54	   38.85
     71.4674	   66.00	   69.76	 -312.01	   38.84
     71.5008	   84.00	   69.23	 -293.48	   38.84
     71.5342	   73.00	   68.71	 -303.96	   38.83
     71.5676	   70.00	   68.20	 -306.45	   38.82
     71.6011	   80.00	   67.70	 -295.95	   38.82
     71.6345	   77.00	   67.23	 -298.48	   38.81
     71.6679	   69.00	   66.78	 -306.03	   38.80
     71.7013	   77.00	   66.35	 -297.60	   38.80
     71.7348	  100.00	   65.96	 -274.21	   38.79
     71.7682	   75.00	   65.58	 -298.83	   38.78
     71.8016	   69.00	   65.24	 -304.49	   38.78
     71.8350	   73.00	   64.92	 -300.17	   38.77
     71.8684	   91.00	   64.64	 -281.89	   38.76
     71.9019	   81.00	   64.38	 -291.63	   38.76
     71.9353	   78.00	   64.14	 -294.39	   38.75
     71.9687	   87.00	   63.94	 -285.19	   38.75
     72.0021	   64.00	   63.75	 -308.00	   38.74
     72.0356	   71.00	   63.60	 -300.85	   38.73
     72.0690	   76.00	   63.57	 -295.82	   38.73
     72.1024	   88.00	   63.46	 -283.71	   38.72
     72.1358	   82.00	   63.38	 -289.63	   38.71
     72.1693	   73.00	   63.32	 -298.57	   38.71
     72.2027	   81.00	   63.28	 -290.53	   38.70
     72.2361	   78.00	   63.26	 -293.51	   38.69
     72.2695	   67.00	   63.26	 -304.51	   38.69
     72.3029	   71.00	   63.30	 -300.55	   38.68
     72.3364	   82.00	   63.35	 -289.60	   38.67
     72.3698	   82.00	   63.42	 -289.67	   38.67
     72.4032	   79.00	   63.51	 -292.76	   38.66
     72.4366	   88.00	   63.62	 -283.87	   38.65
     72.4701	   68.00	   63.75	 -304.00	   38.65
     72.5035	   73.00	   63.89	 -299.14	   38.64
     72.5369	   87.00	   64.06	 -285.31	   38.63
     72.5703	   79.00	   64.26	 -293.51	   38.63
     72.6037	   93.00	   64.48	 -279.73	   38.62
     72.6372	   84.00	   64.73	 -288.98	   38.61
     72.6706	   82.00	   65.00	 -291.25	   38.61
     72.7040	   87.00	   65.29	 -286.54	   38.60
     72.7374	   81.00	   65.61	 -292.86	   38.59
     72.7709	   75.00	   65.96	 -299.21	   38.59
     72.8043	   77.00	   66.34	 -297.59	   38.58
     72.8377	   87.00	   66.74	 -287.99	   38.57
     72.8711	   81.00	   67.18	 -294.43	   38.57
     72.9045	   87.00	   67.65	 -288.90	   38.56
     72.9380	   77.00	   68.15	 -299.40	   38.55
     72.9714	   82.00	   68.69	 -294.94	   38.55
     73.0048	   84.00	   69.27	 -293.52	   38.54
     73.0382	   98.00	   69.89	 -280.14	   38.53
     73.0717	   78.00	   70.54	 -300.79	   38.53
     73.1051	   88.00	   71.25	 -291.50	   38.52
     73.1385	   69.00	   71.99	 -311.24	   38.51
     73.1719	   80.00	   72.79	 -301.04	   38.51
     73.2053	   71.00	   73.63	 -310.88	   38.50
     73.2388	   87.00	   74.53	 -295.78	   38.49
     73.2722	   84.00	   75.48	 -299.73	   38.49
     73.3056	   77.00	   76.49	 -307.74	   38.48
     73.3390	   85.00	   77.56	 -300.81	   38.47
     73.3725	   93.00	   78.68	 -293.93	   38.47
     73.4059	   85.00	   79.87	 -303.12	   38.46
     73.4393	   74.00	   81.11	 -315.36	   38.45
     73.4727	   90.00	   82.41	 -300.66	   38.45
     73.5061	   94.00	   83.77	 -298.02	   38.44
     73.5396	   93.00	   85.19	 -300.44	   38.43
     73.5730	  100.00	   86.65	 -294.90	   38.43
     73.6064	   97.00	   88.16	 -299.41	   38.42
     73.6398	   84.00	   89.70	 -313.95	   38.41
     73.6733	   97.00	   91.28	 -302.53	   38.41
     73.7067	  108.00	   92.86	 -293.11	   38.40
     73.7401	  103.00	   94.44	 -299.69	   38.39
     73.7735	  100.00	   96.01	 -304.26	   38.39
     73.8070	  103.00	   97.55	 -302.80	   38.38
     73.8404	   99.00	   99.03	 -308.28	   38.37
     73.8738	   92.00	  100.43	 -316.68	   38.37
     73.9072	   99.00	  101.75	 -311.00	   38.36
     73.9406	   99.00	  102.94	 -312.19	   38.35
     73.9741	   91.00	  104.01	 -321.26	   38.35
     74.0075	  114.00	  104.92	 -299.17	   38.34
     74.0409	  113.00	  105.67	 -300.92	   38.33
     74.0743	  102.00	  106.25	 -312.50	   38.33
     74.1078	  125.00	  106.65	 -289.90	   38.32
     74.1412	  106.00	  106.87	 -309.12	   38.31
     74.1746	  111.00	  106.93	 -304.18	   38.31
     74.2080	  104.00	  106.81	 -311.06	   38.30
     74.2414	   96.00	  106.54	 -318.79	   38.29
     74.2749	  121.00	  106.14	 -293.39	   38.29
     74.3083	  110.00	  105.61	 -303.86	   38.28
     74.3417	  100.00	  104.98	 -313.23	   38.27
     74.3751	   87.00	  104.27	 -325.52	   38.27
     74.4086	  109.00	  103.50	 -302.75	   38.26
     74.4420	   90.00	  102.69	 -320.94	   38.25
     74.4754	  112.00	  101.86	 -298.11	   38.25
     74.5088	  105.00	  101.02	 -304.27	   38.24
     74.5423	  112.00	  100.19	 -296.44	   38.23
     74.5757	   89.00	   99.38	 -318.63	   38.23
     74.6091	   87.00	   98.60	 -319.85	   38.22
     74.6425	   71.00	   97.86	 -335.11	   38.21
     74.6759	  109.00	   97.16	 -296.41	   38.21
     74.7094	   96.00	   96.49	 -308.74	   38.20
     74.7428	   98.00	   95.87	 -306.12	   38.19
     74.7762	   91.00	   95.28	 -312.53	   38.19
     74.8096	  108.00	   94.71	 -294.96	   38.18
     74.8430	  103.00	   94.17	 -299.42	   38.17
     74.8765	   98.00	   93.67	 -303.92	   38.17
     74.9099	   91.00	   93.14	 -310.39	   38.16
     74.9433	   87.00	   92.60	 -313.85	   38.15
     74.9767	  110.00	   92.05	 -290.30	   38.15
     75.0102	   91.00	   91.47	 -308.72	   38.14
     75.0436	   90.00	   90.86	 -309.11	   38.13
     75.0770	   92.00	   90.20	 -306.45	   38.13
     75.1104	   90.00	   89.51	 -307.76	   38.12
     75.1439	   69.00	   88.76	 -328.01	   38.11
     75.1773	   89.00	   87.96	 -307.21	   38.11
     75.2107	   71.00	   87.11	 -324.36	   38.10
     75.2441	   82.00	   86.22	 -312.47	   38.09
     75.2775	   87.00	   85.29	 -306.54	   38.09
     75.3110	   59.00	   84.32	 -333.57	   38.08
     75.3444	   59.00	   83.32	 -332.57	   38.07
     75.3778	   76.00	   82.30	 -314.55	   38.07
     75.4112	   94.00	   81.27	 -295.52	   38.06
     75.4447	   94.00	   80.23	 -294.48	   38.05
     75.4781	   97.00	   79.19	 -290.44	   38.05
     75.5115	   75.00	   78.16	 -311.41	   38.04
     75.5449	   78.00	   77.15	 -307.40	   38.03
     75.5783	   79.00	   76.15	 -305.40	   38.03
     75.6118	   95.00	   75.17	 -288.42	   38.02
     75.6452	   68.00	   74.22	 -314.47	   38.01
     75.6786	   67.00	   73.30	 -314.55	   38.01
     75.7120	   70.00	   72.41	 -310.66	   38.00
     75.7455	   82.00	   71.55	 -297.80	   37.99
     75.7789	   77.00	   70.73	 -301.98	   37.99
     75.8123	   80.00	   69.95	 -298.20	   37.98
     75.8457	   79.00	   69.20	 -298.45	   37.97
     75.8792	   66.00	   68.48	 -310.73	   37.97
     75.9126	   82.00	   67.80	 -294.05	   37.96
     75.9460	   80.00	   67.15	 -295.40	   37.96
     75.9794	   70.00	   66.53	 -304.78	   37.95
     76.0128	   71.00	   65.95	 -303.20	   37.94
     76.0463	   79.00	   65.39	 -294.64	   37.94
     76.0797	   69.00	   64.86	 -304.11	   37.93
     76.1131	   61.00	   64.36	 -311.61	   37.92
     76.1465	   67.00	   63.89	 -305.14	   37.92
     76.1800	   73.00	   63.44	 -298.69	   37.91
     76.2134	   79.00	   63.01	 -292.26	   37.90
     76.2468	   81.00	   62.61	 -289.86	   37.90
     76.2802	   76.00	   62.23	 -294.48	   37.89
     76.3136	   63.00	   61.87	 -307.12	   37.88
     76.3471	   61.00	   61.52	 -308.77	   37.88
     76.3805	   68.00	   61.20	 -301.45	   37.87
     76.4139	   63.00	   60.89	 -306.14	   37.86
     76.4473	   70.00	   60.60	 -298.85	   37.86
     76.4808	   48.00	   60.32	 -320.57	   37.85
     76.5142	   62.00	   60.06	 -306.31	   37.84
     76.5476	   58.00	   59.82	 -310.07	   37.84
     76.5810	   58.00	   59.58	 -309.83	   37.83
     76.6144	   58.00	   59.36	 -309.61	   37.82
     76.6479	   65.00	   59.15	 -302.40	   37.82
     76.6813	   60.00	   58.95	 -307.20	   37.81
     76.7147	   60.00	   58.76	 -307.01	   37.80
     76.7481	   47.00	   58.59	 -319.84	   37.80
     76.7816	   65.00	   58.42	 -301.67	   37.79
     76.8150	   60.00	   58.26	 -306.51	   37.78
     76.8484	   56.00	   58.11	 -310.36	   37.78
     76.8818	   51.00	   57.97	 -315.22	   37.77
     76.9153	   63.00	   57.84	 -303.09	   37.76
     76.9487	   66.00	   57.72	 -299.97	   37.76
     76.9821	   59.00	   57.61	 -306.86	   37.75
     77.0155	   54.00	   57.50	 -311.75	   37.74
     77.0489	   69.00	   57.40	 -296.65	   37.74
     77.0824	   46.00	   57.31	 -319.56	   37.73
     77.1158	   53.00	   57.22	 -312.47	   37.72
     77.1492	   51.00	   57.15	 -314.40	   37.72
     77.1826	   50.00	   57.08	 -315.33	   37.71
     77.2160	   69.00	   57.01	 -296.26	   37.70
     77.2495	   49.00	   56.96	 -316.21	   37.70
     77.2829	   48.00	   56.91	 -317.16	   37.69
     77.3163	   45.00	   56.86	 -320.11	   37.68
     77.3497	   56.00	   56.83	 -309.08	   37.68
     77.3832	   58.00	   56.80	 -307.05	   37.67
     77.4166	   68.00	   56.78	 -297.03	   37.66
     77.4500	   55.00	   56.76	 -310.01	   37.66
     77.4834	   50.00	   56.75	 -315.00	   37.65
     77.5169	   54.00	   56.75	 -311.00	   37.64
     77.5503	   51.00	   56.76	 -314.01	   37.64
     77.5837	   54.00	   56.77	 -311.02	   37.63
     77.6171	   46.00	   56.79	 -319.04	   37.62
     77.6505	   66.00	   56.82	 -299.07	   37.62
     77.6840	   46.00	   56.75	 -319.00	   37.63
     77.7174	   40.00	   56.82	 -325.07	   37.65
     77.7508	   58.00	   56.89	 -307.14	   37.66
     77.7842	   47.00	   56.97	 -318.22	   37.67
     77.8177	   54.00	   57.07	 -311.32	   37.68
     77.8511	   64.00	   57.17	 -301.42	   37.70
     77.8845	   54.00	   57.21	 -311.46	   37.71
     77.9179	   44.00	   57.33	 -321.58	   37.72
     77.9513	   51.00	   57.47	 -314.72	   37.74
     77.9848	   50.00	   57.61	 -315.86	   37.75
     78.0182	   62.00	   57.76	 -304.01	   37.76
     78.0516	   69.00	   57.93	 -297.18	   37.77
     78.0850	   69.00	   58.11	 -297.36	   37.79
     78.1185	   62.00	   58.30	 -304.55	   37.80
     78.1519	   60.00	   58.50	 -306.75	   37.81
     78.1853	   54.00	   58.72	 -312.97	   37.82
     78.2187	   45.00	   58.95	 -322.20	   37.84
     78.2522	   60.00	   59.19	 -307.44	   37.85
     78.2856	   47.00	   59.45	 -320.70	   37.86
     78.3190	   54.00	   59.72	 -313.97	   37.87
     78.3524	   47.00	   60.01	 -321.26	   37.89
     78.3858	   66.00	   60.31	 -302.56	   37.90
     78.4193	   51.00	   60.63	 -317.88	   37.91
     78.4527	   55.00	   60.96	 -314.21	   37.92
     78.4861	   61.00	   61.29	 -308.54	   37.94
     78.5195	   73.00	   61.64	 -296.89	   37.95
     78.5530	   66.00	   62.00	 -304.25	   37.96
     78.5864	   82.00	   62.37	 -288.62	   37.97
     78.6198	   66.00	   62.74	 -304.99	   37.99
     78.6532	   39.00	   63.11	 -332.36	   38.00
     78.6866	   56.00	   63.47	 -315.72	   38.01
     78.7201	   74.00	   63.83	 -298.08	   38.02
     78.7535	   67.00	   64.19	 -305.44	   38.04
     78.7869	   60.00	   64.52	 -312.77	   38.05
     78.8203	   66.00	   64.83	 -307.08	   38.06
     78.8538	   71.00	   65.12	 -302.37	   38.07
     78.8872	   58.00	   65.38	 -315.63	   38.09
     78.9206	   58.00	   65.61	 -315.86	   38.10
     78.9540	   66.00	   65.79	 -308.04	   38.11
     78.9874	   62.00	   65.94	 -312.19	   38.12
     79.0209	   58.00	   66.04	 -316.29	   38.14
     79.0543	   64.00	   66.09	 -310.34	   38.15
     79.0877	   69.00	   66.09	 -305.34	   38.16
     79.1211	   45.00	   66.05	 -329.30	   38.17
     79.1546	   66.00	   65.96	 -308.21	   38.19
     79.1880	   63.00	   65.82	 -311.07	   38.20
     79.2214	   65.00	   65.64	 -308.89	   38.21
     79.2548	   80.00	   65.43	 -293.68	   38.22
     79.2882	   62.00	   65.17	 -311.42	   38.24
     79.3217	   77.00	   64.89	 -296.14	   38.25
     79.3551	   50.00	   64.58	 -322.83	   38.26
     79.3885	   52.00	   64.24	 -320.49	   38.27
     79.4219	   66.00	   63.89	 -306.14	   38.29
     79.4554	   73.00	   63.53	 -298.78	   38.30
     79.4888	   66.00	   63.31	 -305.56	   38.31
     79.5222	   65.00	   62.93	 -306.18	   38.32
     79.5556	   59.00	   62.55	 -311.80	   38.34
     79.5891	   59.00	   62.17	 -311.42	   38.35
     79.6225	   66.00	   61.80	 -304.05	   38.36
     79.6559	   53.00	   61.43	 -316.68	   38.37
     79.6893	   58.00	   61.08	 -311.33	   38.39
     79.7227	   73.00	   60.73	 -295.98	   38.40
     79.7562	   59.00	   60.47	 -309.72	   38.41
     79.7896	   48.00	   60.14	 -320.39	   38.42
     79.8230	   66.00	   59.83	 -302.08	   38.44
     79.8564	   56.00	   59.54	 -311.79	   38.45
     79.8899	   54.00	   59.25	 -313.50	   38.46
     79.9233	   59.00	   58.98	 -308.23	   38.47
     79.9567	   54.00	   58.72	 -312.97	   38.49
     79.9901	   71.00	   58.48	 -295.73	   38.50
     80.0235	   71.00	   58.25	 -295.50	   38.51
     80.0570	   68.00	   58.03	 -298.28	   38.52
     80.0904	   47.00	   57.82	 -319.07	   38.54
     80.1238	   40.00	   57.63	 -325.88	   38.55
     80.1572	   51.00	   57.44	 -314.69	   38.56
     80.1907	   41.00	   57.27	 -324.52	   38.57
     80.2241	   69.00	   57.11	 -296.36	   38.59
     80.2575	   54.00	   56.96	 -311.21	   38.60
     80.2909	   56.00	   56.81	 -309.06	   38.61
     80.3243	   64.00	   56.68	 -300.93	   38.62
     80.3578	   54.00	   56.56	 -310.81	   38.64
     80.3912	   48.00	   56.44	 -316.69	   38.65
     80.4246	   63.00	   56.33	 -301.58	   38.66
     80.4580	   65.00	   56.23	 -299.48	   38.67
     80.4915	   66.00	   56.14	 -298.39	   38.69
     80.5249	   49.00	   56.05	 -315.30	   38.70
     80.5583	   61.00	   55.97	 -303.22	   38.71
     80.5917	   67.00	   55.90	 -297.15	   38.73
     80.6252	   67.00	   55.83	 -297.08	   38.74
     80.6586	   51.00	   55.77	 -313.02	   38.75
     80.6920	   46.00	   55.71	 -317.96	   38.76
     80.7254	   54.00	   55.66	 -309.91	   38.78
     80.7588	   59.00	   55.62	 -304.87	   38.79
     80.7923	   46.00	   55.58	 -317.83	   38.80
     80.8257	   53.00	   55.22	 -310.47	   38.81
     80.8591	   61.00	   55.19	 -302.44	   38.83
     80.8925	   60.00	   55.17	 -303.42	   38.84
     80.9259	   44.00	   55.16	 -319.41	   38.85
     80.9594	   59.00	   55.15	 -304.40	   38.86
     80.9928	   66.00	   55.14	 -297.39	   38.88
     81.0262	   64.00	   55.14	 -299.39	   38.89
     81.0596	   50.00	   54.98	 -313.23	   38.90
     81.0931	   75.00	   55.00	 -288.25	   38.91
     81.1265	   51.00	   55.01	 -312.26	   38.93
     81.1599	   47.00	   55.03	 -316.28	   38.94
     81.1933	   50.00	   55.05	 -313.30	   38.95
     81.2268	   68.00	   55.08	 -295.33	   38.96
     81.2602	   51.00	   55.11	 -312.36	   38.98
     81.2936	   66.00	   55.15	 -297.40	   38.99
     81.3270	   68.00	   55.19	 -295.44	   39.00
     81.3604	   56.00	   55.23	 -307.48	   39.01
     81.3939	   53.00	   55.28	 -310.53	   39.03
     81.4273	   45.00	   55.33	 -318.58	   39.04
     81.4607	   58.00	   55.39	 -305.64	   39.05
     81.4941	   60.00	   55.44	 -303.69	   39.06
     81.5276	   54.00	   55.50	 -309.75	   39.08
     81.5610	   63.00	   55.56	 -300.81	   39.09
     81.5944	   60.00	   55.62	 -303.87	   39.10
     81.6278	   47.00	   55.68	 -316.93	   39.11
     81.6612	   54.00	   55.74	 -309.99	   39.13
     81.6947	   63.00	   55.80	 -301.05	   39.14
     81.7281	   60.00	   55.85	 -304.10	   39.15
     81.7615	   73.00	   55.91	 -291.16	   39.16
     81.7949	   51.00	   55.96	 -313.21	   39.18
     81.8284	   46.00	   56.00	 -318.25	   39.19
     81.8618	   56.00	   55.88	 -308.13	   39.20
     81.8952	   55.00	   55.91	 -309.16	   39.21
     81.9286	   56.00	   55.94	 -308.19	   39.23
     81.9621	   62.00	   55.96	 -302.21	   39.24
     81.9955	   59.00	   55.97	 -305.22	   39.25
     82.0289	   61.00	   55.97	 -303.22	   39.26
     82.0623	   74.00	   55.96	 -290.21	   39.28
     82.0957	   61.00	   55.87	 -303.12	   39.29
     82.1292	   73.00	   55.85	 -291.10	   39.30
     82.1626	   53.00	   55.82	 -311.07	   39.31
     82.1960	   71.00	   55.79	 -293.04	   39.33
     82.2294	   61.00	   56.33	 -303.58	   39.34
     82.2629	   63.00	   56.29	 -301.54	   39.35
     82.2963	   53.00	   56.24	 -311.49	   39.36
     82.3297	   66.00	   56.19	 -298.44	   39.38
     82.3631	   62.00	   56.14	 -302.39	   39.39
     82.3965	   71.00	   56.08	 -293.33	   39.40
     82.4300	   77.00	   56.03	 -287.28	   39.41
     82.4634	   53.00	   55.97	 -311.22	   39.43
     82.4968	   52.00	   56.20	 -312.45	   39.44
     82.5302	   50.00	   56.15	 -314.40	   39.45
     82.5637	   67.00	   56.10	 -297.35	   39.46
     82.5971	   66.00	   56.04	 -298.29	   39.48
     82.6305	   52.00	   55.99	 -312.24	   39.49
     82.6639	   58.00	   55.95	 -306.20	   39.50
     82.6973	   55.00	   55.90	 -309.15	   39.51
     82.7308	   54.00	   55.86	 -310.11	   39.53
     82.7642	   44.00	   55.82	 -320.07	   39.54
     82.7976	   69.00	   55.78	 -295.03	   39.55
     82.8310	   52.00	   55.75	 -312.00	   39.56
     82.8645	   53.00	   55.71	 -310.96	   39.58
     82.8979	   49.00	   55.69	 -314.94	   39.59
     82.9313	   63.00	   55.66	 -300.91	   39.60
     82.9647	   61.00	   55.64	 -302.89	   39.61
     82.9981	   46.00	   55.62	 -317.87	   39.63
     83.0316	   60.00	   55.60	 -303.85	   39.64
     83.0650	   54.00	   55.59	 -309.84	   39.65
     83.0984	   62.00	   55.58	 -301.83	   39.66
     83.1318	   63.00	   55.57	 -300.82	   39.68
     83.1653	   50.00	   55.56	 -313.81	   39.69
     83.1987	   60.00	   55.56	 -303.81	   39.70
     83.2321	   68.00	   55.56	 -295.81	   39.72
     83.2655	   62.00	   55.56	 -301.81	   39.73
     83.2990	   80.00	   55.56	 -283.81	   39.74
     83.3324	   64.00	   55.57	 -299.82	   39.75
     83.3658	   66.00	   55.57	 -297.82	   39.77
     83.3992	   46.00	   55.58	 -317.83	   39.78
     83.4326	   63.00	   55.60	 -300.85	   39.79
     83.4661	   61.00	   55.61	 -302.86	   39.80
     83.4995	   52.00	   55.63	 -311.88	   39.82
     83.5329	   47.00	   55.65	 -316.90	   39.83
     83.5663	   58.00	   55.66	 -305.91	   39.84
     83.5998	   54.00	   55.69	 -309.94	   39.85
     83.6332	   45.00	   55.71	 -318.96	   39.87
     83.6666	   48.00	   55.74	 -315.99	   39.88
     83.7000	   46.00	   55.76	 -318.01	   39.89
     83.7334	   52.00	   55.79	 -312.04	   39.90
     83.7669	   49.00	   55.82	 -315.07	   39.92
     83.8003	   60.00	   55.85	 -304.10	   39.93
     83.8337	   64.00	   55.89	 -300.14	   39.94
     83.8671	   45.00	   55.92	 -319.17	   39.95
     83.9006	   58.00	   55.96	 -306.21	   39.97
     83.9340	   63.00	   56.00	 -301.25	   39.98
     83.9674	   62.00	   56.04	 -302.29	   39.99
     84.0008	   66.00	   56.09	 -298.34	   40.00
     84.0342	   48.00	   56.13	 -316.38	   40.02
     84.0677	   51.00	   56.18	 -313.43	   40.03
     84.1011	   68.00	   56.22	 -296.47	   40.04
     84.1345	   46.00	   56.27	 -318.52	   40.05
     84.1679	   53.00	   56.33	 -311.58	   40.07
     84.2014	   52.00	   56.38	 -312.63	   40.08
     84.2348	   62.00	   56.44	 -302.69	   40.09
     84.2682	   66.00	   56.49	 -298.74	   40.10
     84.3016	   67.00	   56.55	 -297.80	   40.12
     84.3351	   53.00	   56.61	 -311.86	   40.13
     84.3685	   55.00	   56.68	 -309.93	   40.14
     84.4019	   65.00	   56.74	 -299.99	   40.15
     84.4353	   56.00	   56.81	 -309.06	   40.17
     84.4687	   50.00	   56.88	 -315.13	   40.18
     84.5022	   61.00	   56.96	 -304.21	   40.19
     84.5356	   74.00	   57.03	 -291.28	   40.20
     84.5690	   62.00	   57.11	 -303.36	   40.22
     84.6024	   55.00	   57.19	 -310.44	   40.23
     84.6359	   62.00	   57.28	 -303.53	   40.24
     84.6693	   63.00	   57.36	 -302.61	   40.25
     84.7027	   60.00	   57.45	 -305.70	   40.27
     84.7361	   73.00	   57.54	 -292.79	   40.28
     84.7695	   67.00	   57.64	 -298.89	   40.29
     84.8030	   52.00	   57.74	 -313.99	   40.30
     84.8364	   58.00	   57.84	 -308.09	   40.32
     84.8698	   62.00	   57.95	 -304.20	   40.33
     84.9032	   70.00	   58.06	 -296.31	   40.34
     84.9367	   64.00	   58.17	 -302.42	   40.35
     84.9701	   47.00	   58.29	 -319.54	   40.37
     85.0035	   52.00	   58.41	 -314.66	   40.38
     85.0369	   71.00	   58.54	 -295.79	   40.39
     85.0703	   55.00	   58.67	 -311.92	   40.40
     85.1038	   55.00	   58.80	 -312.05	   40.42
     85.1372	   58.00	   58.95	 -309.20	   40.43
     85.1706	   58.00	   59.09	 -309.34	   40.44
     85.2040	   50.00	   59.24	 -317.49	   40.45
     85.2375	   61.00	   59.40	 -306.65	   40.47
     85.2709	   62.00	   59.57	 -305.82	   40.48
     85.3043	   61.00	   59.74	 -306.99	   40.49
     85.3377	   41.00	   59.92	 -327.17	   40.50
     85.3711	   61.00	   60.10	 -307.35	   40.52
     85.4046	   49.00	   60.29	 -319.54	   40.53
     85.4380	   55.00	   60.49	 -313.74	   40.54
     85.4714	   54.00	   60.70	 -314.95	   40.55
     85.5048	   50.00	   60.92	 -319.17	   40.57
     85.5383	   44.00	   61.14	 -325.39	   40.58
     85.5717	   55.00	   61.38	 -314.63	   40.59
     85.6051	   76.00	   61.63	 -293.88	   40.60
     85.6385	   73.00	   61.88	 -297.13	   40.62
     85.6720	   70.00	   62.15	 -300.40	   40.63
     85.7054	   51.00	   62.43	 -319.68	   40.64
     85.7388	   58.00	   62.71	 -312.96	   40.65
     85.7722	   55.00	   63.02	 -316.27	   40.67
     85.8056	   49.00	   63.33	 -322.58	   40.68
     85.8391	   58.00	   63.66	 -313.91	   40.69
     85.8725	   69.00	   64.00	 -303.25	   40.71
     85.9059	   53.00	   64.35	 -319.60	   40.72
     85.9393	   63.00	   64.72	 -309.97	   40.73
     85.9728	   53.00	   65.10	 -320.35	   40.74
     86.0062	   59.00	   65.40	 -314.65	   40.76
     86.0396	   51.00	   65.81	 -323.06	   40.77
     86.0730	   55.00	   66.23	 -319.48	   40.78
     86.1064	   71.00	   66.65	 -303.90	   40.77
     86.1399	   51.00	   67.09	 -324.34	   40.76
     86.1733	   46.00	   67.54	 -329.79	   40.75
     86.2067	   55.00	   68.00	 -321.25	   40.75
     86.2401	   51.00	   68.42	 -325.67	   40.74
     86.2736	   55.00	   68.90	 -322.15	   40.73
     86.3070	   73.00	   69.39	 -304.64	   40.72
     86.3404	   62.00	   69.88	 -316.13	   40.72
     86.3738	   61.00	   70.38	 -317.63	   40.71
     86.4072	   68.00	   70.88	 -311.13	   40.70
     86.4407	   68.00	   71.38	 -311.63	   40.69
     86.4741	   55.00	   71.87	 -325.12	   40.68
     86.5075	   59.00	   72.36	 -321.61	   40.68
     86.5409	   79.00	   72.83	 -302.08	   40.67
     86.5744	   60.00	   73.28	 -321.53	   40.66
     86.6078	   74.00	   73.71	 -307.96	   40.65
     86.6412	   74.00	   74.11	 -308.36	   40.65
     86.6746	   77.00	   74.48	 -305.73	   40.64
     86.7081	   80.00	   74.82	 -303.07	   40.63
     86.7415	   77.00	   75.34	 -306.59	   40.62
     86.7749	   64.00	   75.61	 -319.86	   40.61
     86.8083	   70.00	   75.83	 -314.08	   40.61
     86.8417	   82.00	   76.01	 -302.26	   40.60
     86.8752	   77.00	   76.14	 -307.39	   40.59
     86.9086	   60.00	   76.23	 -324.48	   40.58
     86.9420	   70.00	   76.27	 -314.52	   40.58
     86.9754	   67.00	   76.27	 -317.52	   40.57
     87.0089	   64.00	   76.23	 -320.48	   40.56
     87.0423	   73.00	   76.26	 -311.51	   40.55
     87.0757	   62.00	   76.15	 -322.40	   40.55
     87.1091	   71.00	   76.00	 -313.25	   40.54
     87.1425	   69.00	   75.83	 -315.08	   40.53
     87.1760	   77.00	   75.63	 -306.88	   40.52
     87.2094	   83.00	   75.42	 -300.67	   40.51
     87.2428	   56.00	   75.18	 -327.43	   40.51
     87.2762	   79.00	   74.94	 -304.19	   40.50
     87.3097	   68.00	   74.69	 -314.94	   40.49
     87.3431	   64.00	   74.44	 -318.69	   40.48
     87.3765	   71.00	   74.19	 -311.44	   40.48
     87.4099	   73.00	   73.95	 -309.20	   40.47
     87.4433	   68.00	   73.71	 -313.96	   40.46
     87.4768	   75.00	   73.48	 -306.73	   40.45
     87.5102	   50.00	   73.26	 -331.51	   40.45
     87.5436	   71.00	   73.06	 -310.31	   40.44
     87.5770	   66.00	   72.87	 -315.12	   40.43
     87.6105	   74.00	   72.71	 -306.96	   40.42
     87.6439	   75.00	   72.56	 -305.81	   40.41
     87.6773	   93.00	   72.44	 -287.69	   40.41
     87.7107	   85.00	   72.33	 -295.58	   40.40
     87.7441	   82.00	   72.25	 -298.50	   40.39
     87.7776	   81.00	   72.20	 -299.45	   40.38
     87.8110	   63.00	   72.16	 -317.41	   40.38
     87.8444	   79.00	   72.16	 -301.41	   40.37
     87.8778	   74.00	   72.17	 -306.42	   40.36
     87.9113	   79.00	   72.22	 -301.47	   40.35
     87.9447	   88.00	   72.29	 -292.54	   40.35
     87.9781	   73.00	   72.38	 -307.63	   40.34
     88.0115	   69.00	   72.51	 -311.76	   40.33
     88.0450	   73.00	   72.66	 -307.91	   40.32
     88.0784	   61.00	   72.84	 -320.09	   40.31
     88.1118	   81.00	   73.04	 -300.29	   40.31
     88.1452	   67.00	   73.28	 -314.53	   40.30
     88.1786	   76.00	   73.54	 -305.79	   40.29
     88.2121	   85.00	   73.84	 -297.09	   40.28
     88.2455	   78.00	   74.16	 -304.41	   40.28
     88.2789	   82.00	   74.52	 -300.77	   40.27
     88.3123	   78.00	   74.91	 -305.16	   40.26
     88.3458	   81.00	   75.33	 -302.58	   40.25
     88.3792	   80.00	   75.78	 -304.03	   40.24
     88.4126	   66.00	   76.27	 -318.52	   40.24
     88.4460	   90.00	   76.79	 -295.04	   40.23
     88.4794	   67.00	   77.35	 -318.60	   40.22
     88.5129	   84.00	   77.95	 -302.20	   40.21
     88.5463	   90.00	   78.58	 -296.83	   40.21
     88.5797	  106.00	   79.26	 -281.51	   40.20
     88.6131	   88.00	   79.98	 -300.23	   40.19
     88.6466	   89.00	   80.73	 -299.98	   40.18
     88.6800	   98.00	   81.53	 -291.78	   40.18
     88.7134	   85.00	   82.37	 -305.62	   40.17
     88.7468	  100.00	   83.26	 -291.51	   40.16
     88.7803	   78.00	   84.19	 -314.44	   40.15
     88.8137	  105.00	   85.17	 -288.42	   40.14
     88.8471	   94.00	   86.19	 -300.44	   40.14
     88.8805	   84.00	   87.26	 -311.51	   40.13
     88.9139	   99.00	   88.38	 -297.63	   40.12
     88.9474	   92.00	   89.54	 -305.79	   40.11
     88.9808	   95.00	   90.74	 -303.99	   40.11
     89.0142	   76.00	   91.99	 -324.24	   40.10
     89.0476	  105.00	   93.25	 -296.50	   40.09
     89.0810	  118.00	   94.57	 -284.82	   40.08
     89.1145	   94.00	   95.93	 -310.18	   40.08
     89.1479	  106.00	   97.31	 -299.56	   40.07
     89.1813	  103.00	   98.72	 -303.97	   40.06
     89.2147	  114.00	  100.14	 -294.39	   40.05
     89.2482	   97.00	  101.57	 -312.82	   40.04
     89.2816	  102.00	  103.00	 -309.25	   40.04
     89.3150	  117.00	  104.40	 -295.65	   40.03
     89.3484	  111.00	  105.80	 -303.05	   40.02
     89.3819	  108.00	  107.16	 -307.41	   40.01
     89.4153	  102.00	  108.48	 -314.73	   40.01
     89.4487	  107.00	  109.74	 -310.99	   40.00
     89.4821	  120.00	  110.92	 -299.17	   39.99
     89.5155	  111.00	  112.02	 -309.27	   39.98
     89.5490	  122.00	  113.02	 -299.27	   39.98
     89.5824	  120.00	  113.91	 -302.16	   39.97
     89.6158	  118.00	  114.68	 -304.93	   39.96
     89.6492	  121.00	  115.31	 -302.56	   39.95
     89.6827	  114.00	  115.80	 -310.05	   39.94
     89.7161	  123.00	  116.15	 -301.40	   39.94
     89.7495	  132.00	  116.34	 -292.59	   39.93
     89.7829	  107.00	  116.37	 -317.62	   39.92
     89.8163	  119.00	  116.25	 -305.50	   39.91
     89.8498	  114.00	  115.98	 -310.23	   39.91
     89.8832	  134.00	  115.55	 -289.80	   39.90
     89.9166	   93.00	  114.98	 -330.23	   39.89
     89.9500	  106.00	  114.28	 -316.53	   39.88
     89.9835	   94.00	  113.45	 -327.70	   39.88
     90.0169	  121.00	  112.50	 -299.75	   39.87
     90.0503	   95.00	  111.44	 -324.69	   39.86
     90.0837	  105.00	  110.29	 -313.54	   39.85
     90.1171	  117.00	  109.06	 -300.31	   39.84
     90.1506	   83.00	  107.76	 -333.01	   39.84
     90.1840	  102.00	  106.40	 -312.65	   39.83
     90.2174	   92.00	  105.00	 -321.25	   39.82
     90.2508	  102.00	  103.57	 -309.82	   39.81
     90.2843	  111.00	  102.11	 -299.36	   39.81
     90.3177	  102.00	  100.64	 -306.89	   39.80
     90.3511	  118.00	   99.17	 -289.42	   39.79
     90.3845	   95.00	   97.70	 -310.95	   39.78
     90.4180	   84.00	   96.25	 -320.50	   39.77
     90.4514	  104.00	   94.82	 -299.07	   39.77
     90.4848	   92.00	   93.41	 -309.66	   39.76
     90.5182	  108.00	   92.03	 -292.28	   39.75
     90.5516	   81.00	   90.68	 -317.93	   39.74
     90.5851	   99.00	   89.37	 -298.62	   39.74
     90.6185	   87.00	   88.10	 -309.35	   39.73
     90.6519	   82.00	   86.87	 -313.12	   39.72
     90.6853	   89.00	   85.68	 -304.93	   39.71
     90.7188	   95.00	   84.53	 -297.78	   39.71
     90.7522	   67.00	   83.42	 -324.67	   39.70
     90.7856	   89.00	   82.36	 -301.61	   39.69
     90.8190	   77.00	   81.34	 -312.59	   39.68
     90.8524	   75.00	   80.36	 -313.61	   39.67
     90.8859	   65.00	   79.41	 -322.66	   39.67
     90.9193	   74.00	   78.51	 -312.76	   39.66
     90.9527	   74.00	   77.65	 -311.90	   39.65
     90.9861	   79.00	   76.82	 -306.07	   39.64
     91.0196	   89.00	   76.04	 -295.29	   39.64
     91.0530	   93.00	   75.28	 -290.53	   39.63
     91.0864	   65.00	   74.56	 -317.81	   39.62
     91.1198	   70.00	   73.87	 -312.12	   39.61
     91.1533	   79.00	   73.21	 -302.46	   39.61
     91.1867	   68.00	   72.59	 -312.84	   39.60
     91.2201	   76.00	   71.99	 -304.24	   39.59
     91.2535	   67.00	   71.41	 -312.66	   39.58
     91.2869	   77.00	   70.87	 -302.12	   39.57
     91.3204	   59.00	   70.35	 -319.60	   39.57
     91.3538	   63.00	   69.85	 -315.10	   39.56
     91.3872	   63.00	   69.38	 -314.63	   39.55
     91.4206	   59.00	   68.92	 -318.17	   39.54
     91.4540	   65.00	   68.49	 -311.74	   39.54
     91.4875	   58.00	   68.08	 -318.33	   39.53
     91.5209	   62.00	   67.69	 -313.94	   39.52
     91.5543	   62.00	   67.32	 -313.57	   39.51
     91.5877	   68.00	   66.96	 -307.21	   39.51
     91.6212	   70.00	   66.62	 -304.87	   39.50
     91.6546	   54.00	   66.30	 -320.55	   39.49
     91.6880	   68.00	   65.99	 -306.24	   39.48
     91.7214	   42.00	   65.70	 -331.95	   39.47
     91.7549	   64.00	   65.42	 -309.67	   39.47
     91.7883	   47.00	   65.15	 -326.40	   39.46
     91.8217	   64.00	   64.90	 -309.15	   39.45
     91.8551	   66.00	   64.66	 -306.91	   39.44
     91.8885	   63.00	   64.44	 -309.69	   39.44
     91.9220	   78.00	   64.22	 -294.47	   39.43
     91.9554	   54.00	   64.02	 -318.27	   39.42
     91.9888	   52.00	   63.83	 -320.08	   39.41
     92.0222	   47.00	   63.65	 -324.90	   39.40
     92.0557	   51.00	   63.47	 -320.72	   39.40
     92.0891	   62.00	   63.31	 -309.56	   39.39
     92.1225	   58.00	   63.16	 -313.41	   39.38
     92.1559	   52.00	   63.02	 -319.27	   39.37
     92.1893	   59.00	   62.89	 -312.14	   39.37
     92.2228	   68.00	   62.76	 -303.01	   39.36
     92.2562	   64.00	   62.65	 -306.90	   39.35
     92.2896	   65.00	   62.54	 -305.79	   39.34
     92.3230	   60.00	   62.45	 -310.70	   39.34
     92.3565	   56.00	   62.36	 -314.61	   39.33
     92.3899	   55.00	   62.28	 -315.53	   39.32
     92.4233	   53.00	   62.21	 -317.46	   39.31
     92.4567	   66.00	   62.14	 -304.39	   39.30
     92.4902	   61.00	   62.09	 -309.34	   39.30
     92.5236	   68.00	   62.04	 -302.29	   39.29
     92.5570	   62.00	   62.00	 -308.25	   39.28
     92.5904	   56.00	   61.97	 -314.22	   39.27
     92.6238	   77.00	   61.95	 -293.20	   39.27
     92.6573	   64.00	   61.93	 -306.18	   39.26
     92.6907	   62.00	   61.93	 -308.18	   39.25
     92.7241	   59.00	   61.93	 -311.18	   39.24
     92.7575	   61.00	   61.94	 -309.19	   39.24
     92.7910	   54.00	   61.96	 -316.21	   39.23
     92.8244	   55.00	   61.99	 -315.24	   39.22
     92.8578	   56.00	   62.03	 -314.28	   39.21
     92.8912	   60.00	   62.07	 -310.32	   39.20
     92.9246	   51.00	   62.13	 -319.38	   39.20
     92.9581	   74.00	   62.19	 -296.44	   39.19
     92.9915	   56.00	   62.26	 -314.51	   39.18
     93.0249	   64.00	   62.35	 -306.60	   39.17
     93.0583	   60.00	   62.44	 -310.69	   39.17
     93.0918	   67.00	   62.54	 -303.79	   39.16
     93.1252	   66.00	   62.66	 -304.91	   39.15
     93.1586	   73.00	   62.78	 -298.03	   39.14
     93.1920	   82.00	   62.92	 -289.17	   39.14
     93.2254	   71.00	   63.06	 -300.31	   39.13
     93.2589	   69.00	   63.22	 -302.47	   39.12
     93.2923	   74.00	   63.39	 -297.64	   39.11
     93.3257	   59.00	   63.57	 -312.82	   39.10
     93.3591	   77.00	   63.77	 -295.02	   39.10
     93.3926	   64.00	   63.98	 -308.23	   39.09
     93.4260	   70.00	   64.20	 -302.45	   39.08
     93.4594	   70.00	   64.43	 -302.68	   39.07
     93.4928	   75.00	   64.68	 -297.93	   39.07
     93.5262	   75.00	   64.94	 -298.19	   39.06
     93.5597	   49.00	   65.22	 -324.47	   39.05
     93.5931	   62.00	   65.51	 -311.76	   39.04
     93.6265	   60.00	   65.81	 -314.06	   39.04
     93.6599	   63.00	   66.13	 -311.38	   39.03
     93.6934	   80.00	   66.46	 -294.71	   39.02
     93.7268	   76.00	   66.81	 -299.06	   39.01
     93.7602	   87.00	   67.17	 -288.42	   39.00
     93.7936	   68.00	   67.54	 -307.79	   39.00
     93.8270	   70.00	   67.92	 -306.17	   38.99
     93.8605	   83.00	   68.32	 -293.57	   38.98
     93.8939	   74.00	   68.72	 -302.97	   38.97
     93.9273	   65.00	   69.14	 -312.39	   38.97
     93.9607	   70.00	   69.56	 -307.81	   38.96
     93.9942	   70.00	   70.08	 -308.33	   38.95
     94.0276	   60.00	   70.51	 -318.76	   38.94
     94.0610	   73.00	   70.94	 -306.19	   38.93
     94.0944	   82.00	   71.38	 -297.63	   38.93
     94.1279	   83.00	   71.80	 -297.05	   38.92
     94.1613	   75.00	   72.07	 -305.32	   38.91
     94.1947	   79.00	   72.48	 -301.73	   38.90
     94.2281	   58.00	   72.88	 -323.13	   38.90
     94.2615	   78.00	   73.26	 -303.51	   38.89
     94.2950	   67.00	   73.66	 -314.91	   38.88
     94.3284	   63.00	   73.99	 -319.24	   38.87
     94.3618	   92.00	   74.30	 -290.55	   38.87
     94.3952	   70.00	   74.57	 -312.82	   38.86
     94.4287	   85.00	   74.73	 -297.98	   38.85
     94.4621	   65.00	   74.92	 -318.17	   38.84
     94.4955	   73.00	   75.08	 -310.33	   38.83
     94.5289	   66.00	   75.19	 -317.44	   38.83
     94.5623	   71.00	   75.26	 -312.51	   38.82
     94.5958	   70.00	   75.28	 -313.53	   38.81
     94.6292	   75.00	   75.25	 -308.50	   38.80
     94.6626	   58.00	   75.18	 -325.43	   38.80
     94.6960	   73.00	   75.06	 -310.31	   38.79
     94.7295	   84.00	   74.90	 -299.15	   38.78
     94.7629	   65.00	   74.69	 -317.94	   38.77
     94.7963	   80.00	   74.44	 -302.69	   38.77
     94.8297	   78.00	   74.16	 -304.41	   38.76
     94.8632	   63.00	   73.83	 -319.08	   38.75
     94.8966	   74.00	   73.48	 -307.73	   38.74
     94.9300	   55.00	   73.09	 -326.34	   38.73
     94.9634	   68.00	   72.68	 -312.93	   38.73
     94.9968	   74.00	   72.25	 -306.50	   38.72
     95.0303	   64.00	   71.79	 -316.04	   38.71
     95.0637	   75.00	   71.33	 -304.58	   38.70
     95.0971	   64.00	   70.84	 -315.09	   38.70
     95.1305	   60.00	   70.35	 -318.60	   38.69
     95.1640	   68.00	   69.86	 -310.11	   38.68
     95.1974	   78.00	   69.36	 -299.61	   38.67
     95.2308	   62.00	   68.85	 -315.10	   38.67
     95.2642	   74.00	   68.35	 -302.60	   38.66
     95.2976	   69.00	   67.86	 -307.11	   38.65
     95.3311	   61.00	   67.37	 -314.62	   38.64
     95.3645	   63.00	   66.88	 -312.13	   38.63
     95.3979	   75.00	   66.41	 -299.66	   38.63
     95.4313	   67.00	   65.94	 -307.19	   38.62
     95.4648	   42.00	   65.48	 -331.73	   38.61
     95.4982	   70.00	   65.04	 -303.29	   38.60
     95.5316	   68.00	   64.61	 -304.86	   38.60
     95.5650	   58.00	   64.19	 -314.44	   38.59
     95.5984	   73.00	   63.78	 -299.03	   38.58
     95.6319	   63.00	   63.38	 -308.63	   38.57
     95.6653	   75.00	   63.00	 -296.25	   38.56
     95.6987	   63.00	   62.63	 -307.88	   38.56
     95.7321	   61.00	   62.28	 -309.53	   38.55
     95.7656	   56.00	   61.93	 -314.18	   38.54
     95.7990	   60.00	   61.60	 -309.85	   38.53
     95.8324	   76.00	   61.28	 -293.53	   38.53
     95.8658	   85.00	   60.97	 -284.22	   38.52
     95.8992	   54.00	   60.67	 -314.92	   38.51
     95.9327	   63.00	   60.39	 -305.64	   38.50
     95.9661	   61.00	   60.11	 -307.36	   38.50
     95.9995	   55.00	   59.85	 -313.10	   38.49
     96.0329	   63.00	   59.60	 -304.85	   38.48
     96.0664	   70.00	   59.35	 -297.60	   38.47
     96.0998	   52.00	   59.12	 -315.37	   38.46
     96.1332	   52.00	   58.89	 -315.14	   38.46
     96.1666	   52.00	   58.67	 -314.92	   38.45
     96.2001	   56.00	   58.46	 -310.71	   38.44
     96.2335	   63.00	   58.26	 -303.51	   38.43
     96.2669	   65.00	   58.07	 -301.32	   38.43
     96.3003	   54.00	   57.88	 -312.13	   38.42
     96.3337	   50.00	   57.70	 -315.95	   38.41
     96.3672	   73.00	   57.53	 -292.78	   38.40
     96.4006	   62.00	   57.36	 -303.61	   38.40
     96.4340	   65.00	   57.20	 -300.45	   38.39
     96.4674	   46.00	   57.05	 -319.30	   38.38
     96.5009	   64.00	   56.90	 -301.15	   38.37
     96.5343	   60.00	   56.76	 -305.01	   38.36
     96.5677	   48.00	   56.62	 -316.87	   38.36
     96.6011	   36.00	   56.48	 -328.73	   38.35
     96.6345	   55.00	   56.36	 -309.61	   38.34
     96.6680	   66.00	   56.23	 -298.48	   38.33
     96.7014	   40.00	   56.48	 -324.73	   38.33
     96.7348	   50.00	   56.36	 -314.61	   38.32
     96.7682	   42.00	   56.26	 -322.51	   38.31
     96.8017	   50.00	   56.15	 -314.40	   38.30
     96.8351	   50.00	   56.05	 -314.30	   38.30
     96.8685	   67.00	   55.95	 -297.20	   38.29
     96.9019	   50.00	   55.86	 -314.11	   38.28
     96.9353	   34.00	   55.77	 -330.02	   38.27
     96.9688	   35.00	   55.68	 -328.93	   38.26
     97.0022	   35.00	   55.59	 -328.84	   38.26
     97.0356	   58.00	   55.69	 -305.94	   38.25
     97.0690	   58.00	   55.62	 -305.87	   38.24
     97.1025	   67.00	   55.54	 -296.79	   38.23
     97.1359	   52.00	   55.47	 -311.72	   38.23
     97.1693	   49.00	   55.40	 -314.65	   38.22
     97.2027	   62.00	   54.76	 -301.01	   38.21
     97.2362	   63.00	   54.69	 -299.94	   38.20
     97.2696	   56.00	   54.63	 -306.88	   38.20
     97.3030	   48.00	   54.58	 -314.83	   38.19
     97.3364	   50.00	   54.52	 -312.77	   38.18
     97.3698	   47.00	   54.47	 -315.72	   38.17
     97.4033	   59.00	   54.42	 -303.67	   38.16
     97.4367	   63.00	   54.37	 -299.62	   38.16
     97.4701	   38.00	   54.32	 -324.57	   38.15
     97.5035	   59.00	   53.98	 -303.23	   38.14
     97.5369	   59.00	   53.94	 -303.19	   38.13
     97.5704	   62.00	   53.90	 -300.15	   38.13
     97.6038	   50.00	   53.86	 -312.11	   38.12
     97.6372	   53.00	   53.91	 -309.16	   38.11
     97.6706	   69.00	   53.87	 -293.12	   38.10
     97.7041	   50.00	   53.83	 -312.08	   38.09
     97.7375	   54.00	   53.80	 -308.05	   38.09
     97.7709	   46.00	   53.76	 -316.01	   38.08
     97.8043	   46.00	   53.73	 -315.98	   38.07
     97.8378	   55.00	   53.70	 -306.95	   38.06
     97.8712	   60.00	   53.67	 -301.92	   38.06
     97.9046	   56.00	   53.64	 -305.89	   38.05
     97.9380	   59.00	   53.61	 -302.86	   38.04
     97.9714	   53.00	   53.63	 -308.88	   38.03
     98.0049	   50.00	   53.60	 -311.85	   38.03
     98.0383	   47.00	   53.58	 -314.83	   38.02
     98.0717	   54.00	   53.55	 -307.80	   38.01
     98.1051	   50.00	   53.53	 -311.78	   38.00
     98.1386	   44.00	   53.50	 -317.75	   37.99
     98.1720	   50.00	   53.48	 -311.73	   37.99
     98.2054	   68.00	   53.46	 -293.71	   37.98
     98.2388	   56.00	   53.44	 -305.69	   37.97
     98.2722	   53.00	   53.42	 -308.67	   37.96
     98.3057	   55.00	   53.41	 -306.66	   37.96
     98.3391	   65.00	   53.39	 -296.64	   37.95
     98.3725	   45.00	   53.37	 -316.62	   37.94
     98.4059	   50.00	   53.36	 -311.61	   37.93
     98.4394	   56.00	   53.34	 -305.59	   37.93
     98.4728	   45.00	   53.33	 -316.58	   37.92
     98.5062	   47.00	   53.32	 -314.57	   37.91
     98.5396	   61.00	   53.30	 -300.55	   37.90
     98.5731	   40.00	   53.29	 -321.54	   37.89
     98.6065	   52.00	   53.28	 -309.53	   37.89
     98.6399	   46.00	   53.27	 -315.52	   37.88
     98.6733	   63.00	   53.27	 -298.52	   37.87
     98.7067	   69.00	   53.26	 -292.51	   37.86
     98.7402	   54.00	   53.25	 -307.50	   37.86
     98.7736	   52.00	   53.25	 -309.50	   37.85
     98.8070	   36.00	   53.24	 -325.49	   37.84
     98.8404	   56.00	   53.24	 -305.49	   37.83
     98.8739	   44.00	   53.23	 -317.48	   37.83
     98.9073	   60.00	   53.23	 -301.48	   37.82
     98.9407	   42.00	   53.23	 -319.48	   37.81
     98.9741	   61.00	   53.23	 -300.48	   37.80
     99.0075	   53.00	   53.23	 -308.48	   37.79
     99.0410	   41.00	   53.23	 -320.48	   37.79
     99.0744	   48.00	   53.23	 -313.48	   37.78
     99.1078	   36.00	   53.23	 -325.48	   37.77
     99.1412	   48.00	   53.24	 -313.49	   37.76
     99.1747	   48.00	   53.24	 -313.49	   37.76
     99.2081	   60.00	   53.25	 -301.50	   37.75
     99.2415	   58.00	   53.25	 -303.50	   37.74
     99.2749	   56.00	   53.26	 -305.51	   37.73
     99.3083	   51.00	   53.27	 -310.52	   37.72
     99.3418	   49.00	   53.27	 -312.52	   37.72
     99.3752	   69.00	   53.28	 -292.53	   37.71
     99.4086	   58.00	   53.30	 -303.55	   37.70
     99.4420	   49.00	   53.31	 -312.56	   37.69
     99.4755	   53.00	   53.32	 -308.57	   37.69
     99.5089	   56.00	   53.33	 -305.58	   37.68
     99.5423	   52.00	   53.35	 -309.60	   37.67
     99.5757	   53.00	   53.36	 -308.61	   37.66
     99.6091	   36.00	   53.38	 -325.63	   37.66
     99.6426	   35.00	   53.40	 -326.65	   37.65
     99.6760	   58.00	   53.41	 -303.66	   37.64
     99.7094	   54.00	   53.43	 -307.68	   37.63
     99.7428	   42.00	   53.46	 -319.71	   37.62
     99.7763	   52.00	   53.48	 -309.73	   37.62
     99.8097	   51.00	   53.51	 -310.76	   37.62
     99.8431	   40.00	   53.54	 -321.79	   37.62
     99.8765	   59.00	   53.57	 -302.82	   37.62
     99.9100	   53.00	   53.61	 -308.86	   37.62
     99.9434	   67.00	   53.65	 -294.90	   37.62
     99.9768	   61.00	   54.24	 -301.49	   37.62
     18.3302	        	        	        	        	       0	(  1  1  1)	  0  1 :  1
     18.3756	        	        	        	        	       0	(  1  1  1)	  0  2 :  1
     30.1285	        	        	        	        	       0	(  2  2  0)	  0  1 :  1
     30.2043	        	        	        	        	       0	(  2  2  0)	  0  2 :  1
     35.4809	        	        	        	        	       0	(  1  1  3)	  0  1 :  1
     35.5710	        	        	        	        	       0	(  1  1  3)	  0  2 :  1
     37.1131	        	        	        	        	       0	(  2  2  2)	  0  1 :  1
     37.2076	        	        	        	        	       0	(  2  2  2)	  0  2 :  1
     43.1131	        	        	        	        	       0	(  4  0  0)	  0  1 :  1
     43.2244	        	        	        	        	       0	(  4  0  0)	  0  2 :  1
     47.2007	        	        	        	        	       0	(  3  1  3)	  0  1 :  1
     47.3238	        	        	        	        	       0	(  3  1  3)	  0  2 :  1
     53.4766	        	        	        	        	       0	(  4  2  2)	  0  1 :  1
     53.6185	        	        	        	        	       0	(  4  2  2)	  0  2 :  1
     57.0035	        	        	        	        	       0	(  5  1  1)	  0  1 :  1
     57.0035	        	        	        	        	       0	(  3  3  3)	  0  1 :  1
     57.1565	        	        	        	        	       0	(  5  1  1)	  0  2 :  1
     57.1565	        	        	        	        	       0	(  3  3  3)	  0  2 :  1
     62.5921	        	        	        	        	       0	(  4  0  4)	  0  1 :  1
     62.7634	        	        	        	        	       0	(  4  0  4)	  0  2 :  1
     65.8098	        	        	        	        	       0	(  1  3  5)	  0  1 :  1
     65.9922	        	        	        	        	       0	(  1  3  5)	  0  2 :  1
     66.8640	        	        	        	        	       0	(  4  2  4)	  0  1 :  1
     67.0501	        	        	        	        	       0	(  4  2  4)	  0  2 :  1
     71.0034	        	        	        	        	       0	(  6  0  2)	  0  1 :  1
     71.2045	        	        	        	        	       0	(  6  0  2)	  0  2 :  1
     74.0403	        	        	        	        	       0	(  5  3  3)	  0  1 :  1
     74.2529	        	        	        	        	       0	(  5  3  3)	  0  2 :  1
     75.0419	        	        	        	        	       0	(  2  2  6)	  0  1 :  1
     75.2584	        	        	        	        	       0	(  2  2  6)	  0  2 :  1
     79.0055	        	        	        	        	       0	(  4  4  4)	  0  1 :  1
     79.2379	        	        	        	        	       0	(  4  4  4)	  0  2 :  1
     81.9423	        	        	        	        	       0	(  1  5  5)	  0  1 :  1
     81.9423	        	        	        	        	       0	(  1  7  1)	  0  1 :  1
     82.1872	        	        	        	        	       0	(  1  5  5)	  0  2 :  1
     82.1872	        	        	        	        	       0	(  1  7  1)	  0  2 :  1
     86.7937	        	        	        	        	       0	(  2  4  6)	  0  1 :  1
     87.0604	        	        	        	        	       0	(  2  4  6)	  0  2 :  1
     89.6912	        	        	        	        	       0	(  3  5  5)	  0  1 :  1
     89.6912	        	        	        	        	       0	(  1  3  7)	  0  1 :  1
     89.9718	        	        	        	        	       0	(  3  5  5)	  0  2 :  1
     89.9718	        	        	        	        	       0	(  1  3  7)	  0  2 :  1
     94.5221	        	        	        	        	       0	(  8  0  0)	  0  1 :  1
     94.8275	        	        	        	        	       0	(  8  0  0)	  0  2 :  1
     97.4339	        	        	        	        	       0	(  3  3  7)	  0  1 :  1
     97.7553	        	        	        	        	       0	(  3  3  7)	  0  2 :  1
     98.4084	        	        	        	        	       0	(  6  4  4)	  0  1 :  1
     98.7354	        	        	        	        	       0	(  6  4  4)	  0  2 :  1
    102.3340	        	        	        	        	       0	(  2  8  2)	  0  1 :  1
    102.3340	        	        	        	        	       0	(  6  0  6)	  0  1 :  1
    102.6846	        	        	        	        	       0	(  2  8  2)	  0  2 :  1
    102.6846	        	        	        	        	       0	(  6  0  6)	  0  2 :  1
    105.3161	        	        	        	        	       0	(  5  5  5)	  0  1 :  1
    105.3161	        	        	        	        	       0	(  1  5  7)	  0  1 :  1
    105.6861	        	        	        	        	       0	(  5  5  5)	  0  2 :  1
    105.6861	        	        	        	        	       0	(  1  5  7)	  0  2 :  1
    106.3192	        	        	        	        	       0	(  6  6  2)	  0  1 :  1
    106.6961	        	        	        	        	       0	(  6  6  2)	  0  2 :  1
    110.3874	        	        	        	        	       0	(  4  0  8)	  0  1 :  1
    110.7937	        	        	        	        	       0	(  4  0  8)	  0  2 :  1
    113.5093	        	        	        	        	       0	(  1  1  9)	  0  1 :  1
    113.5093	        	        	        	        	       0	(  3  5  7)	  0  1 :  1
    113.9404	        	        	        	        	       0	(  1  1  9)	  0  2 :  1
    113.9403	        	        	        	        	       0	(  3  5  7)	  0  2 :  1
    114.5661	        	        	        	        	       0	(  8  4  2)	  0  1 :  1
    115.0059	        	        	        	        	       0	(  8  4  2)	  0  2 :  1
    118.8891	        	        	        	        	       0	(  4  6  6)	  0  1 :  1
    119.3680	        	        	        	        	       0	(  4  6  6)	  0  2 :  1
    122.2521	        	        	        	        	       0	(  1  9  3)	  0  1 :  1
    122.7651	        	        	        	        	       0	(  1  9  3)	  0  2 :  1
    128.1599	        	        	        	        	       0	(  4  4  8)	  0  1 :  1
    128.7427	        	        	        	        	       0	(  4  4  8)	  0  2 :  1
    131.9426	        	        	        	        	       0	(  1  7  7)	  0  1 :  1
    131.9425	        	        	        	        	       0	(  5  7  5)	  0  1 :  1
    131.9426	        	        	        	        	       0	(  9  3  3)	  0  1 :  1
    132.5784	        	        	        	        	       0	(  1  7  7)	  0  2 :  1
    132.5784	        	        	        	        	       0	(  5  7  5)	  0  2 :  1
    132.5785	        	        	        	        	       0	(  9  3  3)	  0  2 :  1
    138.8156	        	        	        	        	       0	( 10  2  0)	  0  1 :  1
    138.8156	        	        	        	        	       0	(  8  2  6)	  0  1 :  1
    139.5721	        	        	        	        	       0	( 10  2  0)	  0  2 :  1
    139.5721	        	        	        	        	       0	(  8  2  6)	  0  2 :  1
    143.4290	        	        	        	        	       0	(  9  1  5)	  0  1 :  1
    143.4290	        	        	        	        	       0	(  7  7  3)	  0  1 :  1
