 Fe3O4   Chi2:  1.8564  CELL:    8.36097   8.36097   8.36097   90.0000   90.0000   90.0000   SPGR: 227:1                  TEMP:      0.00
  1   1695     1.54060     1.54439     0.00000    -0.04264     0.00000    0
    70     0     1
       0.00000      15.00000
 2Theta	Yobs	Ycal	Yobs-Ycal	Backg	Posr	(hkl)	K
     15.0316	  581.00	  568.05	 -340.55	  549.99
     15.0817	  562.00	  569.18	 -360.68	  551.10
     15.1318	  597.00	  563.79	 -320.29	  545.67
     15.1820	  590.00	  558.39	 -321.89	  540.24
     15.2321	  608.00	  553.00	 -298.50	  534.81
     15.2822	  573.00	  547.60	 -328.10	  529.38
     15.3324	  606.00	  542.21	 -289.71	  523.95
     15.3825	  591.00	  536.82	 -299.32	  518.52
     15.4326	  539.00	  531.44	 -345.94	  513.09
     15.4828	  517.00	  526.05	 -362.55	  507.66
     15.5329	  574.00	  520.67	 -300.17	  502.24
     15.5830	  573.00	  516.47	 -296.97	  497.99
     15.6332	  564.00	  514.11	 -303.61	  495.57
     15.6833	  539.00	  511.75	 -326.25	  493.16
     15.7334	  526.00	  509.39	 -336.89	  490.75
     15.7836	  574.00	  507.04	 -286.54	  488.34
     15.8337	  496.00	  504.69	 -362.19	  485.92
     15.8838	  562.00	  502.35	 -293.85	  483.51
     15.9340	  533.00	  500.01	 -320.51	  481.10
     15.9841	  512.00	  497.67	 -339.17	  478.68
     16.0342	  557.00	  495.34	 -291.84	  476.27
     16.0844	  497.00	  493.01	 -349.51	  473.86
     16.1345	  511.00	  490.69	 -333.19	  471.45
     16.1846	  503.00	  488.38	 -338.88	  469.03
     16.2348	  529.00	  486.07	 -310.57	  466.62
     16.2849	  464.00	  483.77	 -373.27	  464.21
     16.3350	  521.00	  481.48	 -313.98	  461.79
     16.3852	  518.00	  479.19	 -314.69	  459.38
     16.4353	  485.00	  476.92	 -345.42	  456.97
     16.4854	  513.00	  474.65	 -315.15	  454.56
     16.5356	  490.00	  472.40	 -335.90	  452.14
     16.5857	  474.00	  470.16	 -349.66	  449.73
     16.6358	  472.00	  468.11	 -349.61	  447.49
     16.6860	  518.00	  466.65	 -302.15	  445.82
     16.7361	  509.00	  465.20	 -309.70	  444.15
     16.7862	  493.00	  463.77	 -324.27	  442.48
     16.8364	  490.00	  462.36	 -325.86	  440.81
     16.8865	  510.00	  460.98	 -304.48	  439.14
     16.9367	  536.00	  459.63	 -277.13	  437.47
     16.9868	  508.00	  458.31	 -303.81	  435.80
     17.0369	  511.00	  457.02	 -299.52	  434.13
     17.0871	  476.00	  455.77	 -333.27	  432.46
     17.1372	  483.00	  454.58	 -325.08	  430.79
     17.1873	  496.00	  453.43	 -310.93	  429.11
     17.2375	  522.00	  452.35	 -283.85	  427.44
     17.2876	  453.00	  451.33	 -351.83	  425.77
     17.3377	  467.00	  450.40	 -336.90	  424.10
     17.3879	  475.00	  449.56	 -328.06	  422.43
     17.4380	  471.00	  448.83	 -331.33	  420.76
     17.4881	  462.00	  448.23	 -339.73	  419.09
     17.5383	  435.00	  447.77	 -366.27	  417.42
     17.5884	  409.00	  447.49	 -391.99	  415.75
     17.6385	  418.00	  447.40	 -382.90	  414.08
     17.6887	  469.00	  447.54	 -332.04	  412.41
     17.7388	  419.00	  447.94	 -382.44	  410.74
     17.7889	  457.00	  448.64	 -345.14	  409.07
     17.8391	  486.00	  449.67	 -317.17	  407.40
     17.8892	  426.00	  451.05	 -378.55	  405.73
     17.9393	  439.00	  452.80	 -367.30	  404.06
     17.9895	  453.00	  454.90	 -355.40	  402.39
     18.0396	  470.00	  457.28	 -340.78	  400.72
     18.0897	  449.00	  459.83	 -364.33	  399.05
     18.1399	  478.00	  462.32	 -337.82	  397.38
     18.1900	  441.00	  464.45	 -376.95	  395.71
     18.2401	  452.00	  465.86	 -367.36	  394.04
     18.2903	  470.00	  466.17	 -349.67	  392.35
     18.3404	  477.00	  465.07	 -341.57	  390.61
     18.3905	  441.00	  462.53	 -375.03	  388.88
     18.4407	  455.00	  458.65	 -357.15	  387.14
     18.4908	  447.00	  453.73	 -360.23	  385.41
     18.5409	  437.00	  448.13	 -364.63	  383.67
     18.5911	  449.00	  442.22	 -346.72	  381.94
     18.6412	  417.00	  436.28	 -372.78	  380.20
     18.6913	  449.00	  430.52	 -335.02	  378.47
     18.7415	  387.00	  425.06	 -391.56	  376.73
     18.7916	  430.00	  419.95	 -343.45	  375.00
     18.8417	  408.00	  415.20	 -360.70	  373.26
     18.8919	  426.00	  410.81	 -338.31	  371.53
     18.9420	  413.00	  406.74	 -347.24	  369.79
     18.9921	  422.00	  402.97	 -334.47	  368.06
     19.0423	  408.00	  399.45	 -344.95	  366.32
     19.0924	  389.00	  396.15	 -360.65	  364.59
     19.1425	  405.00	  393.05	 -341.55	  362.86
     19.1927	  372.00	  390.12	 -371.62	  361.12
     19.2428	  393.00	  387.34	 -347.84	  359.39
     19.2929	  387.00	  384.68	 -351.18	  357.65
     19.3431	  398.00	  382.12	 -337.62	  355.92
     19.3932	  399.00	  379.66	 -334.16	  354.18
     19.4433	  390.00	  377.28	 -340.78	  352.45
     19.4935	  384.00	  374.96	 -344.46	  350.71
     19.5436	  389.00	  372.71	 -337.21	  348.98
     19.5937	  369.00	  370.51	 -355.01	  347.24
     19.6439	  378.00	  368.36	 -343.86	  345.51
     19.6940	  356.00	  366.24	 -363.74	  343.77
     19.7441	  355.00	  364.16	 -362.66	  342.04
     19.7943	  390.00	  362.11	 -325.61	  340.30
     19.8444	  378.00	  360.28	 -335.78	  338.75
     19.8945	  359.00	  358.52	 -353.02	  337.26
     19.9447	  332.00	  356.79	 -378.29	  335.77
     19.9948	  418.00	  355.08	 -290.58	  334.28
     20.0449	  378.00	  353.39	 -328.89	  332.79
     20.0951	  359.00	  351.71	 -346.21	  331.30
     20.1452	  359.00	  350.04	 -344.54	  329.80
     20.1953	  349.00	  348.39	 -352.89	  328.31
     20.2455	  333.00	  346.75	 -367.25	  326.82
     20.2956	  375.00	  345.12	 -323.62	  325.33
     20.3457	  347.00	  343.50	 -350.00	  323.84
     20.3959	  341.00	  341.89	 -354.39	  322.35
     20.4460	  347.00	  340.29	 -346.79	  320.86
     20.4962	  359.00	  338.70	 -333.20	  319.36
     20.5463	  325.00	  337.11	 -365.61	  317.87
     20.5964	  363.00	  335.52	 -326.02	  316.38
     20.6466	  352.00	  333.95	 -335.45	  314.89
     20.6967	  325.00	  332.37	 -360.87	  313.40
     20.7468	  355.00	  330.81	 -329.31	  311.91
     20.7970	  348.00	  329.24	 -334.74	  310.42
     20.8471	  361.00	  327.68	 -320.18	  308.92
     20.8972	  340.00	  326.13	 -339.63	  307.43
     20.9474	  322.00	  324.58	 -356.08	  305.94
     20.9975	  302.00	  323.03	 -374.53	  304.45
     21.0476	  341.00	  321.48	 -333.98	  302.96
     21.0978	  319.00	  319.94	 -354.44	  301.47
     21.1479	  352.00	  318.40	 -319.90	  299.97
     21.1980	  306.00	  316.86	 -364.36	  298.48
     21.2482	  334.00	  315.33	 -334.83	  296.99
     21.2983	  342.00	  313.80	 -325.30	  295.50
     21.3484	  367.00	  312.26	 -298.76	  294.01
     21.3986	  331.00	  310.74	 -333.24	  292.52
     21.4487	  331.00	  309.21	 -331.71	  291.03
     21.4988	  340.00	  308.28	 -321.78	  290.13
     21.5490	  303.00	  307.47	 -357.97	  289.35
     21.5991	  341.00	  306.66	 -319.16	  288.57
     21.6492	  354.00	  305.85	 -305.35	  287.79
     21.6994	  357.00	  305.04	 -301.54	  287.01
     21.7495	  317.00	  304.23	 -340.73	  286.23
     21.7996	  322.00	  303.43	 -334.93	  285.45
     21.8498	  301.00	  302.62	 -355.12	  284.67
     21.8999	  318.00	  301.82	 -337.32	  283.89
     21.9500	  313.00	  301.01	 -341.51	  283.11
     22.0002	  291.00	  300.21	 -362.71	  282.34
     22.0503	  312.00	  299.41	 -340.91	  281.56
     22.1004	  306.00	  298.61	 -346.11	  280.78
     22.1506	  330.00	  297.81	 -321.31	  280.00
     22.2007	  350.00	  296.29	 -299.79	  279.22
     22.2508	  323.00	  295.51	 -326.01	  278.44
     22.3010	  322.00	  294.73	 -326.23	  277.66
     22.3511	  307.00	  293.95	 -340.45	  276.88
     22.4012	  310.00	  293.17	 -336.67	  276.10
     22.4514	  312.00	  292.39	 -333.89	  275.32
     22.5015	  301.00	  291.61	 -344.11	  274.54
     22.5516	  280.00	  290.83	 -364.33	  273.76
     22.6018	  303.00	  290.05	 -340.55	  272.98
     22.6519	  301.00	  289.27	 -341.77	  272.20
     22.7020	  294.00	  288.49	 -347.99	  271.42
     22.7522	  315.00	  287.71	 -326.21	  270.64
     22.8023	  295.00	  286.93	 -345.43	  269.86
     22.8524	  289.00	  286.15	 -350.65	  269.08
     22.9026	  280.00	  285.38	 -358.88	  268.30
     22.9527	  317.00	  284.60	 -321.10	  267.52
     23.0028	  269.00	  283.82	 -368.32	  266.74
     23.0530	  270.00	  283.04	 -366.54	  265.96
     23.1031	  283.00	  282.26	 -352.76	  265.19
     23.1532	  276.00	  281.48	 -358.98	  264.41
     23.2034	  285.00	  280.70	 -349.20	  263.63
     23.2535	  311.00	  279.83	 -322.33	  262.76
     23.3036	  303.00	  278.90	 -329.40	  261.83
     23.3538	  264.00	  277.96	 -367.46	  260.89
     23.4039	  280.00	  277.03	 -350.53	  259.96
     23.4540	  295.00	  276.10	 -334.60	  259.02
     23.5042	  281.00	  275.16	 -347.66	  258.09
     23.5543	  298.00	  274.23	 -329.73	  257.16
     23.6044	  294.00	  273.30	 -332.80	  256.22
     23.6546	  270.00	  272.36	 -355.86	  255.29
     23.7047	  254.00	  271.43	 -370.93	  254.36
     23.7548	  272.00	  270.50	 -352.00	  253.42
     23.8050	  275.00	  269.56	 -348.06	  252.49
     23.8551	  272.00	  268.63	 -350.13	  251.56
     23.9053	  278.00	  267.70	 -343.20	  250.62
     23.9554	  313.00	  266.76	 -307.26	  249.69
     24.0055	  267.00	  265.83	 -352.33	  248.76
     24.0557	  279.00	  264.89	 -339.39	  247.82
     24.1058	  284.00	  263.96	 -333.46	  246.89
     24.1559	  326.00	  263.03	 -290.53	  245.96
     24.2061	  294.00	  262.09	 -321.59	  245.02
     24.2562	  312.00	  261.16	 -302.66	  244.09
     24.3063	  243.00	  260.23	 -370.73	  243.16
     24.3565	  296.00	  259.29	 -316.79	  242.22
     24.4066	  256.00	  258.36	 -355.86	  241.29
     24.4567	  291.00	  257.43	 -319.93	  240.36
     24.5069	  292.00	  256.49	 -317.99	  239.42
     24.5570	  275.00	  255.56	 -334.06	  238.49
     24.6071	  281.00	  254.63	 -327.13	  237.55
     24.6573	  234.00	  253.69	 -373.19	  236.62
     24.7074	  261.00	  252.76	 -345.26	  235.69
     24.7575	  275.00	  251.83	 -330.33	  234.75
     24.8077	  284.00	  250.89	 -320.39	  233.82
     24.8578	  279.00	  249.96	 -324.46	  232.89
     24.9079	  268.00	  249.03	 -334.53	  231.95
     24.9581	  249.00	  248.09	 -352.59	  231.02
     25.0082	  238.00	  247.16	 -362.66	  230.09
     25.0583	  263.00	  246.23	 -336.73	  229.15
     25.1085	  267.00	  245.29	 -331.79	  228.22
     25.1586	  256.00	  244.36	 -341.86	  227.29
     25.2087	  246.00	  243.42	 -350.92	  226.35
     25.2589	  271.00	  243.05	 -325.55	  225.98
     25.3090	  249.00	  243.05	 -347.55	  225.98
     25.3591	  280.00	  243.05	 -316.55	  225.98
     25.4093	  267.00	  243.05	 -329.55	  225.98
     25.4594	  264.00	  243.05	 -332.55	  225.98
     25.5095	  272.00	  243.05	 -324.55	  225.98
     25.5597	  241.00	  243.05	 -355.55	  225.98
     25.6098	  253.00	  243.05	 -343.55	  225.98
     25.6599	  242.00	  243.05	 -354.55	  225.98
     25.7101	  273.00	  243.05	 -323.55	  225.98
     25.7602	  277.00	  243.05	 -319.55	  225.98
     25.8103	  268.00	  243.05	 -328.55	  225.98
     25.8605	  233.00	  243.05	 -363.55	  225.98
     25.9106	  255.00	  243.05	 -341.55	  225.98
     25.9607	  253.00	  243.05	 -343.55	  225.98
     26.0109	  226.00	  243.05	 -370.55	  225.98
     26.0610	  247.00	  243.05	 -349.55	  225.98
     26.1111	  269.00	  243.05	 -327.55	  225.98
     26.1613	  293.00	  245.80	 -306.30	  225.98
     26.2114	  267.00	  247.21	 -333.71	  225.98
     26.2615	  277.00	  247.32	 -323.82	  225.98
     26.3117	  273.00	  247.43	 -327.93	  225.98
     26.3618	  266.00	  247.54	 -335.04	  225.98
     26.4119	  273.00	  247.66	 -328.16	  225.98
     26.4621	  255.00	  247.78	 -346.28	  225.98
     26.5122	  280.00	  247.91	 -321.41	  225.98
     26.5623	  285.00	  248.04	 -316.54	  225.98
     26.6125	  261.00	  248.18	 -340.68	  225.98
     26.6626	  316.00	  248.33	 -285.83	  225.98
     26.7127	  304.00	  248.48	 -297.98	  225.98
     26.7629	  324.00	  248.63	 -278.13	  225.98
     26.8130	  329.00	  248.80	 -273.30	  225.98
     26.8631	  333.00	  248.97	 -269.47	  225.98
     26.9133	  325.00	  249.22	 -277.72	  226.06
     26.9634	  283.00	  249.52	 -320.02	  226.17
     27.0135	  266.00	  249.83	 -337.33	  226.29
     27.0637	  318.00	  250.15	 -285.65	  226.40
     27.1138	  283.00	  250.48	 -320.98	  226.52
     27.1639	  308.00	  250.82	 -296.32	  226.63
     27.2141	  252.00	  251.17	 -352.67	  226.74
     27.2642	  269.00	  251.53	 -336.03	  226.86
     27.3144	  269.00	  251.90	 -336.40	  226.97
     27.3645	  254.00	  252.29	 -351.79	  227.09
     27.4146	  260.00	  252.69	 -346.19	  227.20
     27.4648	  277.00	  253.11	 -329.61	  227.31
     27.5149	  298.00	  253.55	 -309.05	  227.43
     27.5650	  272.00	  254.00	 -335.50	  227.54
     27.6152	  271.00	  254.47	 -336.97	  227.65
     27.6653	  265.00	  254.96	 -343.46	  227.77
     27.7154	  232.00	  255.47	 -376.97	  227.88
     27.7656	  282.00	  256.01	 -327.51	  228.00
     27.8157	  263.00	  256.57	 -347.07	  228.11
     27.8658	  237.00	  257.16	 -373.66	  228.22
     27.9160	  237.00	  257.78	 -374.28	  228.34
     27.9661	  251.00	  258.44	 -360.94	  228.45
     28.0162	  248.00	  259.13	 -364.63	  228.57
     28.0664	  260.00	  259.85	 -353.35	  228.68
     28.1165	  241.00	  260.62	 -373.12	  228.79
     28.1666	  296.00	  261.44	 -318.94	  228.91
     28.2168	  236.00	  262.31	 -379.81	  229.02
     28.2669	  273.00	  263.23	 -343.73	  229.14
     28.3170	  262.00	  264.21	 -355.71	  229.25
     28.3672	  252.00	  265.26	 -366.76	  229.36
     28.4173	  243.00	  266.38	 -376.88	  229.48
     28.4674	  235.00	  267.58	 -386.08	  229.59
     28.5176	  262.00	  268.87	 -360.37	  229.70
     28.5677	  263.00	  270.27	 -360.77	  229.82
     28.6178	  272.00	  271.77	 -353.27	  229.93
     28.6680	  252.00	  273.40	 -374.90	  230.05
     28.7181	  291.00	  275.17	 -337.67	  230.16
     28.7682	  267.00	  277.09	 -363.59	  230.27
     28.8184	  250.00	  279.19	 -382.69	  230.39
     28.8685	  263.00	  281.48	 -371.98	  230.50
     28.9186	  262.00	  284.00	 -375.50	  230.62
     28.9688	  295.00	  286.77	 -345.27	  230.73
     29.0189	  276.00	  289.83	 -367.33	  230.84
     29.0690	  301.00	  293.22	 -345.72	  230.96
     29.1192	  303.00	  296.99	 -347.49	  231.07
     29.1693	  286.00	  301.20	 -368.70	  231.19
     29.2194	  283.00	  305.90	 -376.40	  231.30
     29.2696	  294.00	  311.17	 -370.67	  231.41
     29.3197	  308.00	  317.10	 -362.60	  231.53
     29.3698	  258.00	  323.78	 -419.28	  231.64
     29.4200	  300.00	  331.34	 -384.84	  231.75
     29.4701	  343.00	  339.89	 -350.39	  231.87
     29.5202	  296.00	  349.50	 -407.00	  231.91
     29.5704	  333.00	  360.39	 -380.89	  231.95
     29.6205	  367.00	  372.72	 -359.22	  232.00
     29.6706	  362.00	  386.60	 -378.10	  232.04
     29.7208	  372.00	  402.16	 -383.66	  232.08
     29.7709	  368.00	  419.42	 -404.92	  232.12
     29.8210	  406.00	  438.28	 -385.78	  232.16
     29.8712	  426.00	  458.47	 -385.97	  232.21
     29.9213	  444.00	  479.41	 -388.91	  232.25
     29.9714	  501.00	  500.22	 -352.72	  232.29
     30.0216	  464.00	  519.63	 -409.13	  232.33
     30.0717	  510.00	  536.12	 -379.62	  232.37
     30.1218	  542.00	  548.09	 -359.59	  232.41
     30.1720	  507.00	  554.21	 -400.71	  232.46
     30.2221	  548.00	  553.75	 -359.25	  232.50
     30.2722	  542.00	  546.78	 -358.28	  232.54
     30.3224	  578.00	  534.14	 -309.64	  232.58
     30.3725	  494.00	  517.24	 -376.74	  232.62
     30.4226	  484.00	  497.65	 -367.15	  232.66
     30.4728	  480.00	  476.88	 -350.38	  232.71
     30.5229	  448.00	  456.11	 -361.61	  232.75
     30.5730	  414.00	  436.19	 -375.69	  232.79
     30.6232	  429.00	  417.64	 -342.14	  232.83
     30.6733	  389.00	  400.71	 -365.21	  232.87
     30.7234	  375.00	  385.48	 -363.98	  232.92
     30.7736	  395.00	  371.90	 -330.40	  232.96
     30.8237	  331.00	  359.87	 -382.37	  233.00
     30.8738	  385.00	  349.25	 -317.75	  233.04
     30.9240	  315.00	  339.89	 -378.39	  233.08
     30.9741	  311.00	  331.64	 -374.14	  233.12
     31.0243	  353.00	  324.36	 -324.86	  233.17
     31.0744	  309.00	  317.94	 -362.44	  233.21
     31.1245	  345.00	  312.26	 -320.76	  233.25
     31.1747	  331.00	  307.23	 -329.73	  233.29
     31.2248	  287.00	  302.76	 -369.26	  233.33
     31.2749	  314.00	  298.77	 -338.27	  233.37
     31.3251	  297.00	  295.22	 -351.72	  233.42
     31.3752	  301.00	  292.03	 -344.53	  233.46
     31.4253	  308.00	  289.16	 -334.66	  233.50
     31.4755	  317.00	  296.83	 -333.33	  233.54
     31.5256	  276.00	  294.76	 -372.26	  233.58
     31.5757	  322.00	  298.03	 -329.53	  233.63
     31.6259	  313.00	  296.52	 -337.02	  233.67
     31.6760	  300.00	  295.19	 -348.69	  233.71
     31.7261	  300.00	  294.03	 -347.53	  233.75
     31.7763	  267.00	  293.02	 -379.52	  233.79
     31.8264	  280.00	  292.15	 -365.65	  233.83
     31.8765	  271.00	  290.98	 -373.48	  233.44
     31.9267	  277.00	  289.90	 -366.40	  233.03
     31.9768	  283.00	  288.93	 -359.43	  232.61
     32.0269	  299.00	  288.07	 -342.57	  232.19
     32.0771	  285.00	  287.29	 -355.79	  231.77
     32.1272	  264.00	  286.61	 -376.11	  231.36
     32.1773	  263.00	  286.02	 -376.52	  230.94
     32.2275	  296.00	  285.50	 -343.00	  230.52
     32.2776	  265.00	  285.06	 -373.56	  230.10
     32.3277	  271.00	  284.70	 -367.20	  229.68
     32.3779	  282.00	  284.42	 -355.92	  229.27
     32.4280	  277.00	  284.21	 -360.71	  228.85
     32.4781	  276.00	  284.06	 -361.56	  228.43
     32.5283	  261.00	  283.99	 -376.49	  228.01
     32.5784	  281.00	  284.00	 -356.50	  227.60
     32.6285	  282.00	  284.07	 -355.57	  227.18
     32.6787	  280.00	  284.22	 -357.72	  226.76
     32.7288	  272.00	  284.44	 -365.94	  226.34
     32.7789	  245.00	  284.73	 -393.23	  225.93
     32.8291	  307.00	  285.11	 -331.61	  225.51
     32.8792	  292.00	  285.56	 -347.06	  225.09
     32.9293	  301.00	  286.10	 -338.60	  224.67
     32.9795	  295.00	  286.73	 -345.23	  224.26
     33.0296	  270.00	  287.45	 -370.95	  223.84
     33.0797	  270.00	  289.06	 -372.56	  223.42
     33.1299	  275.00	  290.00	 -368.50	  223.00
     33.1800	  294.00	  291.44	 -350.94	  222.59
     33.2301	  306.00	  292.62	 -340.12	  222.17
     33.2803	  289.00	  293.91	 -358.41	  221.75
     33.3304	  310.00	  295.34	 -338.84	  221.33
     33.3805	  346.00	  296.92	 -304.42	  220.92
     33.4307	  304.00	  298.65	 -348.15	  220.50
     33.4808	  318.00	  300.54	 -336.04	  220.08
     33.5309	  310.00	  302.62	 -346.12	  219.66
     33.5811	  313.00	  304.89	 -345.39	  219.24
     33.6312	  332.00	  307.37	 -328.87	  218.83
     33.6813	  358.00	  310.09	 -305.59	  218.41
     33.7315	  332.00	  313.06	 -334.56	  217.99
     33.7816	  353.00	  316.31	 -316.81	  217.57
     33.8317	  316.00	  319.86	 -357.36	  217.16
     33.8819	  350.00	  323.76	 -327.26	  216.74
     33.9320	  342.00	  328.03	 -339.53	  216.32
     33.9821	  343.00	  329.67	 -340.17	  215.89
     34.0323	  396.00	  334.87	 -292.37	  215.45
     34.0824	  374.00	  339.10	 -318.60	  215.00
     34.1325	  369.00	  345.42	 -329.92	  214.56
     34.1827	  396.00	  352.38	 -309.88	  214.12
     34.2328	  405.00	  360.06	 -308.56	  213.68
     34.2829	  408.00	  368.56	 -314.06	  213.24
     34.3331	  409.00	  377.98	 -322.48	  212.79
     34.3832	  444.00	  388.44	 -297.94	  212.35
     34.4333	  425.00	  400.10	 -328.60	  211.91
     34.4835	  423.00	  413.11	 -343.61	  211.47
     34.5336	  462.00	  427.67	 -319.17	  211.02
     34.5838	  482.00	  444.01	 -315.51	  210.58
     34.6339	  486.00	  462.37	 -329.87	  210.14
     34.6840	  522.00	  483.06	 -314.56	  209.70
     34.7342	  532.00	  506.41	 -327.91	  209.26
     34.7843	  536.00	  532.79	 -350.29	  208.81
     34.8344	  579.00	  562.63	 -337.13	  208.37
     34.8846	  575.00	  596.38	 -374.88	  207.93
     34.9347	  625.00	  634.54	 -363.04	  207.49
     34.9848	  674.00	  677.59	 -357.09	  207.05
     35.0350	  668.00	  725.96	 -411.46	  206.60
     35.0851	  818.00	  779.97	 -315.47	  206.16
     35.1352	  881.00	  839.71	 -312.21	  205.72
     35.1854	  829.00	  904.87	 -429.37	  205.28
     35.2355	  987.00	  974.52	 -341.02	  204.83
     35.2856	 1086.00	 1046.90	 -314.40	  204.39
     35.3358	 1093.00	 1119.19	 -379.69	  203.95
     35.3859	 1184.00	 1187.44	 -356.94	  203.51
     35.4360	 1244.00	 1246.80	 -356.30	  203.07
     35.4862	 1326.00	 1292.08	 -319.58	  202.62
     35.5363	 1414.00	 1318.74	 -258.24	  202.18
     35.5864	 1338.00	 1323.84	 -339.34	  201.74
     35.6366	 1366.00	 1306.82	 -294.32	  201.30
     35.6867	 1294.00	 1269.66	 -329.16	  200.85
     35.7368	 1272.00	 1216.27	 -297.77	  200.41
     35.7870	 1091.00	 1151.68	 -414.18	  199.97
     35.8371	 1122.00	 1080.92	 -312.42	  199.53
     35.8872	 1056.00	 1008.36	 -305.86	  199.09
     35.9374	  942.00	  937.36	 -348.86	  198.64
     35.9875	  887.00	  869.82	 -336.32	  197.90
     36.0376	  779.00	  807.23	 -381.73	  196.99
     36.0878	  736.00	  750.32	 -367.82	  196.09
     36.1379	  713.00	  699.22	 -339.72	  195.18
     36.1880	  713.00	  653.71	 -294.21	  194.28
     36.2382	  631.00	  613.42	 -335.92	  193.38
     36.2883	  583.00	  577.92	 -348.42	  192.47
     36.3384	  551.00	  546.74	 -349.24	  191.57
     36.3886	  530.00	  519.44	 -342.94	  190.66
     36.4387	  495.00	  495.61	 -354.11	  189.76
     36.4888	  499.00	  474.88	 -329.38	  188.85
     36.5390	  486.00	  456.94	 -324.44	  187.95
     36.5891	  400.00	  441.50	 -395.00	  187.04
     36.6392	  431.00	  428.34	 -350.84	  186.14
     36.6894	  410.00	  417.23	 -360.73	  185.23
     36.7395	  409.00	  408.00	 -352.50	  184.33
     36.7896	  395.00	  400.46	 -358.96	  183.42
     36.8398	  372.00	  394.42	 -375.92	  182.52
     36.8899	  347.00	  389.65	 -396.15	  181.61
     36.9400	  367.00	  385.89	 -372.39	  180.71
     36.9902	  378.00	  382.78	 -358.28	  179.80
     37.0403	  363.00	  379.93	 -370.43	  178.90
     37.0904	  360.00	  376.89	 -370.39	  177.99
     37.1406	  326.00	  373.20	 -400.70	  177.09
     37.1907	  357.00	  368.50	 -365.00	  176.18
     37.2408	  285.00	  362.56	 -431.06	  175.28
     37.2910	  300.00	  355.37	 -408.87	  174.37
     37.3411	  313.00	  347.06	 -387.56	  173.47
     37.3912	  288.00	  338.13	 -403.63	  172.76
     37.4414	  296.00	  328.97	 -386.47	  172.31
     37.4915	  267.00	  319.68	 -406.18	  171.85
     37.5416	  237.00	  310.54	 -427.04	  171.40
     37.5918	  278.00	  301.76	 -377.26	  170.94
     37.6419	  268.00	  293.49	 -378.99	  170.48
     37.6920	  238.00	  285.78	 -401.28	  170.03
     37.7422	  251.00	  278.67	 -381.17	  169.57
     37.7923	  231.00	  272.13	 -394.63	  169.12
     37.8424	  221.00	  266.13	 -398.63	  168.66
     37.8926	  233.00	  260.65	 -381.15	  168.21
     37.9427	  239.00	  255.63	 -370.13	  167.75
     37.9929	  222.00	  251.02	 -382.52	  167.30
     38.0430	  217.00	  246.79	 -383.29	  166.84
     38.0931	  264.00	  242.89	 -332.39	  166.38
     38.1432	  203.00	  239.28	 -389.78	  165.93
     38.1934	  218.00	  235.94	 -371.44	  165.47
     38.2435	  240.00	  232.84	 -346.34	  165.02
     38.2937	  246.00	  229.95	 -337.45	  164.56
     38.3438	  205.00	  227.25	 -375.75	  164.11
     38.3939	  242.00	  224.71	 -336.21	  163.65
     38.4441	  237.00	  222.33	 -338.83	  163.19
     38.4942	  201.00	  220.08	 -372.58	  162.74
     38.5443	  190.00	  217.95	 -381.45	  162.28
     38.5945	  203.00	  215.94	 -366.44	  161.83
     38.6446	  203.00	  214.02	 -364.52	  161.37
     38.6947	  200.00	  212.20	 -365.70	  160.92
     38.7449	  190.00	  210.46	 -373.96	  160.46
     38.7950	  174.00	  208.80	 -388.30	  160.01
     38.8451	  192.00	  207.21	 -368.71	  159.55
     38.8953	  181.00	  205.68	 -378.18	  159.09
     38.9454	  182.00	  204.21	 -375.71	  158.64
     38.9955	  185.00	  202.80	 -371.30	  158.18
     39.0457	  200.00	  203.57	 -357.07	  157.73
     39.0958	  169.00	  202.30	 -386.80	  157.27
     39.1459	  203.00	  202.14	 -352.64	  156.82
     39.1961	  179.00	  200.99	 -375.49	  156.36
     39.2462	  219.00	  199.88	 -334.38	  155.91
     39.2963	  201.00	  198.80	 -351.30	  155.45
     39.3465	  202.00	  197.77	 -349.27	  154.99
     39.3966	  217.00	  185.36	 -321.86	  154.54
     39.4467	  212.00	  178.88	 -320.38	  154.08
     39.4969	  192.00	  178.37	 -339.87	  153.63
     39.5470	  207.00	  177.86	 -324.36	  153.17
     39.5971	  164.00	  177.37	 -366.87	  152.72
     39.6473	  188.00	  176.90	 -342.40	  152.26
     39.6974	  143.00	  176.43	 -386.93	  151.81
     39.7475	  180.00	  175.98	 -349.48	  151.35
     39.7977	  186.00	  175.54	 -343.04	  150.89
     39.8478	  167.00	  175.11	 -361.61	  150.44
     39.8979	  163.00	  174.70	 -365.20	  149.98
     39.9481	  173.00	  174.29	 -354.79	  149.53
     39.9982	  159.00	  173.95	 -368.45	  149.13
     40.0483	  159.00	  173.65	 -368.15	  148.75
     40.0985	  167.00	  173.35	 -359.85	  148.37
     40.1486	  189.00	  173.07	 -337.57	  147.99
     40.1987	  142.00	  172.80	 -384.30	  147.61
     40.2489	  172.00	  172.55	 -354.05	  147.23
     40.2990	  176.00	  172.30	 -349.80	  146.85
     40.3491	  149.00	  172.07	 -376.57	  146.47
     40.3993	  143.00	  171.85	 -382.35	  146.09
     40.4494	  197.00	  171.65	 -328.15	  145.71
     40.4995	  136.00	  171.46	 -388.96	  145.33
     40.5497	  147.00	  171.29	 -377.79	  144.95
     40.5998	  185.00	  171.14	 -339.64	  144.57
     40.6499	  170.00	  171.00	 -354.50	  144.19
     40.7001	  173.00	  170.88	 -351.38	  143.81
     40.7502	  180.00	  170.78	 -344.28	  143.43
     40.8003	  149.00	  170.70	 -375.20	  143.05
     40.8505	  148.00	  170.64	 -376.14	  142.67
     40.9006	  165.00	  170.61	 -359.11	  142.29
     40.9507	  156.00	  170.61	 -368.11	  141.91
     41.0009	  173.00	  169.71	 -350.21	  141.53
     41.0510	  169.00	  169.79	 -354.29	  141.15
     41.1011	  186.00	  169.44	 -336.94	  140.77
     41.1513	  169.00	  169.59	 -354.09	  140.39
     41.2014	  164.00	  169.78	 -359.28	  140.02
     41.2515	  185.00	  170.00	 -338.50	  139.64
     41.3017	  161.00	  170.27	 -362.77	  139.26
     41.3518	  162.00	  170.59	 -362.09	  138.88
     41.4019	  178.00	  170.96	 -346.46	  138.50
     41.4521	  181.00	  171.39	 -343.89	  138.12
     41.5022	  184.00	  171.89	 -341.39	  137.74
     41.5523	  164.00	  172.45	 -361.95	  137.36
     41.6025	  148.00	  173.09	 -378.59	  136.98
     41.6526	  170.00	  173.82	 -357.32	  136.60
     41.7028	  175.00	  174.64	 -353.14	  136.22
     41.7529	  184.00	  175.57	 -345.07	  135.84
     41.8030	  174.00	  176.62	 -356.12	  135.46
     41.8532	  180.00	  177.81	 -351.31	  135.08
     41.9033	  180.00	  179.14	 -352.64	  134.70
     41.9534	  153.00	  180.65	 -381.15	  134.32
     42.0036	  179.00	  182.34	 -356.84	  133.94
     42.0537	  189.00	  184.26	 -348.76	  133.56
     42.1038	  206.00	  186.42	 -333.92	  133.18
     42.1540	  179.00	  188.86	 -363.36	  132.80
     42.2041	  208.00	  191.61	 -337.11	  132.42
     42.2542	  206.00	  194.73	 -342.23	  132.04
     42.3044	  187.00	  198.25	 -364.75	  131.66
     42.3545	  186.00	  202.24	 -369.74	  131.28
     42.4046	  185.00	  206.76	 -375.26	  130.90
     42.4548	  205.00	  211.88	 -360.38	  130.52
     42.5049	  200.00	  217.67	 -371.17	  130.14
     42.5550	  226.00	  224.23	 -351.73	  129.76
     42.6052	  201.00	  231.74	 -384.24	  129.51
     42.6553	  219.00	  240.18	 -374.68	  129.26
     42.7054	  256.00	  249.60	 -347.10	  129.01
     42.7556	  253.00	  260.03	 -360.53	  128.76
     42.8057	  252.00	  271.46	 -372.96	  128.51
     42.8558	  247.00	  283.80	 -390.30	  128.26
     42.9060	  299.00	  296.84	 -351.34	  128.01
     42.9561	  293.00	  310.22	 -370.72	  127.76
     43.0062	  321.00	  323.41	 -355.91	  127.51
     43.0564	  301.00	  335.70	 -388.20	  127.26
     43.1065	  312.00	  346.41	 -387.91	  127.01
     43.1566	  314.00	  354.38	 -393.88	  126.76
     43.2068	  330.00	  359.09	 -382.59	  126.51
     43.2569	  337.00	  359.92	 -376.42	  126.26
     43.3070	  334.00	  356.85	 -376.35	  126.01
     43.3572	  349.00	  350.17	 -354.67	  125.75
     43.4073	  296.00	  340.49	 -397.99	  125.50
     43.4574	  297.00	  328.63	 -385.13	  125.25
     43.5076	  304.00	  315.42	 -364.92	  125.00
     43.5577	  265.00	  301.64	 -390.14	  124.75
     43.6078	  262.00	  287.91	 -379.41	  124.50
     43.6580	  260.00	  274.68	 -368.18	  124.25
     43.7081	  246.00	  262.24	 -369.74	  124.00
     43.7582	  246.00	  250.74	 -358.24	  123.75
     43.8084	  211.00	  240.26	 -382.76	  123.50
     43.8585	  189.00	  230.78	 -395.28	  123.25
     43.9086	  222.00	  222.24	 -353.74	  123.00
     43.9588	  187.00	  214.60	 -381.10	  122.75
     44.0089	  209.00	  207.75	 -352.25	  122.50
     44.0590	  220.00	  201.63	 -335.13	  122.25
     44.1092	  202.00	  196.15	 -347.65	  122.00
     44.1593	  175.00	  191.23	 -369.73	  121.75
     44.2094	  203.00	  186.82	 -337.32	  121.50
     44.2596	  205.00	  182.86	 -331.36	  121.24
     44.3097	  204.00	  179.28	 -328.78	  120.99
     44.3598	  150.00	  176.05	 -379.55	  120.74
     44.4100	  172.00	  173.11	 -354.61	  120.49
     44.4601	  182.00	  170.44	 -341.94	  120.24
     44.5102	  169.00	  168.01	 -352.51	  119.99
     44.5604	  205.00	  165.78	 -314.28	  119.74
     44.6105	  156.00	  163.73	 -361.23	  119.49
     44.6606	  174.00	  161.85	 -341.35	  119.24
     44.7108	  149.00	  160.12	 -364.62	  118.99
     44.7609	  166.00	  158.51	 -346.01	  118.74
     44.8110	  151.00	  157.01	 -359.51	  118.49
     44.8612	  149.00	  155.63	 -360.13	  118.24
     44.9113	  167.00	  154.33	 -340.83	  117.99
     44.9614	  155.00	  153.02	 -351.52	  117.64
     45.0116	  126.00	  151.78	 -379.28	  117.29
     45.0617	  155.00	  150.62	 -349.12	  116.94
     45.1119	  148.00	  149.51	 -355.01	  116.58
     45.1620	  142.00	  148.47	 -359.97	  116.23
     45.2121	  131.00	  147.47	 -369.97	  115.88
     45.2623	  148.00	  146.53	 -352.03	  115.53
     45.3124	  166.00	  145.63	 -333.13	  115.18
     45.3625	  124.00	  144.77	 -374.27	  114.83
     45.4127	  153.00	  143.95	 -344.45	  114.47
     45.4628	  140.00	  143.17	 -356.67	  114.12
     45.5129	  115.00	  142.41	 -380.91	  113.77
     45.5631	  115.00	  141.69	 -380.19	  113.42
     45.6132	  120.00	  141.01	 -374.51	  113.07
     45.6633	  124.00	  140.34	 -369.84	  112.72
     45.7135	  136.00	  139.71	 -357.21	  112.36
     45.7636	  143.00	  139.10	 -349.60	  112.01
     45.8137	  116.00	  138.52	 -376.02	  111.66
     45.8639	  133.00	  137.96	 -358.46	  111.31
     45.9140	  129.00	  137.43	 -361.93	  110.96
     45.9641	  141.00	  136.92	 -349.42	  110.61
     46.0143	  132.00	  136.44	 -357.94	  110.25
     46.0644	  156.00	  135.98	 -333.48	  109.90
     46.1145	  169.00	  135.55	 -320.05	  109.55
     46.1647	  136.00	  135.15	 -352.65	  109.20
     46.2148	  128.00	  134.77	 -360.27	  108.85
     46.2649	  133.00	  134.42	 -354.92	  108.50
     46.3151	  116.00	  134.11	 -371.61	  108.14
     46.3652	  150.00	  133.83	 -337.33	  107.79
     46.4153	  127.00	  133.59	 -360.09	  107.44
     46.4655	  150.00	  133.38	 -336.88	  107.09
     46.5156	  139.00	  133.22	 -347.72	  106.74
     46.5657	  155.00	  133.12	 -331.62	  106.39
     46.6159	  146.00	  133.06	 -340.56	  106.03
     46.6660	  155.00	  133.06	 -331.56	  105.68
     46.7161	  140.00	  133.13	 -346.63	  105.33
     46.7663	  125.00	  133.26	 -361.76	  104.98
     46.8164	  144.00	  133.46	 -342.96	  104.63
     46.8665	  116.00	  133.74	 -371.24	  104.27
     46.9167	  123.00	  134.08	 -364.58	  103.92
     46.9668	  133.00	  134.48	 -354.98	  103.57
     47.0169	  135.00	  134.93	 -353.43	  103.22
     47.0671	  129.00	  132.92	 -357.42	  102.87
     47.1172	  153.00	  133.43	 -333.93	  102.52
     47.1673	  130.00	  132.71	 -356.21	  102.23
     47.2175	  143.00	  133.29	 -343.79	  102.11
     47.2676	  113.00	  133.70	 -374.20	  101.98
     47.3177	  114.00	  133.89	 -373.39	  101.86
     47.3679	  174.00	  133.83	 -313.33	  101.73
     47.4180	  135.00	  133.52	 -352.02	  101.61
     47.4681	  107.00	  132.97	 -379.47	  101.48
     47.5183	  123.00	  132.22	 -362.72	  101.36
     47.5684	  101.00	  131.33	 -383.83	  101.23
     47.6185	  125.00	  130.34	 -358.84	  101.11
     47.6687	  136.00	  129.30	 -346.80	  100.98
     47.7188	  132.00	  128.27	 -349.77	  100.85
     47.7689	  103.00	  127.26	 -377.76	  100.73
     47.8191	  117.00	  126.29	 -362.79	  100.60
     47.8692	  117.00	  125.39	 -361.89	  100.48
     47.9193	  108.00	  124.55	 -370.05	  100.35
     47.9695	  112.00	  123.78	 -365.28	  100.23
     48.0196	  116.00	  123.07	 -360.57	  100.10
     48.0697	  119.00	  122.43	 -356.93	   99.98
     48.1199	  125.00	  121.83	 -350.33	   99.85
     48.1700	  112.00	  121.29	 -362.79	   99.73
     48.2201	  105.00	  120.79	 -369.29	   99.60
     48.2703	  117.00	  120.33	 -356.83	   99.48
     48.3204	  117.00	  119.90	 -356.40	   99.35
     48.3705	  131.00	  119.51	 -342.01	   99.23
     48.4207	  118.00	  119.15	 -354.65	   99.10
     48.4708	  109.00	  118.80	 -363.30	   98.98
     48.5210	  105.00	  118.48	 -366.98	   98.85
     48.5711	  112.00	  118.18	 -359.68	   98.72
     48.6212	  121.00	  117.90	 -350.40	   98.60
     48.6713	  101.00	  117.63	 -370.13	   98.47
     48.7215	  112.00	  117.37	 -358.87	   98.35
     48.7716	  113.00	  117.12	 -357.62	   98.22
     48.8218	  116.00	  116.89	 -354.39	   98.10
     48.8719	  116.00	  116.66	 -354.16	   97.97
     48.9220	  136.00	  116.45	 -333.95	   97.85
     48.9722	  113.00	  116.24	 -356.74	   97.72
     49.0223	  129.00	  116.03	 -340.53	   97.60
     49.0724	  102.00	  115.84	 -367.34	   97.47
     49.1226	  125.00	  115.64	 -344.14	   97.35
     49.1727	  127.00	  115.46	 -341.96	   97.22
     49.2228	  133.00	  115.27	 -335.77	   97.10
     49.2730	  134.00	  116.06	 -335.56	   96.97
     49.3231	  108.00	  115.91	 -361.41	   96.85
     49.3732	  125.00	  115.76	 -344.26	   96.72
     49.4234	  120.00	  116.10	 -349.60	   96.60
     49.4735	  105.00	  115.97	 -364.47	   96.47
     49.5236	  126.00	  115.90	 -343.40	   96.40
     49.5738	  119.00	  115.98	 -350.48	   96.48
     49.6239	  124.00	  116.07	 -345.57	   96.56
     49.6740	  114.00	  116.16	 -355.66	   96.64
     49.7242	  119.00	  116.25	 -350.75	   96.72
     49.7743	  116.00	  116.35	 -353.85	   96.80
     49.8244	  101.00	  116.45	 -368.95	   96.88
     49.8746	  125.00	  116.55	 -345.05	   96.96
     49.9247	  127.00	  116.66	 -343.16	   97.04
     49.9748	  113.00	  116.77	 -357.27	   97.12
     50.0250	  118.00	  116.88	 -352.38	   97.20
     50.0751	  118.00	  117.00	 -352.50	   97.28
     50.1252	  110.00	  117.11	 -360.61	   97.36
     50.1754	  108.00	  117.24	 -362.74	   97.44
     50.2255	  117.00	  117.36	 -353.86	   97.52
     50.2756	   93.00	  117.49	 -377.99	   97.59
     50.3258	  100.00	  117.63	 -371.13	   97.67
     50.3759	  100.00	  117.76	 -371.26	   97.75
     50.4260	  131.00	  117.91	 -340.41	   97.83
     50.4762	  112.00	  118.05	 -359.55	   97.91
     50.5263	  105.00	  118.20	 -366.70	   97.99
     50.5764	  131.00	  118.36	 -340.86	   98.07
     50.6266	  130.00	  118.51	 -342.01	   98.15
     50.6767	  116.00	  118.68	 -356.18	   98.23
     50.7268	  117.00	  118.85	 -355.35	   98.31
     50.7770	  117.00	  119.02	 -355.52	   98.39
     50.8271	  115.00	  119.20	 -357.70	   98.47
     50.8772	  132.00	  119.39	 -340.89	   98.55
     50.9274	  111.00	  119.58	 -362.08	   98.63
     50.9775	  124.00	  119.78	 -349.28	   98.71
     51.0276	  128.00	  119.99	 -345.49	   98.79
     51.0778	  142.00	  120.20	 -331.70	   98.87
     51.1279	  128.00	  120.43	 -345.93	   98.95
     51.1780	  139.00	  120.48	 -334.98	   99.03
     51.2282	  116.00	  120.72	 -358.22	   99.11
     51.2783	  121.00	  120.98	 -353.48	   99.19
     51.3284	  162.00	  121.16	 -312.66	   99.27
     51.3786	  127.00	  121.44	 -347.94	   99.34
     51.4287	  140.00	  121.73	 -335.23	   99.42
     51.4788	  130.00	  122.04	 -345.54	   99.50
     51.5290	  113.00	  122.36	 -362.86	   99.58
     51.5791	  123.00	  122.70	 -353.20	   99.66
     51.6292	  139.00	  123.06	 -337.56	   99.74
     51.6794	  144.00	  123.44	 -332.94	   99.82
     51.7295	  135.00	  123.84	 -342.34	   99.90
     51.7796	  130.00	  124.26	 -347.76	   99.98
     51.8298	  154.00	  124.70	 -324.20	  100.06
     51.8799	  143.00	  125.18	 -335.68	  100.14
     51.9300	  108.00	  125.68	 -371.18	  100.22
     51.9802	  126.00	  126.22	 -353.72	  100.30
     52.0303	  147.00	  127.35	 -333.85	  100.94
     52.0804	  133.00	  128.59	 -349.09	  101.63
     52.1306	  140.00	  129.87	 -343.37	  102.33
     52.1807	  112.00	  131.20	 -372.70	  103.03
     52.2309	  147.00	  132.58	 -339.08	  103.72
     52.2810	  166.00	  134.04	 -321.54	  104.42
     52.3311	  143.00	  135.56	 -346.06	  105.11
     52.3813	  140.00	  137.16	 -350.66	  105.81
     52.4314	  154.00	  138.85	 -338.35	  106.51
     52.4815	  140.00	  140.65	 -354.15	  107.20
     52.5317	  155.00	  142.55	 -341.05	  107.90
     52.5818	  157.00	  144.59	 -341.09	  108.59
     52.6319	  129.00	  146.76	 -371.26	  109.29
     52.6821	  172.00	  149.11	 -330.61	  109.99
     52.7322	  145.00	  151.63	 -360.13	  110.68
     52.7823	  165.00	  157.37	 -345.87	  111.38
     52.8325	  136.00	  160.39	 -377.89	  112.07
     52.8826	  145.00	  163.68	 -372.18	  112.77
     52.9327	  156.00	  168.75	 -366.25	  113.47
     52.9829	  159.00	  172.67	 -367.17	  114.16
     53.0330	  156.00	  176.93	 -374.43	  114.86
     53.0831	  180.00	  181.56	 -355.06	  115.55
     53.1333	  170.00	  186.57	 -370.07	  116.25
     53.1834	  176.00	  191.94	 -369.44	  116.95
     53.2335	  162.00	  197.65	 -389.15	  117.64
     53.2837	  186.00	  203.64	 -371.14	  118.34
     53.3338	  210.00	  209.81	 -353.31	  119.03
     53.3839	  197.00	  215.99	 -372.49	  119.73
     53.4341	  221.00	  221.51	 -354.01	  119.97
     53.4842	  210.00	  226.37	 -369.87	  120.02
     53.5343	  210.00	  230.48	 -373.98	  120.06
     53.5845	  204.00	  233.56	 -383.06	  120.11
     53.6346	  225.00	  235.39	 -363.89	  120.15
     53.6847	  207.00	  235.85	 -382.35	  120.19
     53.7349	  239.00	  234.92	 -349.42	  120.24
     53.7850	  227.00	  232.71	 -359.21	  120.28
     53.8351	  208.00	  229.41	 -374.91	  120.33
     53.8853	  208.00	  225.28	 -370.78	  120.37
     53.9354	  228.00	  220.60	 -346.10	  120.41
     53.9855	  205.00	  215.64	 -364.14	  120.46
     54.0357	  203.00	  210.62	 -361.12	  120.50
     54.0858	  202.00	  205.72	 -357.22	  120.55
     54.1359	  203.00	  201.07	 -351.57	  120.59
     54.1861	  181.00	  196.74	 -369.24	  120.63
     54.2362	  197.00	  192.77	 -349.27	  120.68
     54.2863	  186.00	  189.19	 -356.69	  120.72
     54.3365	  171.00	  185.98	 -368.48	  120.77
     54.3866	  192.00	  183.14	 -344.64	  120.81
     54.4367	  175.00	  180.63	 -359.13	  120.85
     54.4869	  181.00	  178.44	 -350.94	  120.90
     54.5370	  148.00	  176.53	 -382.03	  120.94
     54.5871	  164.00	  174.89	 -364.39	  120.99
     54.6373	  151.00	  173.49	 -375.99	  121.03
     54.6874	  169.00	  172.30	 -356.80	  121.07
     54.7375	  166.00	  171.31	 -358.81	  121.12
     54.7877	  161.00	  170.50	 -363.00	  121.16
     54.8378	  174.00	  169.86	 -349.36	  121.20
     54.8879	  170.00	  169.37	 -352.87	  121.25
     54.9381	  153.00	  169.03	 -369.53	  121.29
     54.9882	  157.00	  168.81	 -365.31	  121.34
     55.0383	  178.00	  168.73	 -344.23	  121.38
     55.0885	  188.00	  168.77	 -334.27	  121.42
     55.1386	  176.00	  168.93	 -346.43	  121.47
     55.1887	  187.00	  169.20	 -335.70	  121.51
     55.2389	  196.00	  169.59	 -327.09	  121.56
     55.2890	  141.00	  170.09	 -382.59	  121.60
     55.3391	  190.00	  170.71	 -334.21	  121.64
     55.3893	  173.00	  171.45	 -351.95	  121.69
     55.4394	  187.00	  172.32	 -338.82	  121.73
     55.4895	  169.00	  173.31	 -357.81	  121.78
     55.5397	  177.00	  174.44	 -350.94	  121.82
     55.5898	  194.00	  175.72	 -335.22	  121.86
     55.6399	  180.00	  177.15	 -350.65	  121.91
     55.6901	  170.00	  178.89	 -362.39	  122.09
     55.7402	  209.00	  180.80	 -325.30	  122.26
     55.7904	  204.00	  182.91	 -332.41	  122.44
     55.8405	  189.00	  185.25	 -349.75	  122.61
     55.8906	  201.00	  187.82	 -340.32	  122.79
     55.9408	  201.00	  190.66	 -343.16	  122.97
     55.9909	  228.00	  193.80	 -319.30	  123.14
     56.0410	  232.00	  197.27	 -318.77	  123.32
     56.0912	  236.00	  201.10	 -318.60	  123.49
     56.1413	  216.00	  205.35	 -342.85	  123.67
     56.1914	  222.00	  210.05	 -341.55	  123.85
     56.2416	  242.00	  215.27	 -326.77	  124.02
     56.2917	  240.00	  221.07	 -334.57	  124.20
     56.3418	  237.00	  227.50	 -344.00	  124.37
     56.3920	  218.00	  234.65	 -370.15	  124.55
     56.4421	  245.00	  242.59	 -351.09	  124.72
     56.4922	  243.00	  251.39	 -361.89	  124.90
     56.5424	  243.00	  261.13	 -371.63	  125.08
     56.5925	  242.00	  271.87	 -383.37	  125.25
     56.6426	  272.00	  283.65	 -365.15	  125.43
     56.6928	  267.00	  296.49	 -382.99	  125.60
     56.7429	  304.00	  310.34	 -359.84	  125.78
     56.7930	  323.00	  325.07	 -355.57	  125.96
     56.8432	  319.00	  340.45	 -374.95	  126.13
     56.8933	  375.00	  356.13	 -334.63	  126.31
     56.9434	  372.00	  371.59	 -353.09	  126.48
     56.9936	  371.00	  386.20	 -368.70	  126.66
     57.0437	  376.00	  399.18	 -376.68	  126.83
     57.0938	  402.00	  409.77	 -361.27	  127.01
     57.1440	  433.00	  417.23	 -337.73	  127.19
     57.1941	  433.00	  421.02	 -341.52	  127.36
     57.2442	  445.00	  420.88	 -329.38	  127.54
     57.2944	  438.00	  416.85	 -332.35	  127.71
     57.3445	  413.00	  409.25	 -349.75	  127.89
     57.3946	  423.00	  398.67	 -329.17	  128.07
     57.4448	  417.00	  385.82	 -322.32	  128.24
     57.4949	  327.00	  371.47	 -397.97	  128.42
     57.5450	  357.00	  355.14	 -351.64	  128.59
     57.5952	  362.00	  339.84	 -331.34	  128.77
     57.6453	  331.00	  324.85	 -347.35	  128.94
     57.6954	  310.00	  309.91	 -353.41	  129.12
     57.7456	  295.00	  296.45	 -354.95	  129.30
     57.7957	  267.00	  283.97	 -370.47	  129.47
     57.8458	  240.00	  272.52	 -386.02	  129.65
     57.8960	  233.00	  261.98	 -382.48	  129.71
     57.9461	  223.00	  252.21	 -382.71	  129.55
     57.9962	  223.00	  243.36	 -373.86	  129.39
     58.0464	  230.00	  235.36	 -358.86	  129.23
     58.0965	  222.00	  228.14	 -359.64	  129.07
     58.1466	  209.00	  221.62	 -366.12	  128.91
     58.1968	  210.00	  215.72	 -359.22	  128.75
     58.2469	  219.00	  214.68	 -349.18	  128.59
     58.2970	  192.00	  209.95	 -371.45	  128.43
     58.3472	  174.00	  205.66	 -385.16	  128.27
     58.3973	  210.00	  201.78	 -345.28	  128.12
     58.4474	  161.00	  200.42	 -392.92	  127.96
     58.4976	  171.00	  197.26	 -379.76	  127.80
     58.5477	  187.00	  194.39	 -360.89	  127.64
     58.5978	  178.00	  191.77	 -367.27	  127.48
     58.6480	  184.00	  189.39	 -358.89	  127.32
     58.6981	  156.00	  187.21	 -384.71	  127.16
     58.7482	  176.00	  185.22	 -362.72	  127.00
     58.7984	  194.00	  183.40	 -342.90	  126.84
     58.8485	  138.00	  181.74	 -397.24	  126.68
     58.8986	  175.00	  180.21	 -358.71	  126.52
     58.9488	  169.00	  178.80	 -363.30	  126.37
     58.9989	  185.00	  177.52	 -346.02	  126.21
     59.0490	  170.00	  176.34	 -359.84	  126.05
     59.0992	  165.00	  175.25	 -363.75	  125.89
     59.1493	  165.00	  174.26	 -362.76	  125.73
     59.1994	  171.00	  173.35	 -355.85	  125.57
     59.2496	  151.00	  172.52	 -375.02	  125.41
     59.2997	  155.00	  171.76	 -370.26	  125.25
     59.3498	  184.00	  171.06	 -340.56	  125.09
     59.4000	  148.00	  170.44	 -375.94	  124.93
     59.4501	  127.00	  169.87	 -396.37	  124.77
     59.5003	  171.00	  169.36	 -351.86	  124.62
     59.5504	  156.00	  168.91	 -366.41	  124.46
     59.6005	  165.00	  168.51	 -357.01	  124.30
     59.6507	  151.00	  168.16	 -370.66	  124.14
     59.7008	  134.00	  167.86	 -387.36	  123.98
     59.7509	  166.00	  167.61	 -355.11	  123.82
     59.8011	  178.00	  167.41	 -342.91	  123.66
     59.8512	  161.00	  167.25	 -359.75	  123.50
     59.9013	  155.00	  167.14	 -365.64	  123.34
     59.9515	  156.00	  167.07	 -364.57	  123.18
     60.0016	  176.00	  167.06	 -344.56	  123.02
     60.0517	  176.00	  167.09	 -344.59	  122.87
     60.1019	  161.00	  167.16	 -359.66	  122.71
     60.1520	  169.00	  167.29	 -351.79	  122.55
     60.2021	  173.00	  167.46	 -347.96	  122.39
     60.2523	  144.00	  167.69	 -377.19	  122.23
     60.3024	  150.00	  167.96	 -371.46	  122.07
     60.3525	  153.00	  168.29	 -368.79	  121.91
     60.4027	  163.00	  168.69	 -359.19	  121.76
     60.4528	  167.00	  169.15	 -355.65	  121.62
     60.5029	  178.00	  169.68	 -345.18	  121.47
     60.5531	  172.00	  170.26	 -351.76	  121.32
     60.6032	  157.00	  170.92	 -367.42	  121.17
     60.6533	  179.00	  171.65	 -346.15	  121.03
     60.7035	  201.00	  172.47	 -324.97	  120.88
     60.7536	  161.00	  173.36	 -365.86	  120.73
     60.8037	  191.00	  174.35	 -336.85	  120.58
     60.8539	  185.00	  175.44	 -343.94	  120.44
     60.9040	  173.00	  176.63	 -357.13	  120.29
     60.9541	  216.00	  177.94	 -315.44	  120.14
     61.0043	  186.00	  179.38	 -346.88	  119.99
     61.0544	  222.00	  180.95	 -312.45	  119.85
     61.1045	  211.00	  178.95	 -321.45	  119.70
     61.1547	  197.00	  180.93	 -337.43	  119.55
     61.2048	  206.00	  183.08	 -330.58	  119.40
     61.2549	  223.00	  183.57	 -314.07	  119.26
     61.3051	  205.00	  186.17	 -334.67	  119.11
     61.3552	  211.00	  189.01	 -331.51	  118.96
     61.4053	  219.00	  192.18	 -326.68	  118.82
     61.4555	  246.00	  195.58	 -303.08	  118.67
     61.5056	  219.00	  199.30	 -333.80	  118.52
     61.5557	  207.00	  203.37	 -349.87	  118.37
     61.6059	  239.00	  207.89	 -322.39	  118.23
     61.6560	  223.00	  212.83	 -343.33	  118.08
     61.7061	  222.00	  218.27	 -349.77	  117.93
     61.7563	  252.00	  224.27	 -325.77	  117.78
     61.8064	  255.00	  230.90	 -329.40	  117.64
     61.8565	  248.00	  238.23	 -343.73	  117.49
     61.9067	  237.00	  246.35	 -362.85	  117.34
     61.9568	  295.00	  255.33	 -313.83	  117.19
     62.0069	  273.00	  265.27	 -345.77	  117.05
     62.0571	  280.00	  276.27	 -349.77	  116.90
     62.1072	  276.00	  288.41	 -365.91	  116.75
     62.1573	  306.00	  301.78	 -349.28	  116.60
     62.2075	  304.00	  316.45	 -365.95	  116.46
     62.2576	  323.00	  332.45	 -362.95	  116.31
     62.3077	  373.00	  349.77	 -330.27	  116.16
     62.3579	  378.00	  368.34	 -343.84	  116.01
     62.4080	  364.00	  387.90	 -377.40	  115.82
     62.4581	  436.00	  408.20	 -325.70	  115.62
     62.5083	  483.00	  428.76	 -299.26	  115.42
     62.5584	  499.00	  448.94	 -303.44	  115.22
     62.6085	  558.00	  467.92	 -263.42	  115.02
     62.6587	  561.00	  484.80	 -277.30	  114.82
     62.7088	  562.00	  498.62	 -290.12	  114.62
     62.7589	  576.00	  508.52	 -286.02	  114.42
     62.8091	  528.00	  513.83	 -339.33	  114.22
     62.8592	  629.00	  514.20	 -238.70	  114.03
     62.9094	  623.00	  509.60	 -240.10	  113.83
     62.9595	  521.00	  500.38	 -332.88	  113.63
     63.0096	  528.00	  487.15	 -312.65	  113.43
     63.0598	  522.00	  470.73	 -302.23	  113.23
     63.1099	  520.00	  452.03	 -285.53	  113.03
     63.1600	  507.00	  431.93	 -278.43	  112.83
     63.2102	  439.00	  411.23	 -325.73	  112.63
     63.2603	  413.00	  390.60	 -331.10	  112.43
     63.3104	  435.00	  370.55	 -289.05	  112.24
     63.3606	  374.00	  351.43	 -330.93	  112.04
     63.4107	  371.00	  333.46	 -315.96	  111.84
     63.4608	  321.00	  316.77	 -349.27	  111.64
     63.5110	  298.00	  301.40	 -356.90	  111.44
     63.5611	  306.00	  287.32	 -334.82	  111.24
     63.6112	  318.00	  274.49	 -309.99	  111.04
     63.6614	  286.00	  262.82	 -330.32	  110.84
     63.7115	  234.00	  252.23	 -371.73	  110.64
     63.7616	  226.00	  242.62	 -370.12	  110.45
     63.8118	  238.00	  233.91	 -349.41	  110.25
     63.8619	  247.00	  226.01	 -332.51	  110.05
     63.9120	  225.00	  218.83	 -347.33	  109.85
     63.9622	  221.00	  212.31	 -344.81	  109.65
     64.0123	  176.00	  206.37	 -383.87	  109.45
     64.0624	  230.00	  200.95	 -324.45	  109.25
     64.1126	  197.00	  196.01	 -352.51	  109.05
     64.1627	  203.00	  191.48	 -341.98	  108.86
     64.2128	  193.00	  187.33	 -347.83	  108.66
     64.2630	  199.00	  183.52	 -338.02	  108.46
     64.3131	  177.00	  180.02	 -356.52	  108.26
     64.3632	  181.00	  176.78	 -349.28	  108.06
     64.4134	  181.00	  173.80	 -346.30	  107.86
     64.4635	  179.00	  171.03	 -345.53	  107.66
     64.5136	  197.00	  168.47	 -324.97	  107.46
     64.5638	  177.00	  166.10	 -342.60	  107.26
     64.6139	  177.00	  163.89	 -340.39	  107.07
     64.6640	  176.00	  161.83	 -339.33	  106.87
     64.7142	  158.00	  159.91	 -355.41	  106.67
     64.7643	  172.00	  158.12	 -339.62	  106.47
     64.8144	  169.00	  156.45	 -340.95	  106.27
     64.8646	  145.00	  154.80	 -363.30	  105.98
     64.9147	  141.00	  153.20	 -365.70	  105.65
     64.9648	  134.00	  151.70	 -371.20	  105.32
     65.0150	  163.00	  150.29	 -340.79	  104.98
     65.0651	  132.00	  148.96	 -370.46	  104.65
     65.1152	  134.00	  147.71	 -367.21	  104.31
     65.1654	  142.00	  146.54	 -358.04	  103.98
     65.2155	  149.00	  145.44	 -349.94	  103.65
     65.2656	  127.00	  144.40	 -370.90	  103.31
     65.3158	  144.00	  143.44	 -352.94	  102.98
     65.3659	  126.00	  142.53	 -370.03	  102.64
     65.4160	  112.00	  141.69	 -383.19	  102.31
     65.4662	  138.00	  140.91	 -356.41	  101.98
     65.5163	  107.00	  140.19	 -386.69	  101.64
     65.5664	  126.00	  139.52	 -367.02	  101.31
     65.6166	  141.00	  138.90	 -351.40	  100.97
     65.6667	  117.00	  138.33	 -374.83	  100.64
     65.7168	  124.00	  137.79	 -367.29	  100.31
     65.7670	  138.00	  137.27	 -352.77	   99.97
     65.8171	  119.00	  136.77	 -371.27	   99.64
     65.8672	  132.00	  136.26	 -357.76	   99.30
     65.9174	  119.00	  135.73	 -370.23	   98.97
     65.9675	  133.00	  135.17	 -355.67	   98.64
     66.0176	  128.00	  134.56	 -360.06	   98.30
     66.0678	  117.00	  133.90	 -370.40	   97.97
     66.1179	  116.00	  133.17	 -370.67	   97.63
     66.1680	  115.00	  132.39	 -370.89	   97.30
     66.2182	  116.00	  131.55	 -369.05	   96.96
     66.2683	  125.00	  130.66	 -359.16	   96.63
     66.3185	  107.00	  129.75	 -376.25	   96.30
     66.3686	  112.00	  128.81	 -370.31	   95.96
     66.4187	  110.00	  127.87	 -371.37	   95.63
     66.4689	   95.00	  126.93	 -385.43	   95.29
     66.5190	  107.00	  126.37	 -372.87	   94.96
     66.5691	   93.00	  125.47	 -385.97	   94.63
     66.6192	  110.00	  124.60	 -368.10	   94.29
     66.6694	  101.00	  123.76	 -376.26	   93.96
     66.7195	  136.00	  123.12	 -340.62	   93.62
     66.7697	  120.00	  116.80	 -350.30	   93.29
     66.8198	  120.00	  116.18	 -349.68	   92.96
     66.8699	  100.00	  115.58	 -369.08	   92.62
     66.9201	  110.00	  115.00	 -358.50	   92.29
     66.9702	  113.00	  111.73	 -352.23	   91.95
     67.0203	   92.00	  111.26	 -372.76	   91.62
     67.0705	  111.00	  110.80	 -353.30	   91.29
     67.1206	   98.00	  110.35	 -365.85	   90.95
     67.1707	  104.00	  109.92	 -359.42	   90.62
     67.2209	  108.00	  109.50	 -355.00	   90.28
     67.2710	   96.00	  109.09	 -366.59	   89.95
     67.3211	   95.00	  108.69	 -367.19	   89.61
     67.3713	  113.00	  108.29	 -348.79	   89.28
     67.4214	  113.00	  107.91	 -348.41	   88.95
     67.4715	  102.00	  107.53	 -359.03	   88.61
     67.5217	  120.00	  107.15	 -340.65	   88.28
     67.5718	   90.00	  106.79	 -370.29	   87.94
     67.6219	  105.00	  106.42	 -354.92	   87.61
     67.6721	  107.00	  106.07	 -352.57	   87.28
     67.7222	  113.00	  105.71	 -346.21	   86.94
     67.7723	   99.00	  105.36	 -359.86	   86.61
     67.8225	  111.00	  104.92	 -347.42	   86.18
     67.8726	   89.00	  104.47	 -368.97	   85.73
     67.9227	   90.00	  104.02	 -367.52	   85.29
     67.9729	  120.00	  103.58	 -337.08	   84.84
     68.0230	  108.00	  103.14	 -348.64	   84.40
     68.0731	  103.00	  102.70	 -353.20	   83.95
     68.1233	   95.00	  102.26	 -360.76	   83.51
     68.1734	  109.00	  101.83	 -346.33	   83.06
     68.2235	  104.00	  101.40	 -350.90	   82.61
     68.2737	  116.00	  100.98	 -338.48	   82.17
     68.3238	  110.00	  100.55	 -344.05	   81.72
     68.3739	   96.00	  100.13	 -357.63	   81.28
     68.4241	   99.00	   99.72	 -354.22	   80.83
     68.4742	  100.00	   99.30	 -352.80	   80.39
     68.5243	  111.00	   98.90	 -341.40	   79.94
     68.5745	   89.00	   98.49	 -362.99	   79.50
     68.6246	   98.00	   98.09	 -353.59	   79.05
     68.6747	   95.00	   97.69	 -356.19	   78.61
     68.7249	   87.00	   97.29	 -363.79	   78.16
     68.7750	  109.00	   96.90	 -341.40	   77.71
     68.8251	  112.00	   96.51	 -338.01	   77.27
     68.8753	   87.00	   96.13	 -362.63	   76.82
     68.9254	  110.00	   95.75	 -339.25	   76.38
     68.9755	   85.00	   95.38	 -363.88	   75.93
     69.0257	  104.00	   95.01	 -344.51	   75.49
     69.0758	   87.00	   94.65	 -361.15	   75.04
     69.1259	  107.00	   94.30	 -340.80	   74.60
     69.1761	   80.00	   93.95	 -367.45	   74.15
     69.2262	   99.00	   93.61	 -348.11	   73.71
     69.2763	  107.00	   93.27	 -339.77	   73.26
     69.3265	   99.00	   92.95	 -347.45	   72.81
     69.3766	   94.00	   92.63	 -352.13	   72.37
     69.4267	  112.00	   92.33	 -333.83	   71.92
     69.4769	   97.00	   92.95	 -349.45	   71.48
     69.5270	  105.00	   92.68	 -341.18	   71.03
     69.5771	   95.00	   92.65	 -351.15	   70.81
     69.6273	  100.00	   92.79	 -346.29	   70.74
     69.6774	  113.00	   93.40	 -333.90	   70.67
     69.7276	   98.00	   93.58	 -349.08	   70.60
     69.7777	   84.00	   93.78	 -363.28	   70.53
     69.8278	   78.00	   94.01	 -369.51	   70.46
     69.8779	   99.00	   94.25	 -348.75	   70.39
     69.9281	   96.00	   94.53	 -352.03	   70.32
     69.9782	   95.00	   94.83	 -353.33	   70.25
     70.0284	  117.00	   95.07	 -331.57	   70.18
     70.0785	   92.00	   95.44	 -356.94	   70.11
     70.1286	   97.00	   95.85	 -352.35	   70.04
     70.1788	   99.00	   96.31	 -350.81	   69.98
     70.2289	   97.00	   96.76	 -353.26	   69.91
     70.2790	  116.00	   97.32	 -334.82	   69.84
     70.3292	   89.00	   97.93	 -362.43	   69.77
     70.3793	  113.00	   98.61	 -339.11	   69.70
     70.4294	  100.00	   99.35	 -352.85	   69.63
     70.4796	  110.00	  100.59	 -344.09	   69.56
     70.5297	  114.00	  101.50	 -341.00	   69.49
     70.5798	  107.00	  102.50	 -349.00	   69.42
     70.6300	   94.00	  103.60	 -363.10	   69.35
     70.6801	  110.00	  104.99	 -348.49	   69.28
     70.7302	   93.00	  106.27	 -366.77	   69.21
     70.7804	   88.00	  107.64	 -373.14	   69.14
     70.8305	   96.00	  109.08	 -366.58	   69.07
     70.8806	  115.00	  110.59	 -349.09	   69.00
     70.9308	  133.00	  112.12	 -332.62	   68.93
     70.9809	  132.00	  113.65	 -335.15	   68.86
     71.0310	  117.00	  115.13	 -351.63	   68.79
     71.0812	  109.00	  116.49	 -360.99	   68.72
     71.1313	  124.00	  117.70	 -347.20	   68.65
     71.1814	  124.00	  118.67	 -348.17	   68.58
     71.2316	  111.00	  119.38	 -361.88	   68.51
     71.2817	  120.00	  119.77	 -353.27	   68.44
     71.3318	  135.00	  119.84	 -338.34	   68.37
     71.3820	  107.00	  119.57	 -366.07	   68.30
     71.4321	  115.00	  119.01	 -357.51	   68.24
     71.4822	  111.00	  118.17	 -360.67	   68.17
     71.5324	  125.00	  117.12	 -345.62	   68.10
     71.5825	  118.00	  115.91	 -351.41	   68.03
     71.6326	  126.00	  114.58	 -342.08	   67.96
     71.6828	  125.00	  113.21	 -341.71	   67.89
     71.7329	  128.00	  111.82	 -337.32	   67.82
     71.7830	  113.00	  110.47	 -350.97	   67.75
     71.8332	  110.00	  109.17	 -352.67	   67.68
     71.8833	  143.00	  107.95	 -318.45	   67.61
     71.9334	  109.00	  106.82	 -351.32	   67.54
     71.9836	  127.00	  105.79	 -332.29	   67.47
     72.0337	  116.00	  104.87	 -342.37	   67.40
     72.0838	  119.00	  104.04	 -338.54	   67.33
     72.1340	  105.00	  103.32	 -351.82	   67.26
     72.1841	  126.00	  102.69	 -330.19	   67.19
     72.2342	  124.00	  102.16	 -331.66	   67.12
     72.2844	  120.00	  101.71	 -335.21	   67.05
     72.3345	  104.00	  101.35	 -350.85	   66.98
     72.3846	  105.00	  101.07	 -349.57	   66.91
     72.4348	   93.00	  100.87	 -361.37	   66.85
     72.4849	  108.00	  100.74	 -346.24	   66.78
     72.5350	   96.00	  100.69	 -358.19	   66.72
     72.5852	   94.00	  100.70	 -360.20	   66.65
     72.6353	   89.00	  100.79	 -365.29	   66.58
     72.6854	  108.00	  100.95	 -346.45	   66.52
     72.7356	  113.00	  101.18	 -341.68	   66.45
     72.7857	  113.00	  101.48	 -341.98	   66.39
     72.8358	  100.00	  101.85	 -355.35	   66.32
     72.8860	   94.00	  102.30	 -361.80	   66.25
     72.9361	  107.00	  102.84	 -349.34	   66.19
     72.9862	   95.00	  103.46	 -361.96	   66.12
     73.0364	  112.00	  104.17	 -345.67	   66.06
     73.0865	  115.00	  104.97	 -343.47	   65.99
     73.1366	  123.00	  105.89	 -336.39	   65.92
     73.1868	  114.00	  106.91	 -346.41	   65.86
     73.2369	  107.00	  108.06	 -354.56	   65.79
     73.2870	  126.00	  109.34	 -336.84	   65.73
     73.3372	  100.00	  110.77	 -364.27	   65.66
     73.3873	  110.00	  112.36	 -355.86	   65.59
     73.4375	  132.00	  114.11	 -335.61	   65.53
     73.4876	  105.00	  116.05	 -364.55	   65.46
     73.5377	  115.00	  118.19	 -356.69	   65.40
     73.5879	  110.00	  120.55	 -364.05	   65.33
     73.6380	  133.00	  123.12	 -343.62	   65.26
     73.6881	  112.00	  125.93	 -367.43	   65.20
     73.7383	  126.00	  128.98	 -356.48	   65.13
     73.7884	  105.00	  132.26	 -380.76	   65.07
     73.8385	  149.00	  135.75	 -340.25	   65.00
     73.8887	  131.00	  139.43	 -361.93	   64.94
     73.9388	  128.00	  143.26	 -368.76	   64.87
     73.9889	  148.00	  147.17	 -352.67	   64.80
     74.0391	  147.00	  151.06	 -357.56	   64.74
     74.0892	  117.00	  154.84	 -391.34	   64.67
     74.1393	  136.00	  158.37	 -375.87	   64.61
     74.1895	  178.00	  161.53	 -337.03	   64.54
     74.2396	  170.00	  164.19	 -347.69	   64.47
     74.2897	  147.00	  166.24	 -372.74	   64.41
     74.3399	  177.00	  167.89	 -344.39	   64.34
     74.3900	  154.00	  168.54	 -368.04	   64.28
     74.4401	  166.00	  168.49	 -355.99	   64.21
     74.4903	  145.00	  167.78	 -376.28	   64.14
     74.5404	  148.00	  166.64	 -372.14	   64.08
     74.5905	  147.00	  164.91	 -371.41	   64.01
     74.6407	  146.00	  162.85	 -370.35	   63.95
     74.6908	  143.00	  160.59	 -371.09	   63.88
     74.7409	  158.00	  158.25	 -353.75	   63.81
     74.7911	  158.00	  155.94	 -351.44	   63.75
     74.8412	  151.00	  153.74	 -356.24	   63.68
     74.8913	  146.00	  151.71	 -359.21	   63.62
     74.9415	  136.00	  149.87	 -367.37	   63.55
     74.9916	  130.00	  148.23	 -371.73	   63.48
     75.0417	  155.00	  146.78	 -345.28	   63.42
     75.0919	  126.00	  145.47	 -372.97	   63.35
     75.1420	  124.00	  144.25	 -373.75	   63.29
     75.1921	  121.00	  143.06	 -375.56	   63.22
     75.2423	  123.00	  141.82	 -372.32	   63.15
     75.2924	  115.00	  140.49	 -378.99	   63.09
     75.3425	  119.00	  138.53	 -373.03	   63.02
     75.3927	  118.00	  136.87	 -372.37	   62.96
     75.4428	  126.00	  135.02	 -362.52	   62.89
     75.4929	  129.00	  132.97	 -357.47	   62.83
     75.5431	  112.00	  130.52	 -372.02	   62.76
     75.5932	  112.00	  128.17	 -369.67	   62.69
     75.6433	  101.00	  125.73	 -378.23	   62.63
     75.6935	  104.00	  123.24	 -372.74	   62.56
     75.7436	   90.00	  120.74	 -384.24	   62.50
     75.7937	  108.00	  118.28	 -363.78	   62.43
     75.8439	  102.00	  115.88	 -367.38	   62.36
     75.8940	   90.00	  113.59	 -377.09	   62.30
     75.9441	   70.00	  111.40	 -394.90	   62.23
     75.9943	  108.00	  109.34	 -354.84	   62.17
     76.0444	   93.00	  107.41	 -367.91	   62.10
     76.0945	  112.00	  105.61	 -347.11	   62.03
     76.1447	   82.00	  103.94	 -375.44	   61.97
     76.1948	   86.00	  102.40	 -369.90	   61.90
     76.2449	   87.00	  100.97	 -367.47	   61.84
     76.2951	   87.00	   99.65	 -366.15	   61.77
     76.3452	   98.00	   98.44	 -353.94	   61.70
     76.3953	   72.00	   97.31	 -378.81	   61.64
     76.4455	   81.00	   96.28	 -368.78	   61.57
     76.4956	   78.00	   95.33	 -370.83	   61.51
     76.5457	   81.00	   94.45	 -366.95	   61.44
     76.5959	   83.00	   93.64	 -364.14	   61.37
     76.6460	   80.00	   92.89	 -366.39	   61.31
     76.6962	   79.00	   92.19	 -366.69	   61.24
     76.7463	  103.00	   91.55	 -342.05	   61.18
     76.7964	   74.00	   90.96	 -370.46	   61.11
     76.8465	   93.00	   90.41	 -350.91	   61.04
     76.8967	   86.00	   89.93	 -357.43	   61.01
     76.9468	   65.00	   89.49	 -377.99	   60.98
     76.9969	   82.00	   89.09	 -360.59	   60.95
     77.0471	   94.00	   88.72	 -348.22	   60.92
     77.0972	   74.00	   88.39	 -367.89	   60.89
     77.1474	  100.00	   88.08	 -341.58	   60.86
     77.1975	   84.00	   87.83	 -357.33	   60.83
     77.2476	   88.00	   87.57	 -353.07	   60.80
     77.2978	  102.00	   87.34	 -338.84	   60.77
     77.3479	   72.00	   87.14	 -368.64	   60.74
     77.3980	   69.00	   86.95	 -371.45	   60.71
     77.4482	   85.00	   86.81	 -355.31	   60.68
     77.4983	   87.00	   86.67	 -353.17	   60.65
     77.5484	   74.00	   86.55	 -366.05	   60.62
     77.5986	   97.00	   86.45	 -342.95	   60.59
     77.6487	   75.00	   86.37	 -364.87	   60.56
     77.6988	   95.00	   86.32	 -344.82	   60.53
     77.7490	   78.00	   86.29	 -361.79	   60.50
     77.7991	   69.00	   86.28	 -370.78	   60.47
     77.8492	   81.00	   86.29	 -358.79	   60.44
     77.8994	   70.00	   86.33	 -369.83	   60.41
     77.9495	   78.00	   86.40	 -361.90	   60.38
     77.9996	   94.00	   86.49	 -345.99	   60.35
     78.0498	   72.00	   86.61	 -368.11	   60.32
     78.0999	   77.00	   86.76	 -363.26	   60.29
     78.1500	   72.00	   86.94	 -368.44	   60.26
     78.2002	   82.00	   87.16	 -358.66	   60.23
     78.2503	  100.00	   87.42	 -340.92	   60.20
     78.3004	   80.00	   87.71	 -361.21	   60.17
     78.3506	   68.00	   88.05	 -373.55	   60.14
     78.4007	   71.00	   88.44	 -370.94	   60.11
     78.4508	   79.00	   87.65	 -362.15	   60.08
     78.5010	   93.00	   88.16	 -348.66	   60.05
     78.5511	   86.00	   88.74	 -356.24	   60.02
     78.6012	   88.00	   89.37	 -354.87	   59.99
     78.6514	   98.00	   89.44	 -344.94	   59.96
     78.7015	   70.00	   90.21	 -373.71	   59.93
     78.7516	   81.00	   91.03	 -363.53	   59.91
     78.8018	   73.00	   91.91	 -372.41	   59.88
     78.8519	   81.00	   92.83	 -365.33	   59.85
     78.9020	   81.00	   93.79	 -366.29	   59.82
     78.9522	   77.00	   94.78	 -371.28	   59.79
     79.0023	   98.00	   95.76	 -351.26	   59.76
     79.0524	   82.00	   96.72	 -368.22	   59.73
     79.1026	   86.00	   97.61	 -365.11	   59.70
     79.1527	   82.00	   98.42	 -369.92	   59.67
     79.2028	   93.00	   99.09	 -359.59	   59.64
     79.2530	   90.00	   99.61	 -363.11	   59.61
     79.3031	   90.00	   99.94	 -363.44	   59.58
     79.3532	   75.00	  100.07	 -378.57	   59.55
     79.4034	   90.00	   99.99	 -363.49	   59.52
     79.4535	   92.00	   99.15	 -360.65	   59.49
     79.5036	   89.00	   98.68	 -363.18	   59.46
     79.5538	   87.00	   98.04	 -364.54	   59.43
     79.6039	   98.00	   97.26	 -352.76	   59.40
     79.6540	  107.00	   96.08	 -342.58	   59.37
     79.7042	   78.00	   95.11	 -370.61	   59.34
     79.7543	   78.00	   94.08	 -369.58	   59.31
     79.8044	   78.00	   93.04	 -368.54	   59.28
     79.8546	   69.00	   91.99	 -376.49	   59.25
     79.9047	   95.00	   90.96	 -349.46	   59.22
     79.9548	   72.00	   89.97	 -371.47	   59.19
     80.0050	   89.00	   89.03	 -353.53	   59.16
     80.0551	   71.00	   88.14	 -370.64	   59.13
     80.1052	   96.00	   87.30	 -344.80	   59.10
     80.1554	   86.00	   86.52	 -354.02	   59.07
     80.2055	   83.00	   85.75	 -356.25	   58.99
     80.2556	   63.00	   85.03	 -375.53	   58.91
     80.3058	   88.00	   84.37	 -349.87	   58.84
     80.3559	   74.00	   83.75	 -363.25	   58.76
     80.4061	   81.00	   83.18	 -355.68	   58.68
     80.4562	   81.00	   82.66	 -355.16	   58.60
     80.5063	   88.00	   82.17	 -347.67	   58.52
     80.5565	   73.00	   81.72	 -362.22	   58.44
     80.6066	   75.00	   81.30	 -359.80	   58.37
     80.6567	   78.00	   80.91	 -356.41	   58.29
     80.7068	   82.00	   80.55	 -352.05	   58.21
     80.7570	   85.00	   80.22	 -348.72	   58.13
     80.8071	   87.00	   79.91	 -346.41	   58.05
     80.8573	   60.00	   79.62	 -373.12	   57.97
     80.9074	   74.00	   79.35	 -358.85	   57.90
     80.9575	   79.00	   79.10	 -353.60	   57.82
     81.0077	   69.00	   78.87	 -363.37	   57.74
     81.0578	   59.00	   78.66	 -373.16	   57.66
     81.1079	   52.00	   78.46	 -379.96	   57.58
     81.1581	   78.00	   78.28	 -353.78	   57.50
     81.2082	   78.00	   78.11	 -353.61	   57.43
     81.2583	   64.00	   77.95	 -367.45	   57.35
     81.3085	   80.00	   77.81	 -351.31	   57.27
     81.3586	   84.00	   77.68	 -347.18	   57.19
     81.4087	   69.00	   77.56	 -362.06	   57.11
     81.4589	   75.00	   77.46	 -355.96	   57.03
     81.5090	   85.00	   77.37	 -345.87	   56.96
     81.5591	   83.00	   77.29	 -347.79	   56.88
     81.6093	   82.00	   77.22	 -348.72	   56.80
     81.6594	   82.00	   77.17	 -348.67	   56.72
     81.7095	   78.00	   77.12	 -352.62	   56.64
     81.7597	   78.00	   77.09	 -352.59	   56.56
     81.8098	   72.00	   77.06	 -358.56	   56.49
     81.8599	   65.00	   77.05	 -365.55	   56.41
     81.9101	  102.00	   77.41	 -328.91	   56.33
     81.9602	   79.00	   77.41	 -351.91	   56.25
     82.0103	   72.00	   77.40	 -358.90	   56.17
     82.0605	   80.00	   77.40	 -350.90	   56.09
     82.1106	   74.00	   77.38	 -356.88	   56.02
     82.1607	   62.00	   77.54	 -369.04	   55.94
     82.2109	   63.00	   77.49	 -367.99	   55.86
     82.2610	  102.00	   77.43	 -328.93	   55.78
     82.3111	   82.00	   77.35	 -348.85	   55.70
     82.3613	   81.00	   77.24	 -349.74	   55.62
     82.4114	   78.00	   77.12	 -352.62	   55.55
     82.4615	   85.00	   76.97	 -345.47	   55.47
     82.5117	   80.00	   76.80	 -350.30	   55.39
     82.5618	   63.00	   76.62	 -367.12	   55.31
     82.6119	   68.00	   76.43	 -361.93	   55.23
     82.6621	   74.00	   76.23	 -355.73	   55.15
     82.7122	   69.00	   76.02	 -360.52	   55.08
     82.7623	   63.00	   75.81	 -366.31	   55.00
     82.8125	   86.00	   75.60	 -343.10	   54.92
     82.8626	   74.00	   75.39	 -354.89	   54.84
     82.9127	   74.00	   75.19	 -354.69	   54.76
     82.9629	   64.00	   75.00	 -364.50	   54.69
     83.0130	   68.00	   74.81	 -360.31	   54.61
     83.0631	   66.00	   74.63	 -362.13	   54.53
     83.1133	   75.00	   74.46	 -352.96	   54.45
     83.1634	   84.00	   74.30	 -343.80	   54.37
     83.2135	   84.00	   74.14	 -343.64	   54.29
     83.2637	   78.00	   74.00	 -349.50	   54.22
     83.3138	   73.00	   73.86	 -354.36	   54.14
     83.3639	   67.00	   73.72	 -360.22	   54.06
     83.4141	   83.00	   73.60	 -344.10	   53.98
     83.4642	   86.00	   73.48	 -340.98	   53.90
     83.5143	   83.00	   72.97	 -343.47	   53.82
     83.5645	   69.00	   72.87	 -357.37	   53.75
     83.6146	   77.00	   72.78	 -349.28	   53.67
     83.6647	   71.00	   72.69	 -355.19	   53.59
     83.7149	   59.00	   72.60	 -367.10	   53.51
     83.7650	   78.00	   72.33	 -347.83	   53.43
     83.8152	   75.00	   72.25	 -350.75	   53.35
     83.8653	   79.00	   72.18	 -346.68	   53.28
     83.9154	   78.00	   72.12	 -347.62	   53.20
     83.9655	   84.00	   72.12	 -341.62	   53.18
     84.0157	   81.00	   72.14	 -344.64	   53.18
     84.0658	   68.00	   72.16	 -357.66	   53.18
     84.1160	   77.00	   72.19	 -348.69	   53.18
     84.1661	   75.00	   72.22	 -350.72	   53.18
     84.2162	   84.00	   72.25	 -341.75	   53.18
     84.2664	   74.00	   72.29	 -351.79	   53.18
     84.3165	   84.00	   72.33	 -341.83	   53.18
     84.3666	   81.00	   72.37	 -344.87	   53.18
     84.4167	   94.00	   72.42	 -331.92	   53.18
     84.4669	  103.00	   72.47	 -322.97	   53.18
     84.5170	   81.00	   72.53	 -345.03	   53.18
     84.5672	   89.00	   72.59	 -337.09	   53.18
     84.6173	   82.00	   72.66	 -344.16	   53.18
     84.6674	   67.00	   72.73	 -359.23	   53.18
     84.7176	   86.00	   74.34	 -341.84	   53.18
     84.7677	   81.00	   74.45	 -346.95	   53.18
     84.8178	   63.00	   74.56	 -365.06	   53.18
     84.8680	   86.00	   74.68	 -342.18	   53.18
     84.9181	   68.00	   74.81	 -360.31	   53.18
     84.9682	   95.00	   75.70	 -334.20	   53.18
     85.0184	   83.00	   75.86	 -346.36	   53.18
     85.0685	   94.00	   76.03	 -335.53	   53.18
     85.1186	   64.00	   76.20	 -365.70	   53.18
     85.1688	   77.00	   76.39	 -352.89	   53.18
     85.2189	   77.00	   76.59	 -353.09	   53.18
     85.2690	   72.00	   76.80	 -358.30	   53.18
     85.3192	   89.00	   77.02	 -341.52	   53.18
     85.3693	   75.00	   77.25	 -355.75	   53.18
     85.4194	   87.00	   77.50	 -344.00	   53.18
     85.4696	   70.00	   77.77	 -361.27	   53.18
     85.5197	   74.00	   78.05	 -357.55	   53.18
     85.5698	   90.00	   78.35	 -341.85	   53.18
     85.6200	   68.00	   78.67	 -364.17	   53.18
     85.6701	   71.00	   79.01	 -361.51	   53.18
     85.7202	   79.00	   79.38	 -353.88	   53.18
     85.7704	   67.00	   79.77	 -366.27	   53.18
     85.8205	   57.00	   80.19	 -376.69	   53.18
     85.8706	  116.00	   80.64	 -318.14	   53.18
     85.9208	   87.00	   81.12	 -347.62	   53.18
     85.9709	   79.00	   81.64	 -356.14	   53.18
     86.0210	   88.00	   82.20	 -347.70	   53.18
     86.0712	   94.00	   82.82	 -342.32	   53.20
     86.1213	   71.00	   83.53	 -366.03	   53.26
     86.1714	   89.00	   84.28	 -348.78	   53.32
     86.2216	   68.00	   85.08	 -370.58	   53.38
     86.2717	   75.00	   85.94	 -364.44	   53.43
     86.3218	  104.00	   86.87	 -336.37	   53.49
     86.3720	   99.00	   87.85	 -342.35	   53.55
     86.4221	  103.00	   88.90	 -339.40	   53.61
     86.4722	   87.00	   90.02	 -356.52	   53.66
     86.5224	   90.00	   91.15	 -354.65	   53.72
     86.5725	   72.00	   92.40	 -373.90	   53.78
     86.6226	  107.00	   93.72	 -340.22	   53.84
     86.6728	   90.00	   95.08	 -358.58	   53.90
     86.7229	   82.00	   96.48	 -367.98	   53.95
     86.7730	   83.00	   97.89	 -368.39	   54.01
     86.8232	   92.00	   99.32	 -360.82	   54.07
     86.8733	  110.00	  100.72	 -344.22	   54.13
     86.9234	  114.00	  102.08	 -341.58	   54.18
     86.9736	  130.00	  103.34	 -326.84	   54.24
     87.0237	   98.00	  104.49	 -359.99	   54.30
     87.0739	  103.00	  105.48	 -355.98	   54.36
     87.1240	  116.00	  106.29	 -343.79	   54.41
     87.1741	  115.00	  106.90	 -345.40	   54.47
     87.2242	  110.00	  107.31	 -350.81	   54.53
     87.2744	  115.00	  107.49	 -345.99	   54.59
     87.3245	  127.00	  107.47	 -333.97	   54.64
     87.3746	  111.00	  107.27	 -349.77	   54.70
     87.4248	  135.00	  106.89	 -325.39	   54.76
     87.4749	  130.00	  106.37	 -329.87	   54.82
     87.5251	   94.00	  105.75	 -365.25	   54.87
     87.5752	  123.00	  105.05	 -335.55	   54.93
     87.6253	  110.00	  104.30	 -347.80	   54.99
     87.6754	  110.00	  103.54	 -347.04	   55.05
     87.7256	  102.00	  102.79	 -354.29	   55.10
     87.7757	  101.00	  102.07	 -354.57	   55.16
     87.8259	  121.00	  101.40	 -333.90	   55.22
     87.8760	  101.00	  100.80	 -353.30	   55.28
     87.9261	  111.00	  100.28	 -342.78	   55.34
     87.9763	  117.00	   99.84	 -336.34	   55.39
     88.0264	  103.00	   99.49	 -349.99	   55.45
     88.0765	  116.00	   99.24	 -336.74	   55.51
     88.1266	  115.00	   99.08	 -337.58	   55.57
     88.1768	   89.00	   99.02	 -363.52	   55.62
     88.2269	  104.00	   99.06	 -348.56	   55.68
     88.2771	  100.00	   99.20	 -352.70	   55.74
     88.3272	   85.00	   99.44	 -367.94	   55.80
     88.3773	   83.00	   99.78	 -370.28	   55.85
     88.4275	   97.00	  100.22	 -356.72	   55.91
     88.4776	   94.00	  100.76	 -360.26	   55.97
     88.5277	   99.00	  101.42	 -355.92	   56.03
     88.5779	  107.00	  102.18	 -348.68	   56.08
     88.6280	   92.00	  103.06	 -364.56	   56.14
     88.6781	   97.00	  104.06	 -360.56	   56.20
     88.7283	  124.00	  105.18	 -334.68	   56.26
     88.7784	   80.00	  106.44	 -379.94	   56.31
     88.8285	  101.00	  107.83	 -360.33	   56.37
     88.8787	   87.00	  109.38	 -375.88	   56.43
     88.9288	   94.00	  111.08	 -370.58	   56.49
     88.9789	  123.00	  112.94	 -343.44	   56.54
     89.0291	  105.00	  114.99	 -363.49	   56.60
     89.0792	  100.00	  117.23	 -370.73	   56.66
     89.1293	  117.00	  119.66	 -356.16	   56.72
     89.1795	  113.00	  122.31	 -362.81	   56.78
     89.2296	  118.00	  125.19	 -360.69	   56.83
     89.2797	  115.00	  128.29	 -366.79	   56.89
     89.3299	  125.00	  131.64	 -360.14	   56.95
     89.3800	   98.00	  135.76	 -391.26	   57.01
     89.4301	  147.00	  139.59	 -346.09	   57.06
     89.4803	  140.00	  143.63	 -357.13	   57.10
     89.5304	  134.00	  147.81	 -367.31	   57.06
     89.5805	  133.00	  152.16	 -372.66	   57.02
     89.6307	  147.00	  156.92	 -363.42	   56.98
     89.6808	  135.00	  161.48	 -379.98	   56.94
     89.7309	  138.00	  166.03	 -381.53	   56.91
     89.7811	  134.00	  170.48	 -389.98	   56.87
     89.8312	  155.00	  174.71	 -373.21	   56.83
     89.8813	  177.00	  178.61	 -355.11	   56.79
     89.9315	  156.00	  182.05	 -379.55	   56.75
     89.9816	  159.00	  184.91	 -379.41	   56.72
     90.0317	  164.00	  187.10	 -376.60	   56.68
     90.0819	  170.00	  188.52	 -372.02	   56.64
     90.1320	  178.00	  189.13	 -364.63	   56.60
     90.1821	  177.00	  188.90	 -365.40	   56.56
     90.2323	  199.00	  187.86	 -342.36	   56.53
     90.2824	  179.00	  186.05	 -360.55	   56.49
     90.3326	  181.00	  183.52	 -356.02	   56.45
     90.3827	  163.00	  180.39	 -370.89	   56.41
     90.4328	  145.00	  176.74	 -385.24	   56.37
     90.4829	  141.00	  172.69	 -385.19	   56.34
     90.5331	  169.00	  168.34	 -352.84	   56.30
     90.5832	  163.00	  163.81	 -354.31	   56.26
     90.6333	  150.00	  159.18	 -362.68	   56.22
     90.6835	  148.00	  154.55	 -360.05	   56.19
     90.7336	  134.00	  149.99	 -369.49	   56.15
     90.7838	  146.00	  145.55	 -353.05	   56.11
     90.8339	  129.00	  141.27	 -365.77	   56.07
     90.8840	  124.00	  137.19	 -366.69	   56.03
     90.9341	  125.00	  133.32	 -361.82	   56.00
     90.9843	  140.00	  129.68	 -343.18	   55.96
     91.0344	  109.00	  126.26	 -370.76	   55.92
     91.0845	  109.00	  123.07	 -367.57	   55.88
     91.1347	  110.00	  120.10	 -363.60	   55.84
     91.1848	  123.00	  117.33	 -347.83	   55.81
     91.2350	   89.00	  114.77	 -379.27	   55.77
     91.2851	   98.00	  112.40	 -367.90	   55.73
     91.3352	   83.00	  110.19	 -380.69	   55.69
     91.3853	  114.00	  108.16	 -347.66	   55.65
     91.4355	   96.00	  106.27	 -363.77	   55.62
     91.4856	  105.00	  103.98	 -352.48	   55.58
     91.5358	  112.00	  102.38	 -343.88	   55.54
     91.5859	   90.00	  100.90	 -364.40	   55.50
     91.6360	  108.00	   99.53	 -345.03	   55.46
     91.6862	   92.00	   98.25	 -359.75	   55.43
     91.7363	  104.00	   97.08	 -346.58	   55.39
     91.7864	   86.00	   95.71	 -363.21	   55.35
     91.8366	   95.00	   94.71	 -353.21	   55.31
     91.8867	   94.00	   93.77	 -353.27	   55.27
     91.9368	   95.00	   92.91	 -351.41	   55.24
     91.9870	   79.00	   92.10	 -366.60	   55.20
     92.0371	   96.00	   91.36	 -348.86	   55.16
     92.0872	  101.00	   90.67	 -343.17	   55.12
     92.1374	  109.00	   90.04	 -334.54	   55.07
     92.1875	  107.00	   89.44	 -335.94	   55.03
     92.2376	   94.00	   88.88	 -348.38	   54.99
     92.2878	   82.00	   88.37	 -359.87	   54.94
     92.3379	  108.00	   87.89	 -333.39	   54.90
     92.3880	   99.00	   87.45	 -341.95	   54.86
     92.4382	  100.00	   87.06	 -340.56	   54.81
     92.4883	  104.00	   86.69	 -336.19	   54.77
     92.5384	   83.00	   86.35	 -356.85	   54.72
     92.5886	  100.00	   86.04	 -339.54	   54.68
     92.6387	   98.00	   85.77	 -341.27	   54.64
     92.6888	   87.00	   85.52	 -352.02	   54.59
     92.7390	   96.00	   85.29	 -342.79	   54.55
     92.7891	   97.00	   85.10	 -341.60	   54.50
     92.8392	   99.00	   84.93	 -339.43	   54.46
     92.8894	   88.00	   84.79	 -350.29	   54.42
     92.9395	   97.00	   84.68	 -341.18	   54.37
     92.9896	  102.00	   84.59	 -336.09	   54.33
     93.0398	   96.00	   84.52	 -342.02	   54.28
     93.0899	   94.00	   84.49	 -343.99	   54.24
     93.1400	   97.00	   84.48	 -340.98	   54.20
     93.1902	   99.00	   84.50	 -339.00	   54.15
     93.2403	   97.00	   84.55	 -341.05	   54.11
     93.2904	  105.00	   84.63	 -333.13	   54.06
     93.3406	   86.00	   84.74	 -352.24	   54.02
     93.3907	  115.00	   84.89	 -323.39	   53.98
     93.4408	   87.00	   85.07	 -351.57	   53.93
     93.4910	   89.00	   85.28	 -349.78	   53.89
     93.5411	   92.00	   85.53	 -347.03	   53.84
     93.5912	   85.00	   85.82	 -354.32	   53.80
     93.6414	   92.00	   86.16	 -347.66	   53.76
     93.6915	   96.00	   86.54	 -344.04	   53.71
     93.7416	   90.00	   86.97	 -350.47	   53.67
     93.7918	   94.00	   87.45	 -346.95	   53.62
     93.8419	  101.00	   87.98	 -340.48	   53.58
     93.8920	   92.00	   88.58	 -350.08	   53.54
     93.9422	   96.00	   89.23	 -346.73	   53.49
     93.9923	  100.00	   89.95	 -343.45	   53.45
     94.0424	  109.00	   90.74	 -335.24	   53.40
     94.0926	   94.00	   91.59	 -351.09	   53.36
     94.1427	   87.00	   92.52	 -359.02	   53.32
     94.1928	   95.00	   93.53	 -352.03	   53.27
     94.2430	  102.00	   94.60	 -346.10	   53.23
     94.2931	   94.00	   95.75	 -355.25	   53.18
     94.3432	  108.00	   96.99	 -342.49	   53.16
     94.3934	  115.00	   98.30	 -336.80	   53.14
     94.4435	  112.00	   99.65	 -341.15	   53.12
     94.4937	  128.00	   98.82	 -324.32	   53.11
     94.5438	  107.00	  100.27	 -346.77	   53.09
     94.5939	  101.00	  101.71	 -354.21	   53.07
     94.6440	   99.00	  103.12	 -357.62	   53.05
     94.6942	  111.00	  104.45	 -346.95	   53.03
     94.7443	  111.00	  105.68	 -348.18	   53.01
     94.7944	  116.00	  105.67	 -343.17	   52.99
     94.8446	  104.00	  106.61	 -356.11	   52.97
     94.8947	  114.00	  107.34	 -346.84	   52.95
     94.9449	  116.00	  107.85	 -345.35	   52.93
     94.9950	  116.00	  108.11	 -345.61	   52.92
     95.0451	  119.00	  108.13	 -342.63	   52.90
     95.0953	   98.00	  107.90	 -363.40	   52.88
     95.1454	  105.00	  107.42	 -355.92	   52.86
     95.1955	  117.00	  106.73	 -343.23	   52.84
     95.2457	  117.00	  105.83	 -342.33	   52.82
     95.2958	  109.00	  104.76	 -349.26	   52.80
     95.3459	  109.00	  103.56	 -348.06	   52.78
     95.3961	  113.00	  102.23	 -342.73	   52.76
     95.4462	  104.00	  100.83	 -350.33	   52.74
     95.4963	   90.00	   99.38	 -362.88	   52.73
     95.5465	  105.00	   97.91	 -346.41	   52.71
     95.5966	  116.00	   96.43	 -333.93	   52.69
     95.6467	  104.00	   94.98	 -344.48	   52.67
     95.6969	  116.00	   93.56	 -331.06	   52.65
     95.7470	   87.00	   92.18	 -358.68	   52.63
     95.7971	   80.00	   90.87	 -364.37	   52.61
     95.8473	   92.00	   89.62	 -351.12	   52.59
     95.8974	  102.00	   88.43	 -339.93	   52.57
     95.9475	  114.00	   87.32	 -326.82	   52.55
     95.9977	   93.00	   86.27	 -346.77	   52.54
     96.0478	   82.00	   85.29	 -356.79	   52.52
     96.0979	   96.00	   84.37	 -341.87	   52.50
     96.1481	   85.00	   83.51	 -352.01	   52.48
     96.1982	   98.00	   82.72	 -338.22	   52.46
     96.2483	  101.00	   81.98	 -334.48	   52.44
     96.2985	   80.00	   81.29	 -354.79	   52.42
     96.3486	   81.00	   80.64	 -353.14	   52.40
     96.3987	   81.00	   80.05	 -352.55	   52.38
     96.4489	   77.00	   79.49	 -355.99	   52.37
     96.4990	   75.00	   78.98	 -357.48	   52.35
     96.5491	   97.00	   78.50	 -335.00	   52.33
     96.5993	  113.00	   78.05	 -318.55	   52.31
     96.6494	   80.00	   77.64	 -351.14	   52.29
     96.6995	   80.00	   77.26	 -350.76	   52.27
     96.7497	   84.00	   76.90	 -346.40	   52.25
     96.7998	   89.00	   76.56	 -341.06	   52.23
     96.8499	   78.00	   76.45	 -351.95	   52.21
     96.9001	   78.00	   76.16	 -351.66	   52.19
     96.9502	   68.00	   75.90	 -361.40	   52.18
     97.0003	   77.00	   75.65	 -352.15	   52.16
     97.0505	   71.00	   75.43	 -357.93	   52.14
     97.1006	   82.00	   75.22	 -346.72	   52.12
     97.1507	   84.00	   75.12	 -344.62	   52.10
     97.2009	   65.00	   74.94	 -363.44	   52.08
     97.2510	   84.00	   74.77	 -344.27	   52.06
     97.3011	   69.00	   74.62	 -359.12	   52.04
     97.3513	   85.00	   74.48	 -342.98	   52.02
     97.4014	   79.00	   74.35	 -348.85	   52.00
     97.4515	   71.00	   74.23	 -356.73	   51.99
     97.5017	   79.00	   74.12	 -348.62	   51.97
     97.5518	   75.00	   74.01	 -352.51	   51.95
     97.6019	   73.00	   73.91	 -354.41	   51.93
     97.6521	   80.00	   73.82	 -347.32	   51.91
     97.7022	   80.00	   73.72	 -347.22	   51.89
     97.7523	   74.00	   73.63	 -353.13	   51.87
     97.8025	   85.00	   73.54	 -342.04	   51.85
     97.8526	   74.00	   73.45	 -352.95	   51.83
     97.9027	   93.00	   73.35	 -333.85	   51.81
     97.9529	   75.00	   73.26	 -351.76	   51.80
     98.0030	   77.00	   73.16	 -349.66	   51.78
     98.0531	   82.00	   73.05	 -344.55	   51.76
     98.1033	   63.00	   72.95	 -363.45	   51.74
     98.1534	   72.00	   72.84	 -354.34	   51.72
     98.2036	   74.00	   72.73	 -352.23	   51.70
     98.2537	   75.00	   72.62	 -351.12	   51.68
     98.3038	   89.00	   72.51	 -337.01	   51.66
     98.3540	   89.00	   72.39	 -336.89	   51.64
     98.4041	   66.00	   72.28	 -359.78	   51.62
     98.4542	   87.00	   72.17	 -338.67	   51.61
     98.5043	   82.00	   72.06	 -343.56	   51.59
     98.5545	   77.00	   71.96	 -348.46	   51.57
     98.6046	   87.00	   71.85	 -338.35	   51.55
     98.6548	   62.00	   71.76	 -363.26	   51.53
     98.7049	   84.00	   71.66	 -341.16	   51.51
     98.7550	   79.00	   71.57	 -346.07	   51.49
     98.8052	   82.00	   71.48	 -342.98	   51.47
     98.8553	   73.00	   71.40	 -351.90	   51.45
     98.9054	   75.00	   71.32	 -349.82	   51.43
     98.9556	   85.00	   71.24	 -339.74	   51.42
     99.0057	   75.00	   71.17	 -349.67	   51.40
     99.0558	   65.00	   71.10	 -359.60	   51.38
     99.1060	   87.00	   71.04	 -337.54	   51.36
     99.1561	   71.00	   70.97	 -353.47	   51.34
     99.2062	   77.00	   70.92	 -347.42	   51.32
     99.2564	   67.00	   70.86	 -357.36	   51.30
     99.3065	   88.00	   70.81	 -336.31	   51.28
     99.3566	   86.00	   70.76	 -338.26	   51.26
     99.4068	   86.00	   70.72	 -338.22	   51.25
     99.4569	   73.00	   70.68	 -351.18	   51.23
     99.5070	   68.00	   69.86	 -355.36	   51.22
     99.5572	   79.00	   69.86	 -344.36	   51.22
     99.6073	   82.00	   69.87	 -341.37	   51.22
     99.6574	   90.00	   70.69	 -334.19	   51.22
     99.7076	   58.00	   70.70	 -366.20	   51.22
     99.7577	   80.00	   70.73	 -344.23	   51.22
     99.8078	   70.00	   70.36	 -353.86	   51.22
     99.8580	   81.00	   70.39	 -342.89	   51.22
     99.9081	   86.00	   70.43	 -337.93	   51.22
     99.9582	   95.00	   71.41	 -329.91	   51.22
     18.3223	        	        	        	        	       0	(  1  1  1)	  0  1 :  1
     18.3679	        	        	        	        	       0	(  1  1  1)	  0  2 :  1
     30.1683	        	        	        	        	       0	(  2  2  0)	  0  1 :  1
     30.2444	        	        	        	        	       0	(  2  2  0)	  0  2 :  1
     35.5433	        	        	        	        	       0	(  1  1  3)	  0  1 :  1
     35.6338	        	        	        	        	       0	(  1  1  3)	  0  2 :  1
     37.1825	        	        	        	        	       0	(  2  2  2)	  0  1 :  1
     37.2775	        	        	        	        	       0	(  2  2  2)	  0  2 :  1
     43.2093	        	        	        	        	       0	(  0  4  0)	  0  1 :  1
     43.3211	        	        	        	        	       0	(  0  4  0)	  0  2 :  1
     47.3158	        	        	        	        	       0	(  3  1  3)	  0  1 :  1
     47.4395	        	        	        	        	       0	(  3  1  3)	  0  2 :  1
     53.6219	        	        	        	        	       0	(  2  4  2)	  0  1 :  1
     53.7646	        	        	        	        	       0	(  2  4  2)	  0  2 :  1
     57.1667	        	        	        	        	       0	(  1  1  5)	  0  1 :  1
     57.1667	        	        	        	        	       0	(  3  3  3)	  0  1 :  1
     57.3205	        	        	        	        	       0	(  1  1  5)	  0  2 :  1
     57.3205	        	        	        	        	       0	(  3  3  3)	  0  2 :  1
     62.7849	        	        	        	        	       0	(  0  4  4)	  0  1 :  1
     62.9571	        	        	        	        	       0	(  0  4  4)	  0  2 :  1
     66.0205	        	        	        	        	       0	(  5  3  1)	  0  1 :  1
     66.2039	        	        	        	        	       0	(  5  3  1)	  0  2 :  1
     67.0807	        	        	        	        	       0	(  4  2  4)	  0  1 :  1
     67.2678	        	        	        	        	       0	(  4  2  4)	  0  2 :  1
     71.2444	        	        	        	        	       0	(  2  0  6)	  0  1 :  1
     71.4467	        	        	        	        	       0	(  2  0  6)	  0  2 :  1
     74.2999	        	        	        	        	       0	(  3  5  3)	  0  1 :  1
     74.5138	        	        	        	        	       0	(  3  5  3)	  0  2 :  1
     75.3079	        	        	        	        	       0	(  2  2  6)	  0  1 :  1
     75.5257	        	        	        	        	       0	(  2  2  6)	  0  2 :  1
     79.2972	        	        	        	        	       0	(  4  4  4)	  0  1 :  1
     79.5312	        	        	        	        	       0	(  4  4  4)	  0  2 :  1
     82.2542	        	        	        	        	       0	(  5  5  1)	  0  1 :  1
     82.2542	        	        	        	        	       0	(  7  1  1)	  0  1 :  1
     82.5008	        	        	        	        	       0	(  5  5  1)	  0  2 :  1
     82.5008	        	        	        	        	       0	(  7  1  1)	  0  2 :  1
     87.1408	        	        	        	        	       0	(  6  4  2)	  0  1 :  1
     87.4095	        	        	        	        	       0	(  6  4  2)	  0  2 :  1
     90.0607	        	        	        	        	       0	(  3  5  5)	  0  1 :  1
     90.0607	        	        	        	        	       0	(  3  7  1)	  0  1 :  1
     90.3435	        	        	        	        	       0	(  3  5  5)	  0  2 :  1
     90.3435	        	        	        	        	       0	(  3  7  1)	  0  2 :  1
     94.9314	        	        	        	        	       0	(  0  8  0)	  0  1 :  1
     95.2394	        	        	        	        	       0	(  0  8  0)	  0  2 :  1
     97.8690	        	        	        	        	       0	(  7  3  3)	  0  1 :  1
     98.1933	        	        	        	        	       0	(  7  3  3)	  0  2 :  1
     98.8525	        	        	        	        	       0	(  6  4  4)	  0  1 :  1
     99.1825	        	        	        	        	       0	(  6  4  4)	  0  2 :  1
    102.8160	        	        	        	        	       0	(  2  8  2)	  0  1 :  1
    102.8160	        	        	        	        	       0	(  6  0  6)	  0  1 :  1
    103.1702	        	        	        	        	       0	(  2  8  2)	  0  2 :  1
    103.1702	        	        	        	        	       0	(  6  0  6)	  0  2 :  1
    105.8291	        	        	        	        	       0	(  7  5  1)	  0  1 :  1
    105.8291	        	        	        	        	       0	(  5  5  5)	  0  1 :  1
    106.2032	        	        	        	        	       0	(  7  5  1)	  0  2 :  1
    106.2032	        	        	        	        	       0	(  5  5  5)	  0  2 :  1
    106.8431	        	        	        	        	       0	(  6  6  2)	  0  1 :  1
    107.2242	        	        	        	        	       0	(  6  6  2)	  0  2 :  1
    110.9582	        	        	        	        	       0	(  0  4  8)	  0  1 :  1
    111.3695	        	        	        	        	       0	(  0  4  8)	  0  2 :  1
    114.1194	        	        	        	        	       0	(  1  9  1)	  0  1 :  1
    114.1194	        	        	        	        	       0	(  5  3  7)	  0  1 :  1
    114.5561	        	        	        	        	       0	(  1  9  1)	  0  2 :  1
    114.5561	        	        	        	        	       0	(  5  3  7)	  0  2 :  1
    115.1902	        	        	        	        	       0	(  8  4  2)	  0  1 :  1
    115.6360	        	        	        	        	       0	(  8  4  2)	  0  2 :  1
    119.5751	        	        	        	        	       0	(  6  6  4)	  0  1 :  1
    120.0613	        	        	        	        	       0	(  6  6  4)	  0  2 :  1
    122.9918	        	        	        	        	       0	(  1  9  3)	  0  1 :  1
    123.5135	        	        	        	        	       0	(  1  9  3)	  0  2 :  1
