 Fe3O4   Chi2:  1.9325  CELL:    8.39510   8.39510   8.39510   90.0000   90.0000   90.0000   SPGR: 227:1                  TEMP:      0.00
  1   3142     1.54060     1.54439     0.00000     0.04192     0.00000    0
    82     0     1
       0.00000      15.00000
 2Theta	Yobs	Ycal	Yobs-Ycal	Backg	Posr	(hkl)	K
     15.0031	  60.000	  56.789	-246.039	  55.405
     15.0365	  52.000	  56.789	-254.039	  55.405
     15.0700	  56.000	  56.841	-250.091	  55.405
     15.1034	  57.000	  56.867	-249.117	  55.405
     15.1368	  61.000	  56.869	-245.119	  55.405
     15.1702	  65.000	  56.871	-241.121	  55.405
     15.2036	  62.000	  56.872	-244.122	  55.405
     15.2371	  50.000	  56.874	-256.124	  55.405
     15.2705	  52.000	  56.876	-254.126	  55.405
     15.3039	  62.000	  56.878	-244.128	  55.405
     15.3373	  60.000	  56.880	-246.130	  55.405
     15.3708	  62.000	  56.882	-244.132	  55.405
     15.4042	  51.000	  56.884	-255.134	  55.405
     15.4376	  63.000	  56.886	-243.136	  55.405
     15.4710	  65.000	  56.889	-241.139	  55.405
     15.5044	  58.000	  56.891	-248.141	  55.405
     15.5379	  55.000	  56.893	-251.143	  55.405
     15.5713	  73.000	  56.896	-233.146	  55.405
     15.6047	  48.000	  56.898	-258.148	  55.405
     15.6381	  45.000	  56.901	-261.151	  55.405
     15.6716	  60.000	  56.904	-246.154	  55.405
     15.7050	  68.000	  56.907	-238.157	  55.405
     15.7384	  58.000	  56.910	-248.160	  55.405
     15.7718	  56.000	  56.913	-250.163	  55.405
     15.8053	  52.000	  56.916	-254.166	  55.405
     15.8387	  63.000	  56.832	-243.082	  55.317
     15.8721	  69.000	  56.575	-236.825	  55.056
     15.9055	  65.000	  56.317	-240.567	  54.795
     15.9389	  51.000	  56.060	-254.310	  54.534
     15.9724	  75.000	  55.803	-230.053	  54.273
     16.0058	  45.000	  55.546	-259.796	  54.012
     16.0392	  62.000	  55.290	-242.540	  53.751
     16.0726	  56.000	  55.033	-248.283	  53.490
     16.1061	  58.000	  54.777	-246.027	  53.229
     16.1395	  52.000	  54.521	-251.771	  52.968
     16.1729	  56.000	  54.265	-247.515	  52.707
     16.2063	  61.000	  54.010	-242.260	  52.446
     16.2397	  49.000	  53.754	-254.004	  52.185
     16.2732	  53.000	  53.499	-249.749	  51.924
     16.3066	  62.000	  53.245	-240.495	  51.663
     16.3400	  48.000	  52.990	-254.240	  51.402
     16.3734	  64.000	  52.736	-237.986	  51.141
     16.4069	  51.000	  52.482	-250.732	  50.880
     16.4403	  44.000	  52.229	-257.479	  50.619
     16.4737	  49.000	  51.976	-252.226	  50.358
     16.5071	  61.000	  51.724	-239.974	  50.097
     16.5405	  45.000	  51.472	-255.722	  49.836
     16.5740	  49.000	  51.220	-251.470	  49.575
     16.6074	  53.000	  50.969	-247.219	  49.314
     16.6408	  45.000	  50.719	-254.969	  49.053
     16.6742	  60.000	  50.469	-239.719	  48.792
     16.7077	  53.000	  50.220	-246.470	  48.531
     16.7411	  70.000	  49.972	-229.222	  48.270
     16.7745	  52.000	  49.725	-246.975	  48.009
     16.8079	  50.000	  49.478	-248.728	  47.748
     16.8414	  51.000	  49.233	-247.483	  47.487
     16.8748	  41.000	  48.988	-257.238	  47.226
     16.9082	  34.000	  48.745	-263.995	  46.965
     16.9416	  66.000	  48.503	-231.753	  46.704
     16.9750	  58.000	  48.262	-239.512	  46.443
     17.0085	  56.000	  48.023	-241.273	  46.182
     17.0419	  50.000	  47.786	-247.036	  45.921
     17.0753	  55.000	  47.550	-241.800	  45.660
     17.1087	  54.000	  47.317	-242.567	  45.399
     17.1422	  42.000	  47.085	-254.335	  45.138
     17.1756	  53.000	  46.857	-243.107	  44.877
     17.2090	  50.000	  46.631	-245.881	  44.616
     17.2424	  56.000	  46.409	-239.659	  44.355
     17.2758	  39.000	  46.190	-256.440	  44.094
     17.3093	  46.000	  45.975	-249.225	  43.833
     17.3427	  48.000	  45.765	-247.015	  43.572
     17.3761	  62.000	  45.560	-232.810	  43.311
     17.4095	  45.000	  45.361	-249.611	  43.050
     17.4430	  53.000	  45.169	-241.419	  42.789
     17.4764	  58.000	  44.985	-236.235	  42.528
     17.5098	  33.000	  44.811	-261.061	  42.267
     17.5432	  52.000	  44.647	-241.897	  42.006
     17.5766	  52.000	  44.496	-241.746	  41.745
     17.6101	  41.000	  44.360	-252.610	  41.484
     17.6435	  42.000	  44.242	-251.492	  41.223
     17.6769	  57.000	  44.145	-236.395	  40.962
     17.7103	  49.000	  44.074	-244.324	  40.701
     17.7438	  54.000	  44.035	-239.285	  40.440
     17.7772	  41.000	  44.034	-252.284	  40.179
     17.8106	  44.000	  44.096	-249.346	  39.932
     17.8440	  52.000	  44.368	-241.618	  39.833
     17.8774	  43.000	  44.717	-250.967	  39.735
     17.9109	  36.000	  45.167	-258.417	  39.636
     17.9443	  55.000	  45.750	-240.000	  39.538
     17.9777	  49.000	  46.514	-246.764	  39.439
     18.0111	  40.000	  47.534	-256.784	  39.340
     18.0446	  48.000	  48.939	-250.189	  39.242
     18.0780	  48.000	  50.970	-252.220	  39.143
     18.1114	  49.000	  54.083	-254.333	  39.045
     18.1448	  57.000	  59.077	-251.327	  38.946
     18.1783	  63.000	  67.145	-253.395	  38.847
     18.2117	  56.000	  79.700	-272.950	  38.749
     18.2451	  73.000	  97.742	-273.992	  38.650
     18.2785	  91.000	 120.293	-278.543	  38.552
     18.3119	 119.000	 141.343	-271.593	  38.453
     18.3454	 138.000	 149.882	-261.132	  38.354
     18.3788	  93.000	 140.716	-296.966	  38.256
     18.4122	 100.000	 120.060	-269.310	  38.157
     18.4456	  70.000	  97.683	-276.933	  38.058
     18.4791	  68.000	  79.448	-260.698	  37.960
     18.5125	  65.000	  66.582	-250.832	  37.861
     18.5459	  45.000	  58.191	-262.441	  37.763
     18.5793	  48.000	  52.896	-254.146	  37.664
     18.6127	  43.000	  49.513	-255.763	  37.565
     18.6462	  33.000	  47.241	-263.491	  37.467
     18.6796	  32.000	  45.614	-262.864	  37.368
     18.7130	  32.000	  44.383	-261.633	  37.270
     18.7464	  37.000	  43.412	-255.662	  37.171
     18.7799	  39.000	  42.625	-252.875	  37.072
     18.8133	  39.000	  41.974	-252.224	  36.974
     18.8467	  48.000	  41.424	-242.674	  36.875
     18.8801	  39.000	  40.953	-251.203	  36.777
     18.9135	  34.000	  40.544	-255.794	  36.678
     18.9470	  42.000	  40.183	-247.433	  36.579
     18.9804	  33.000	  39.862	-256.112	  36.481
     19.0138	  36.000	  39.572	-252.822	  36.382
     19.0472	  37.000	  39.308	-251.558	  36.284
     19.0807	  41.000	  39.066	-247.316	  36.185
     19.1141	  39.000	  38.842	-249.092	  36.086
     19.1475	  36.000	  38.633	-251.883	  35.988
     19.1809	  44.000	  38.437	-243.687	  35.889
     19.2144	  43.000	  38.251	-244.501	  35.791
     19.2478	  33.000	  38.075	-254.325	  35.692
     19.2812	  19.000	  37.907	-268.157	  35.593
     19.3146	  38.000	  37.746	-248.996	  35.495
     19.3480	  41.000	  37.591	-245.841	  35.396
     19.3815	  32.000	  37.442	-254.692	  35.298
     19.4149	  54.000	  37.297	-232.547	  35.199
     19.4483	  31.000	  37.156	-255.406	  35.100
     19.4817	  29.000	  37.018	-257.268	  35.002
     19.5152	  32.000	  36.885	-254.135	  34.903
     19.5486	  29.000	  36.753	-257.003	  34.805
     19.5820	  30.000	  36.625	-255.875	  34.706
     19.6154	  41.000	  36.499	-244.749	  34.607
     19.6488	  32.000	  36.375	-253.625	  34.509
     19.6823	  39.000	  36.252	-246.502	  34.410
     19.7157	  43.000	  36.132	-242.382	  34.312
     19.7491	  44.000	  36.013	-241.263	  34.213
     19.7825	  46.000	  35.895	-239.145	  34.114
     19.8160	  44.000	  35.779	-241.029	  34.016
     19.8494	  31.000	  35.664	-253.914	  33.917
     19.8828	  32.000	  35.550	-252.800	  33.819
     19.9162	  38.000	  35.436	-246.686	  33.720
     19.9496	  40.000	  35.324	-244.574	  33.621
     19.9831	  39.000	  35.213	-245.463	  33.523
     20.0165	  44.000	  35.102	-240.352	  33.424
     20.0499	  24.000	  34.992	-260.242	  33.326
     20.0833	  43.000	  34.883	-241.133	  33.227
     20.1168	  28.000	  34.774	-256.024	  33.128
     20.1502	  41.000	  34.666	-242.916	  33.030
     20.1836	  32.000	  34.558	-251.808	  32.931
     20.2170	  38.000	  34.451	-245.701	  32.833
     20.2505	  29.000	  34.344	-254.594	  32.734
     20.2839	  32.000	  34.238	-251.488	  32.635
     20.3173	  33.000	  34.132	-250.382	  32.537
     20.3507	  36.000	  34.027	-247.277	  32.438
     20.3841	  31.000	  33.925	-252.175	  32.343
     20.4176	  43.000	  33.824	-240.074	  32.248
     20.4510	  37.000	  33.723	-245.973	  32.153
     20.4844	  36.000	  33.622	-246.872	  32.058
     20.5178	  33.000	  33.522	-249.772	  31.963
     20.5513	  34.000	  33.422	-248.672	  31.868
     20.5847	  38.000	  33.322	-244.572	  31.773
     20.6181	  46.000	  33.222	-236.472	  31.679
     20.6515	  25.000	  33.123	-257.373	  31.584
     20.6849	  43.000	  33.023	-239.273	  31.489
     20.7184	  33.000	  32.924	-249.174	  31.394
     20.7518	  30.000	  32.825	-252.075	  31.299
     20.7852	  30.000	  32.727	-251.977	  31.204
     20.8186	  32.000	  32.628	-249.878	  31.109
     20.8521	  41.000	  32.529	-240.779	  31.014
     20.8855	  27.000	  32.431	-254.681	  30.919
     20.9189	  41.000	  32.333	-240.583	  30.824
     20.9523	  36.000	  32.235	-245.485	  30.729
     20.9857	  40.000	  32.137	-241.387	  30.635
     21.0192	  29.000	  32.039	-252.289	  30.540
     21.0526	  30.000	  31.941	-251.191	  30.445
     21.0860	  27.000	  31.844	-254.094	  30.350
     21.1194	  46.000	  31.746	-234.996	  30.255
     21.1529	  24.000	  31.649	-256.899	  30.160
     21.1863	  30.000	  31.551	-250.801	  30.065
     21.2197	  34.000	  31.454	-246.704	  29.970
     21.2531	  27.000	  31.357	-253.607	  29.875
     21.2865	  32.000	  31.260	-248.510	  29.780
     21.3200	  44.000	  31.163	-236.413	  29.685
     21.3534	  34.000	  31.066	-246.316	  29.591
     21.3868	  36.000	  30.969	-244.219	  29.496
     21.4202	  27.000	  30.872	-253.122	  29.401
     21.4537	  26.000	  30.775	-254.025	  29.306
     21.4871	  30.000	  30.624	-249.874	  29.211
     21.5205	  32.000	  30.501	-247.751	  29.116
     21.5539	  34.000	  30.406	-245.656	  29.021
     21.5874	  28.000	  30.311	-251.561	  28.926
     21.6208	  32.000	  30.216	-247.466	  28.831
     21.6542	  29.000	  30.121	-250.371	  28.736
     21.6876	  33.000	  30.026	-246.276	  28.641
     21.7210	  34.000	  29.931	-245.181	  28.546
     21.7545	  36.000	  29.836	-243.086	  28.452
     21.7879	  33.000	  29.741	-245.991	  28.357
     21.8213	  37.000	  29.647	-241.897	  28.262
     21.8547	  36.000	  29.552	-242.802	  28.167
     21.8882	  32.000	  29.457	-246.707	  28.072
     21.9216	  30.000	  29.362	-248.612	  27.977
     21.9550	  25.000	  29.267	-253.517	  27.882
     21.9884	  29.000	  29.172	-249.422	  27.787
     22.0218	  29.000	  29.077	-249.327	  27.692
     22.0553	  43.000	  28.982	-235.232	  27.597
     22.0887	  24.000	  28.887	-254.137	  27.502
     22.1221	  31.000	  28.792	-247.042	  27.408
     22.1555	  34.000	  28.697	-243.947	  27.313
     22.1890	  37.000	  28.603	-240.853	  27.218
     22.2224	  34.000	  28.508	-243.758	  27.123
     22.2558	  33.000	  28.413	-244.663	  27.028
     22.2892	  33.000	  28.318	-244.568	  26.933
     22.3226	  28.000	  28.223	-249.473	  26.838
     22.3561	  37.000	  28.128	-240.378	  26.743
     22.3895	  36.000	  28.033	-241.283	  26.648
     22.4229	  19.000	  27.938	-258.188	  26.553
     22.4563	  32.000	  27.843	-245.093	  26.458
     22.4898	  34.000	  27.748	-242.998	  26.364
     22.5232	  22.000	  27.653	-254.903	  26.269
     22.5566	  27.000	  27.559	-249.809	  26.174
     22.5900	  26.000	  27.464	-250.714	  26.079
     22.6234	  26.000	  27.369	-250.619	  25.984
     22.6569	  33.000	  27.274	-243.524	  25.889
     22.6903	  24.000	  27.179	-252.429	  25.794
     22.7237	  22.000	  27.084	-254.334	  25.699
     22.7571	  28.000	  26.989	-248.239	  25.604
     22.7906	  28.000	  26.894	-248.144	  25.509
     22.8240	  37.000	  26.799	-239.049	  25.414
     22.8574	  31.000	  26.704	-244.954	  25.320
     22.8908	  31.000	  26.609	-244.859	  25.225
     22.9243	  25.000	  26.514	-250.764	  25.130
     22.9577	  30.000	  26.420	-245.670	  25.035
     22.9911	  30.000	  26.325	-245.575	  24.940
     23.0245	  18.000	  26.230	-257.480	  24.845
     23.0579	  30.000	  26.135	-245.385	  24.750
     23.0914	  32.000	  26.040	-243.290	  24.655
     23.1248	  24.000	  25.945	-251.195	  24.560
     23.1582	  25.000	  25.850	-250.100	  24.465
     23.1916	  29.000	  25.755	-246.005	  24.370
     23.2251	  34.000	  25.660	-240.910	  24.275
     23.2585	  28.000	  25.565	-246.815	  24.181
     23.2919	  17.000	  25.470	-257.720	  24.086
     23.3253	  31.000	  25.376	-243.626	  23.991
     23.3587	  21.000	  25.281	-253.531	  23.896
     23.3922	  21.000	  25.186	-253.436	  23.801
     23.4256	  18.000	  25.091	-256.341	  23.706
     23.4590	  21.000	  24.996	-253.246	  23.611
     23.4924	  28.000	  24.936	-246.186	  23.551
     23.5259	  27.000	  24.883	-247.133	  23.499
     23.5593	  26.000	  24.831	-248.081	  23.446
     23.5927	  18.000	  24.779	-256.029	  23.394
     23.6261	  26.000	  24.727	-247.977	  23.342
     23.6595	  24.000	  24.675	-249.925	  23.290
     23.6930	  27.000	  24.622	-246.872	  23.238
     23.7264	  22.000	  24.570	-251.820	  23.185
     23.7598	  15.000	  24.518	-258.768	  23.133
     23.7932	  17.000	  24.466	-256.716	  23.081
     23.8267	  40.000	  24.414	-233.664	  23.029
     23.8601	  31.000	  24.361	-242.611	  22.977
     23.8935	  19.000	  24.309	-254.559	  22.924
     23.9269	  21.000	  24.257	-252.507	  22.872
     23.9604	  18.000	  24.205	-255.455	  22.820
     23.9938	  25.000	  24.153	-248.403	  22.768
     24.0272	  37.000	  24.100	-236.350	  22.716
     24.0606	  27.000	  24.048	-246.298	  22.663
     24.0940	  22.000	  23.996	-251.246	  22.611
     24.1275	  24.000	  23.944	-249.194	  22.559
     24.1609	  29.000	  23.892	-244.142	  22.507
     24.1943	  28.000	  23.839	-245.089	  22.455
     24.2277	  29.000	  23.787	-244.037	  22.402
     24.2612	  30.000	  23.735	-242.985	  22.350
     24.2946	  27.000	  23.683	-245.933	  22.298
     24.3280	  19.000	  23.631	-253.881	  22.246
     24.3614	  31.000	  23.578	-241.828	  22.194
     24.3948	  27.000	  23.526	-245.776	  22.141
     24.4283	  31.000	  23.474	-241.724	  22.089
     24.4617	  28.000	  23.422	-244.672	  22.037
     24.4951	  20.000	  23.370	-252.620	  21.985
     24.5285	  29.000	  23.317	-243.567	  21.933
     24.5620	  17.000	  23.265	-255.515	  21.880
     24.5954	  21.000	  23.213	-251.463	  21.828
     24.6288	  27.000	  23.161	-245.411	  21.776
     24.6622	  30.000	  23.109	-242.359	  21.724
     24.6956	  19.000	  23.056	-253.306	  21.672
     24.7291	  25.000	  23.004	-247.254	  21.619
     24.7625	  26.000	  22.952	-246.202	  21.567
     24.7959	  27.000	  22.900	-245.150	  21.515
     24.8293	  31.000	  22.848	-241.098	  21.463
     24.8628	  21.000	  22.795	-251.045	  21.411
     24.8962	  18.000	  22.743	-253.993	  21.358
     24.9296	  17.000	  22.691	-254.941	  21.306
     24.9630	  22.000	  22.639	-249.889	  21.254
     24.9964	  16.000	  22.587	-255.837	  21.202
     25.0299	  33.000	  22.534	-238.784	  21.150
     25.0633	  22.000	  22.482	-249.732	  21.097
     25.0967	  28.000	  22.430	-243.680	  21.045
     25.1301	  10.000	  22.378	-261.628	  20.993
     25.1636	  26.000	  22.326	-245.576	  20.941
     25.1970	  25.000	  22.273	-246.523	  20.889
     25.2304	  27.000	  22.221	-244.471	  20.836
     25.2638	  20.000	  22.169	-251.419	  20.784
     25.2973	  20.000	  22.117	-251.367	  20.732
     25.3307	  31.000	  22.065	-240.315	  20.680
     25.3641	  21.000	  22.012	-250.262	  20.628
     25.3975	  20.000	  21.960	-251.210	  20.575
     25.4309	  24.000	  21.908	-247.158	  20.523
     25.4644	  14.000	  21.856	-257.106	  20.471
     25.4978	  25.000	  21.804	-246.054	  20.419
     25.5312	  16.000	  21.751	-255.001	  20.367
     25.5646	  30.000	  21.699	-240.949	  20.314
     25.5981	  19.000	  21.647	-251.897	  20.262
     25.6315	  19.000	  21.595	-251.845	  20.210
     25.6649	  31.000	  21.543	-239.793	  20.158
     25.6983	  28.000	  21.490	-242.740	  20.106
     25.7317	  20.000	  21.438	-250.688	  20.053
     25.7652	  25.000	  21.386	-245.636	  20.001
     25.7986	  18.000	  21.334	-252.584	  19.949
     25.8320	  27.000	  21.282	-243.532	  19.897
     25.8654	  26.000	  21.229	-244.479	  19.845
     25.8989	  17.000	  21.177	-253.427	  19.792
     25.9323	  38.000	  21.125	-232.375	  19.740
     25.9657	  26.000	  21.073	-244.323	  19.688
     25.9991	  18.000	  21.021	-252.271	  19.636
     26.0325	  24.000	  20.968	-246.218	  19.584
     26.0660	  22.000	  20.916	-248.166	  19.531
     26.0994	  28.000	  20.864	-242.114	  19.479
     26.1328	  21.000	  20.812	-249.062	  19.427
     26.1662	  19.000	  20.760	-251.010	  19.375
     26.1997	  26.000	  20.707	-243.957	  19.323
     26.2331	  19.000	  20.655	-250.905	  19.270
     26.2665	  22.000	  20.603	-247.853	  19.218
     26.2999	  25.000	  20.551	-244.801	  19.166
     26.3334	  19.000	  20.499	-250.749	  19.114
     26.3668	  24.000	  20.446	-245.696	  19.062
     26.4002	  17.000	  20.394	-252.644	  19.009
     26.4336	  22.000	  20.342	-247.592	  18.957
     26.4670	  16.000	  20.290	-253.540	  18.905
     26.5005	  20.000	  20.238	-249.488	  18.853
     26.5339	  22.000	  20.185	-247.435	  18.801
     26.5673	  20.000	  20.133	-249.383	  18.748
     26.6007	  17.000	  20.081	-252.331	  18.696
     26.6342	  14.000	  20.029	-255.279	  18.644
     26.6676	  19.000	  19.976	-250.227	  18.592
     26.7010	  21.000	  19.924	-248.174	  18.539
     26.7344	  18.000	  19.872	-251.122	  18.487
     26.7678	  33.000	  19.820	-236.070	  18.435
     26.8013	  20.000	  19.768	-249.018	  18.383
     26.8347	  20.000	  19.715	-248.965	  18.331
     26.8681	  27.000	  19.871	-242.121	  18.278
     26.9015	  22.000	  19.823	-247.073	  18.226
     26.9350	  24.000	  19.878	-245.128	  18.174
     26.9684	  31.000	  19.832	-238.082	  18.122
     27.0018	  20.000	  19.787	-249.037	  18.070
     27.0352	  21.000	  19.742	-247.992	  18.017
     27.0686	  29.000	  19.697	-239.947	  17.965
     27.1021	  26.000	  19.653	-242.903	  17.913
     27.1355	  15.000	  19.608	-253.858	  17.861
     27.1689	  27.000	  19.564	-241.814	  17.809
     27.2023	  22.000	  19.521	-246.771	  17.756
     27.2358	  14.000	  19.477	-254.727	  17.704
     27.2692	  19.000	  19.434	-249.684	  17.652
     27.3026	  25.000	  19.391	-243.641	  17.600
     27.3360	  22.000	  19.349	-246.599	  17.548
     27.3694	  21.000	  19.307	-247.557	  17.495
     27.4029	  16.000	  19.265	-252.515	  17.443
     27.4363	  13.000	  19.223	-255.473	  17.391
     27.4697	  20.000	  19.182	-248.432	  17.339
     27.5031	  25.000	  19.142	-243.392	  17.287
     27.5366	  16.000	  19.102	-252.352	  17.234
     27.5700	  19.000	  19.062	-249.312	  17.182
     27.6034	  25.000	  19.023	-243.273	  17.130
     27.6368	  16.000	  18.984	-252.234	  17.078
     27.6703	  34.000	  18.946	-234.196	  17.026
     27.7037	  17.000	  18.909	-251.159	  16.973
     27.7371	  18.000	  18.890	-250.140	  16.939
     27.7705	  19.000	  18.875	-249.125	  16.908
     27.8039	  15.000	  18.861	-253.111	  16.878
     27.8374	  25.000	  18.847	-243.097	  16.847
     27.8708	  18.000	  18.834	-250.084	  16.816
     27.9042	  22.000	  18.823	-246.073	  16.785
     27.9376	  28.000	  18.811	-240.061	  16.754
     27.9711	  24.000	  18.801	-244.051	  16.723
     28.0045	  14.000	  18.792	-254.042	  16.692
     28.0379	  20.000	  18.784	-248.034	  16.661
     28.0713	  22.000	  18.777	-246.027	  16.630
     28.1047	  24.000	  18.771	-244.021	  16.599
     28.1382	  19.000	  18.766	-249.016	  16.568
     28.1716	  21.000	  18.763	-247.013	  16.537
     28.2050	  16.000	  18.761	-252.011	  16.506
     28.2384	  18.000	  18.761	-250.011	  16.475
     28.2719	  19.000	  18.762	-249.012	  16.444
     28.3053	  24.000	  18.765	-244.015	  16.413
     28.3387	  10.000	  18.770	-258.020	  16.383
     28.3721	  19.000	  18.777	-249.027	  16.352
     28.4055	  19.000	  18.786	-249.036	  16.321
     28.4390	  19.000	  18.798	-249.048	  16.290
     28.4724	  17.000	  18.812	-251.062	  16.259
     28.5058	  22.000	  18.829	-246.079	  16.228
     28.5392	  22.000	  18.849	-246.099	  16.197
     28.5727	  24.000	  18.872	-244.122	  16.166
     28.6061	  19.000	  18.899	-249.149	  16.135
     28.6395	  17.000	  18.929	-251.179	  16.104
     28.6729	  16.000	  18.964	-252.214	  16.073
     28.7064	  18.000	  19.003	-250.253	  16.042
     28.7398	  14.000	  19.047	-254.297	  16.011
     28.7732	  18.000	  19.097	-250.347	  15.980
     28.8066	  22.000	  19.153	-246.403	  15.949
     28.8400	  29.000	  19.215	-239.465	  15.919
     28.8735	  30.000	  19.285	-238.535	  15.888
     28.9069	  15.000	  19.363	-253.613	  15.857
     28.9403	  21.000	  19.451	-247.701	  15.826
     28.9737	  20.000	  19.548	-248.798	  15.795
     29.0072	  26.000	  19.656	-242.906	  15.764
     29.0406	  20.000	  19.778	-249.028	  15.733
     29.0740	  30.000	  19.913	-239.163	  15.702
     29.1074	  25.000	  20.065	-244.315	  15.671
     29.1408	  28.000	  20.234	-241.484	  15.640
     29.1743	  17.000	  20.425	-252.675	  15.609
     29.2077	  21.000	  20.639	-248.889	  15.578
     29.2411	  22.000	  20.880	-248.130	  15.547
     29.2745	  26.000	  21.152	-244.402	  15.516
     29.3080	  19.000	  21.461	-251.711	  15.485
     29.3414	  27.000	  21.811	-244.061	  15.455
     29.3748	  33.000	  22.211	-238.461	  15.424
     29.4082	  26.000	  22.669	-245.919	  15.393
     29.4416	  24.000	  23.196	-248.446	  15.362
     29.4751	  17.000	  23.806	-256.056	  15.331
     29.5085	  20.000	  24.515	-253.765	  15.300
     29.5419	  27.000	  25.345	-247.595	  15.269
     29.5753	  27.000	  26.323	-248.573	  15.238
     29.6088	  31.000	  27.485	-245.735	  15.207
     29.6422	  19.000	  28.879	-259.129	  15.176
     29.6756	  43.000	  30.567	-236.817	  15.145
     29.7090	  34.000	  32.636	-247.886	  15.114
     29.7425	  40.000	  35.212	-244.462	  15.083
     29.7759	  44.000	  38.484	-243.734	  15.052
     29.8093	  41.000	  42.765	-251.015	  15.021
     29.8427	  53.000	  48.571	-244.821	  14.991
     29.8761	  50.000	  56.762	-256.012	  14.960
     29.9096	  57.000	  68.675	-260.925	  14.929
     29.9430	  63.000	  86.205	-272.455	  14.898
     29.9764	 125.000	 111.648	-235.898	  14.867
     30.0098	 140.000	 147.163	-256.413	  14.836
     30.0433	 171.000	 193.288	-271.538	  14.805
     30.0767	 255.000	 245.438	-239.688	  14.774
     30.1101	 287.000	 289.447	-251.697	  14.743
     30.1435	 289.000	 307.109	-267.359	  14.712
     30.1769	 265.000	 293.818	-278.068	  14.681
     30.2104	 250.000	 257.965	-257.215	  14.650
     30.2438	 195.000	 210.523	-264.773	  14.619
     30.2772	 127.000	 163.466	-285.716	  14.588
     30.3106	 103.000	 124.557	-270.807	  14.557
     30.3441	  73.000	  95.544	-271.794	  14.527
     30.3775	  72.000	  75.063	-252.313	  14.496
     30.4109	  42.000	  60.960	-268.210	  14.465
     30.4443	  54.000	  51.255	-246.505	  14.434
     30.4777	  44.000	  44.439	-249.689	  14.403
     30.5112	  37.000	  39.485	-251.735	  14.372
     30.5446	  32.000	  35.749	-252.999	  14.341
     30.5780	  40.000	  32.837	-242.087	  14.310
     30.6114	  30.000	  30.510	-249.760	  14.279
     30.6449	  36.000	  28.612	-241.862	  14.248
     30.6783	  19.000	  27.043	-257.293	  14.217
     30.7117	  21.000	  25.730	-253.980	  14.186
     30.7451	  33.000	  24.619	-240.869	  14.155
     30.7785	  18.000	  23.670	-254.920	  14.124
     30.8120	  29.000	  22.853	-243.103	  14.093
     30.8454	  20.000	  22.144	-251.394	  14.063
     30.8788	  16.000	  21.523	-254.773	  14.032
     30.9122	  19.000	  20.977	-251.227	  14.001
     30.9457	  22.000	  20.493	-247.743	  13.970
     30.9791	  24.000	  20.061	-245.311	  13.939
     31.0125	  21.000	  19.675	-247.925	  13.908
     31.0459	  15.000	  19.327	-253.577	  13.877
     31.0794	  16.000	  19.012	-252.262	  13.846
     31.1128	  18.000	  18.725	-249.975	  13.815
     31.1462	  26.000	  18.464	-241.714	  13.784
     31.1796	  15.000	  18.224	-252.474	  13.753
     31.2130	  25.000	  18.004	-242.254	  13.722
     31.2465	  17.000	  17.800	-250.050	  13.691
     31.2799	   9.000	  17.612	-257.862	  13.660
     31.3133	  19.000	  17.437	-247.687	  13.629
     31.3467	  14.000	  17.273	-252.523	  13.599
     31.3802	  28.000	  17.120	-238.370	  13.568
     31.4136	  13.000	  16.977	-253.227	  13.537
     31.4470	  12.000	  16.842	-254.092	  13.506
     31.4804	   8.000	  16.715	-257.965	  13.475
     31.5138	  19.000	  16.594	-246.844	  13.444
     31.5473	  19.000	  16.484	-246.734	  13.417
     31.5807	  21.000	  16.383	-244.633	  13.393
     31.6141	  18.000	  16.287	-247.537	  13.369
     31.6475	  20.000	  16.195	-245.445	  13.345
     31.6810	  16.000	  16.108	-249.358	  13.321
     31.7144	  12.000	  16.025	-253.275	  13.296
     31.7478	  18.000	  15.945	-247.195	  13.272
     31.7812	  15.000	  15.869	-250.119	  13.248
     31.8146	   9.000	  15.796	-256.046	  13.224
     31.8481	  20.000	  15.726	-244.976	  13.200
     31.8815	  10.000	  15.658	-254.908	  13.176
     31.9149	  18.000	  15.593	-246.843	  13.152
     31.9483	  13.000	  15.530	-251.780	  13.128
     31.9818	  14.000	  15.469	-250.719	  13.104
     32.0152	  19.000	  15.411	-245.661	  13.080
     32.0486	  17.000	  15.354	-247.604	  13.056
     32.0820	  14.000	  15.298	-250.548	  13.031
     32.1154	  17.000	  15.244	-247.494	  13.007
     32.1489	   9.000	  15.192	-255.442	  12.983
     32.1823	  15.000	  15.141	-249.391	  12.959
     32.2157	  16.000	  15.894	-249.144	  12.935
     32.2491	  25.000	  15.862	-240.112	  12.911
     32.2826	  14.000	  15.832	-251.082	  12.887
     32.3160	  20.000	  16.205	-245.455	  12.863
     32.3494	   6.000	  16.187	-259.437	  12.839
     32.3828	  17.000	  16.170	-248.420	  12.815
     32.4163	  20.000	  16.155	-245.405	  12.791
     32.4497	  22.000	  16.142	-243.392	  12.766
     32.4831	  15.000	  16.131	-250.381	  12.742
     32.5165	  15.000	  16.121	-250.371	  12.718
     32.5499	   8.000	  16.113	-257.363	  12.694
     32.5834	  20.000	  16.107	-245.357	  12.670
     32.6168	  10.000	  16.103	-255.353	  12.646
     32.6502	  20.000	  16.100	-245.350	  12.622
     32.6836	  19.000	  16.100	-246.350	  12.598
     32.7171	  14.000	  16.101	-251.351	  12.574
     32.7505	  15.000	  16.104	-250.354	  12.550
     32.7839	  19.000	  16.109	-246.359	  12.525
     32.8173	  21.000	  16.116	-244.366	  12.501
     32.8507	  17.000	  16.126	-248.376	  12.477
     32.8842	  14.000	  16.137	-251.387	  12.453
     32.9176	  19.000	  16.151	-246.401	  12.429
     32.9510	  16.000	  16.166	-249.416	  12.405
     32.9844	  27.000	  16.185	-238.435	  12.381
     33.0179	  16.000	  16.205	-249.455	  12.357
     33.0513	  20.000	  16.229	-245.479	  12.333
     33.0847	  17.000	  16.254	-248.504	  12.309
     33.1181	  15.000	  16.283	-250.533	  12.285
     33.1516	  14.000	  16.315	-251.565	  12.260
     33.1850	  13.000	  16.349	-252.599	  12.236
     33.2184	  16.000	  16.387	-249.637	  12.212
     33.2518	  21.000	  16.428	-244.678	  12.188
     33.2852	  16.000	  16.473	-249.723	  12.164
     33.3187	  14.000	  16.521	-251.771	  12.140
     33.3521	  16.000	  16.363	-249.613	  12.116
     33.3855	  21.000	  16.423	-244.673	  12.092
     33.4189	  17.000	  16.383	-248.633	  12.068
     33.4524	  18.000	  16.455	-247.705	  12.044
     33.4858	  10.000	  16.531	-255.781	  12.020
     33.5192	  20.000	  16.613	-245.863	  11.995
     33.5526	  19.000	  16.700	-246.950	  11.971
     33.5860	  13.000	  16.793	-253.043	  11.947
     33.6195	  18.000	  16.893	-248.143	  11.923
     33.6529	  15.000	  16.999	-251.249	  11.899
     33.6863	  17.000	  17.112	-249.362	  11.875
     33.7197	  21.000	  17.233	-245.483	  11.851
     33.7532	  13.000	  17.362	-253.612	  11.827
     33.7866	  19.000	  17.501	-247.751	  11.803
     33.8200	  21.000	  17.649	-245.899	  11.779
     33.8534	  21.000	  17.875	-246.125	  11.755
     33.8868	  17.000	  18.046	-250.296	  11.730
     33.9203	  30.000	  18.230	-237.480	  11.706
     33.9537	  18.000	  18.461	-249.711	  11.682
     33.9871	  26.000	  18.674	-241.924	  11.658
     34.0205	  17.000	  18.902	-251.152	  11.634
     34.0540	  28.000	  19.148	-240.398	  11.610
     34.0874	  20.000	  19.413	-248.663	  11.586
     34.1208	  25.000	  19.699	-243.949	  11.562
     34.1542	  28.000	  20.009	-241.258	  11.538
     34.1876	  26.000	  20.343	-243.593	  11.514
     34.2211	  20.000	  20.705	-249.955	  11.489
     34.2545	  25.000	  21.099	-245.349	  11.465
     34.2879	  26.000	  21.527	-244.777	  11.441
     34.3213	  29.000	  21.993	-242.243	  11.417
     34.3548	  36.000	  22.502	-235.752	  11.393
     34.3882	  31.000	  23.058	-241.308	  11.369
     34.4216	  27.000	  23.669	-245.919	  11.345
     34.4550	  31.000	  24.340	-242.590	  11.321
     34.4884	  32.000	  25.080	-242.330	  11.297
     34.5219	  36.000	  25.897	-239.147	  11.273
     34.5553	  38.000	  26.803	-238.053	  11.249
     34.5887	  42.000	  27.811	-235.061	  11.224
     34.6221	  28.000	  28.936	-250.186	  11.200
     34.6556	  34.000	  30.196	-245.446	  11.176
     34.6890	  43.000	  31.614	-237.864	  11.152
     34.7224	  39.000	  33.215	-243.465	  11.128
     34.7558	  37.000	  35.033	-247.283	  11.104
     34.7893	  36.000	  37.107	-250.357	  11.080
     34.8227	  34.000	  39.487	-254.737	  11.056
     34.8561	  49.000	  42.235	-242.485	  11.032
     34.8895	  52.000	  45.428	-242.678	  11.008
     34.9229	  43.000	  49.167	-255.417	  10.984
     34.9564	  48.000	  53.581	-254.831	  10.959
     34.9898	  38.000	  58.839	-270.089	  10.935
     35.0232	  57.000	  65.170	-257.420	  10.911
     35.0566	  60.000	  72.890	-262.140	  10.887
     35.0901	  66.000	  82.459	-265.709	  10.863
     35.1235	  98.000	  94.577	-245.827	  10.839
     35.1569	 109.000	 110.358	-250.608	  10.815
     35.1903	 131.000	 131.591	-249.841	  10.791
     35.2237	 148.000	 161.052	-262.302	  10.767
     35.2572	 181.000	 202.786	-271.036	  10.743
     35.2906	 254.000	 262.173	-257.423	  10.719
     35.3240	 306.000	 345.402	-288.652	  10.694
     35.3574	 416.000	 457.909	-291.159	  10.670
     35.3909	 566.000	 600.161	-283.411	  10.646
     35.4243	 773.000	 758.113	-234.363	  10.622
     35.4577	 909.000	 892.517	-232.767	  10.598
     35.4911	 997.000	 954.111	-206.361	  10.574
     35.5246	 968.000	 929.726	-210.976	  10.550
     35.5580	 751.000	 841.878	-340.128	  10.526
     35.5914	 607.000	 713.511	-355.761	  10.502
     35.6248	 510.000	 570.278	-309.528	  10.478
     35.6582	 327.000	 439.094	-361.344	  10.454
     35.6917	 295.000	 333.634	-287.884	  10.429
     35.7251	 232.000	 254.812	-272.062	  10.405
     35.7585	 186.000	 198.057	-261.307	  10.381
     35.7919	 162.000	 157.795	-245.045	  10.357
     35.8254	 151.000	 129.143	-227.393	  10.333
     35.8588	  96.000	 108.381	-261.631	  10.309
     35.8922	  70.000	  92.915	-272.165	  10.285
     35.9256	  89.000	  81.044	-241.294	  10.261
     35.9590	  52.000	  71.684	-268.934	  10.237
     35.9925	  58.000	  64.140	-255.390	  10.213
     36.0259	  65.000	  57.957	-242.207	  10.188
     36.0593	  49.000	  52.826	-253.076	  10.164
     36.0927	  41.000	  48.523	-256.773	  10.140
     36.1262	  33.000	  44.884	-261.134	  10.116
     36.1596	  34.000	  41.784	-257.034	  10.092
     36.1930	  37.000	  39.126	-251.376	  10.068
     36.2264	  29.000	  36.836	-257.086	  10.044
     36.2598	  37.000	  34.855	-247.105	  10.020
     36.2933	  38.000	  33.135	-244.385	   9.996
     36.3267	  32.000	  31.640	-248.890	   9.972
     36.3601	  28.000	  30.342	-251.592	   9.948
     36.3935	  31.000	  29.215	-247.465	   9.923
     36.4270	  36.000	  28.243	-241.493	   9.899
     36.4604	  29.000	  27.412	-247.662	   9.875
     36.4938	  16.000	  26.712	-259.962	   9.851
     36.5272	  18.000	  26.138	-257.388	   9.827
     36.5606	  25.000	  25.687	-249.937	   9.803
     36.5941	  27.000	  25.361	-247.611	   9.779
     36.6275	  18.000	  25.169	-256.419	   9.755
     36.6609	  27.000	  25.122	-247.372	   9.731
     36.6943	  25.000	  25.243	-249.493	   9.707
     36.7278	  29.000	  25.570	-245.820	   9.683
     36.7612	  22.000	  26.160	-253.410	   9.658
     36.7946	  27.000	  27.111	-249.361	   9.634
     36.8280	  21.000	  28.577	-256.827	   9.610
     36.8615	  33.000	  30.795	-247.045	   9.586
     36.8949	  31.000	  34.099	-252.349	   9.562
     36.9283	  28.000	  38.910	-260.160	   9.538
     36.9617	  38.000	  45.695	-256.945	   9.514
     36.9951	  44.000	  54.809	-260.059	   9.490
     37.0286	  48.000	  66.095	-267.345	   9.466
     37.0620	  77.000	  78.095	-250.345	   9.438
     37.0954	  75.000	  87.452	-261.702	   9.409
     37.1288	  72.000	  90.744	-267.994	   9.379
     37.1623	  76.000	  87.733	-260.983	   9.349
     37.1957	  80.000	  80.313	-249.563	   9.319
     37.2291	  40.000	  70.045	-279.295	   9.289
     37.2625	  33.000	  58.766	-275.016	   9.260
     37.2959	  52.000	  48.453	-245.703	   9.230
     37.3294	  33.000	  40.098	-256.348	   9.200
     37.3628	  33.000	  33.773	-250.023	   9.170
     37.3962	  17.000	  29.141	-261.392	   9.140
     37.4296	  31.000	  25.785	-244.035	   9.110
     37.4631	  17.000	  23.340	-255.590	   9.081
     37.4965	  16.000	  21.522	-254.772	   9.051
     37.5299	  16.000	  20.131	-253.381	   9.021
     37.5633	  18.000	  19.034	-250.284	   8.991
     37.5967	  13.000	  18.144	-254.394	   8.961
     37.6302	  16.000	  17.406	-250.656	   8.931
     37.6636	  18.000	  16.782	-248.032	   8.902
     37.6970	   8.000	  16.247	-257.497	   8.872
     37.7304	  16.000	  15.782	-249.032	   8.842
     37.7639	  26.000	  15.375	-238.625	   8.812
     37.7973	  14.000	  15.014	-250.264	   8.782
     37.8307	  10.000	  14.692	-253.942	   8.752
     37.8641	  15.000	  14.402	-248.652	   8.723
     37.8975	  22.000	  14.139	-241.389	   8.693
     37.9310	  16.000	  13.900	-247.150	   8.663
     37.9644	  12.000	  13.680	-250.930	   8.633
     37.9978	  19.000	  13.477	-243.727	   8.603
     38.0312	  15.000	  13.289	-247.539	   8.573
     38.0647	  10.000	  13.114	-252.364	   8.544
     38.0981	  16.000	  12.951	-246.201	   8.514
     38.1315	  22.000	  12.797	-240.047	   8.484
     38.1649	  15.000	  12.653	-246.903	   8.454
     38.1983	   7.000	  12.517	-254.767	   8.424
     38.2318	  13.000	  12.387	-248.637	   8.394
     38.2652	   9.000	  12.265	-252.515	   8.365
     38.2986	  15.000	  12.148	-246.398	   8.335
     38.3320	  10.000	  12.036	-251.286	   8.305
     38.3655	   8.000	  11.929	-253.179	   8.275
     38.3989	  10.000	  11.827	-251.077	   8.245
     38.4323	  15.000	  11.728	-245.978	   8.215
     38.4657	  10.000	  11.633	-250.883	   8.186
     38.4992	  12.000	  11.542	-248.792	   8.156
     38.5326	  15.000	  11.454	-245.704	   8.126
     38.5660	  18.000	  11.368	-242.618	   8.096
     38.5994	  16.000	  11.286	-244.536	   8.066
     38.6328	  20.000	  11.206	-240.456	   8.037
     38.6663	  12.000	  11.128	-248.378	   8.007
     38.6997	  14.000	  11.052	-246.302	   7.977
     38.7331	  12.000	  10.978	-248.228	   7.947
     38.7665	  10.000	  10.120	-249.370	   7.917
     38.8000	   9.000	  10.065	-250.315	   7.887
     38.8334	  13.000	   9.615	-245.865	   7.858
     38.8668	   5.000	   9.571	-253.821	   7.828
     38.9002	  16.000	   9.528	-242.778	   7.798
     38.9336	  12.000	   9.485	-246.735	   7.768
     38.9671	   6.000	   9.443	-252.693	   7.738
     39.0005	   7.000	   9.402	-251.652	   7.708
     39.0339	   7.000	   9.361	-251.611	   7.679
     39.0673	   5.000	   9.321	-253.571	   7.649
     39.1008	  14.000	   9.282	-244.532	   7.619
     39.1342	  19.000	   9.243	-239.493	   7.589
     39.1676	  17.000	   9.204	-241.454	   7.559
     39.2010	  14.000	   9.166	-244.416	   7.529
     39.2345	   7.000	   9.128	-251.378	   7.500
     39.2679	   4.000	   9.091	-254.341	   7.470
     39.3013	  17.000	   9.054	-241.304	   7.440
     39.3347	   8.000	   9.017	-250.267	   7.410
     39.3681	  16.000	   8.981	-242.231	   7.380
     39.4016	  14.000	   8.944	-244.194	   7.350
     39.4350	   9.000	   8.909	-249.159	   7.321
     39.4684	   4.000	   8.873	-254.123	   7.291
     39.5018	  12.000	   8.838	-246.088	   7.261
     39.5353	  12.000	   8.803	-246.053	   7.231
     39.5687	  12.000	   8.768	-246.018	   7.201
     39.6021	  13.000	   8.733	-244.983	   7.171
     39.6355	  13.000	   8.698	-244.948	   7.142
     39.6689	  16.000	   8.664	-241.914	   7.112
     39.7024	  15.000	   8.630	-242.880	   7.082
     39.7358	   2.000	   8.596	-255.846	   7.052
     39.7692	  12.000	   8.562	-245.812	   7.022
     39.8026	  10.000	   8.528	-247.778	   6.992
     39.8361	   8.000	   8.495	-249.745	   6.963
     39.8695	  12.000	   8.656	-245.906	   6.933
     39.9029	   9.000	   8.627	-248.877	   6.903
     39.9363	   9.000	   8.598	-248.848	   6.873
     39.9697	  12.000	   8.666	-245.916	   6.843
     40.0032	  12.000	   8.639	-245.889	   6.814
     40.0366	  17.000	   8.613	-240.863	   6.784
     40.0700	  12.000	   8.588	-245.838	   6.754
     40.1034	  13.000	   8.562	-244.812	   6.724
     40.1369	   8.000	   8.537	-249.787	   6.694
     40.1703	   4.000	   8.512	-253.762	   6.664
     40.2037	  17.000	   8.488	-240.738	   6.635
     40.2371	  10.000	   8.464	-247.714	   6.605
     40.2705	   8.000	   8.440	-249.690	   6.575
     40.3040	   8.000	   8.417	-249.667	   6.545
     40.3374	   8.000	   8.394	-249.644	   6.515
     40.3708	  10.000	   8.371	-247.621	   6.485
     40.4042	  14.000	   8.283	-243.533	   6.456
     40.4377	  10.000	   8.263	-247.513	   6.426
     40.4711	  14.000	   8.243	-243.493	   6.396
     40.5045	   8.000	   8.190	-249.440	   6.366
     40.5379	   9.000	   8.172	-248.422	   6.336
     40.5714	   8.000	   8.154	-249.404	   6.306
     40.6048	  10.000	   8.136	-247.386	   6.277
     40.6382	  14.000	   8.119	-243.369	   6.247
     40.6716	  10.000	   8.103	-247.353	   6.217
     40.7050	   9.000	   8.087	-248.337	   6.187
     40.7385	  14.000	   8.071	-243.321	   6.157
     40.7719	  13.000	   8.056	-244.306	   6.127
     40.8053	   7.000	   8.042	-250.292	   6.098
     40.8387	  10.000	   8.029	-247.279	   6.068
     40.8722	  14.000	   8.016	-243.266	   6.038
     40.9056	  14.000	   8.004	-243.254	   6.008
     40.9390	   6.000	   7.993	-251.243	   5.978
     40.9724	   8.000	   7.982	-249.232	   5.948
     41.0058	  15.000	   7.974	-242.224	   5.920
     41.0393	  14.000	   7.994	-243.244	   5.918
     41.0727	   9.000	   8.015	-248.265	   5.916
     41.1061	  15.000	   8.036	-242.286	   5.914
     41.1395	   7.000	   8.059	-250.309	   5.913
     41.1730	  12.000	   8.083	-245.333	   5.911
     41.2064	  15.000	   8.109	-242.359	   5.909
     41.2398	  14.000	   8.136	-243.386	   5.907
     41.2732	   9.000	   8.165	-248.415	   5.905
     41.3066	  13.000	   8.195	-244.445	   5.903
     41.3401	  12.000	   8.227	-245.477	   5.902
     41.3735	  14.000	   8.261	-243.511	   5.900
     41.4069	  12.000	   8.297	-245.547	   5.898
     41.4403	  13.000	   8.335	-244.585	   5.896
     41.4738	  13.000	   8.376	-244.626	   5.894
     41.5072	   7.000	   8.419	-250.669	   5.892
     41.5406	   8.000	   8.465	-249.715	   5.891
     41.5740	   9.000	   8.514	-248.764	   5.889
     41.6075	  17.000	   8.567	-240.817	   5.887
     41.6409	  13.000	   8.623	-244.873	   5.885
     41.6743	  10.000	   8.683	-247.933	   5.883
     41.7077	  14.000	   8.748	-243.998	   5.882
     41.7411	  12.000	   8.817	-246.067	   5.880
     41.7746	  10.000	   8.892	-248.142	   5.878
     41.8080	  10.000	   8.972	-248.222	   5.876
     41.8414	  14.000	   9.059	-244.309	   5.874
     41.8748	  10.000	   9.153	-248.403	   5.872
     41.9083	  15.000	   9.254	-243.504	   5.871
     41.9417	  18.000	   9.365	-240.615	   5.869
     41.9751	  14.000	   9.485	-244.735	   5.867
     42.0085	   5.000	   9.615	-253.865	   5.865
     42.0419	  13.000	   9.758	-246.008	   5.863
     42.0754	  16.000	   9.915	-243.165	   5.861
     42.1088	  13.000	  10.087	-246.337	   5.860
     42.1422	  16.000	  10.276	-243.526	   5.858
     42.1756	  10.000	  10.485	-249.735	   5.856
     42.2091	  13.000	  10.717	-246.967	   5.854
     42.2425	  16.000	  10.975	-244.225	   5.852
     42.2759	  19.000	  11.263	-241.513	   5.850
     42.3093	  16.000	  11.586	-244.836	   5.849
     42.3427	  10.000	  11.950	-251.200	   5.847
     42.3762	  13.000	  12.361	-248.611	   5.845
     42.4096	   6.000	  12.829	-256.079	   5.843
     42.4430	  18.000	  13.363	-244.613	   5.841
     42.4764	  25.000	  13.978	-238.228	   5.839
     42.5099	  18.000	  14.689	-245.939	   5.838
     42.5433	  18.000	  15.517	-246.767	   5.836
     42.5767	  19.000	  16.490	-246.740	   5.834
     42.6101	  22.000	  17.643	-244.893	   5.832
     42.6435	  25.000	  19.024	-243.274	   5.830
     42.6770	  27.000	  20.699	-242.949	   5.828
     42.7104	  25.000	  22.765	-247.015	   5.827
     42.7438	  20.000	  25.366	-254.616	   5.825
     42.7772	  34.000	  28.720	-243.970	   5.823
     42.8107	  41.000	  33.155	-241.405	   5.821
     42.8441	  46.000	  39.148	-242.398	   5.819
     42.8775	  52.000	  47.336	-244.586	   5.817
     42.9109	  78.000	  58.524	-229.774	   5.816
     42.9444	  62.000	  73.605	-260.855	   5.814
     42.9778	  91.000	  93.306	-251.556	   5.812
     43.0112	 124.000	 117.638	-242.888	   5.810
     43.0446	 135.000	 144.586	-258.836	   5.808
     43.0780	 192.000	 168.673	-225.923	   5.806
     43.1115	 230.000	 182.503	-201.753	   5.805
     43.1449	 208.000	 182.851	-224.101	   5.803
     43.1783	 205.000	 172.843	-217.093	   5.801
     43.2117	 167.000	 156.123	-238.373	   5.799
     43.2452	 150.000	 134.566	-233.816	   5.797
     43.2786	 113.000	 111.036	-247.286	   5.795
     43.3120	 100.000	  89.142	-238.392	   5.794
     43.3454	  89.000	  70.953	-231.203	   5.792
     43.3788	  63.000	  56.808	-243.058	   5.790
     43.4123	  54.000	  46.191	-241.441	   5.788
     43.4457	  49.000	  38.337	-238.587	   5.786
     43.4791	  52.000	  32.536	-229.786	   5.784
     43.5125	  20.000	  28.212	-257.462	   5.783
     43.5460	  28.000	  24.929	-246.179	   5.781
     43.5794	  24.000	  22.383	-247.633	   5.779
     43.6128	  20.000	  20.362	-249.612	   5.777
     43.6462	  24.000	  18.724	-243.974	   5.775
     43.6796	  29.000	  17.375	-237.625	   5.773
     43.7131	  13.000	  16.247	-252.497	   5.772
     43.7465	  13.000	  15.295	-251.545	   5.770
     43.7799	  13.000	  14.484	-250.734	   5.768
     43.8133	  19.000	  13.786	-244.036	   5.766
     43.8468	  13.000	  13.183	-249.433	   5.764
     43.8802	  12.000	  12.657	-249.907	   5.762
     43.9136	  20.000	  12.196	-241.446	   5.761
     43.9470	  13.000	  11.796	-248.046	   5.759
     43.9804	  10.000	  11.436	-250.686	   5.757
     44.0139	  14.000	  11.116	-246.366	   5.755
     44.0473	  16.000	  10.833	-244.083	   5.753
     44.0807	   8.000	  10.577	-251.827	   5.751
     44.1141	  14.000	  10.346	-245.596	   5.750
     44.1476	  12.000	  10.137	-247.387	   5.748
     44.1810	  18.000	   9.948	-241.198	   5.746
     44.2144	  19.000	   9.775	-240.025	   5.744
     44.2478	   8.000	   9.618	-250.868	   5.742
     44.2813	  14.000	   9.474	-244.724	   5.740
     44.3147	  12.000	   9.342	-246.592	   5.739
     44.3481	  12.000	   9.221	-246.471	   5.737
     44.3815	  16.000	   9.109	-242.359	   5.735
     44.4149	   4.000	   9.005	-254.255	   5.733
     44.4484	   2.000	   8.910	-256.160	   5.731
     44.4818	  13.000	   8.821	-245.071	   5.729
     44.5152	  13.000	   8.738	-244.988	   5.728
     44.5486	  17.000	   8.661	-240.911	   5.726
     44.5821	  14.000	   8.590	-243.840	   5.724
     44.6155	  19.000	   8.523	-238.773	   5.722
     44.6489	   9.000	   8.460	-248.710	   5.720
     44.6823	  10.000	   8.401	-247.651	   5.718
     44.7157	  12.000	   8.346	-245.596	   5.717
     44.7492	   6.000	   8.294	-251.544	   5.715
     44.7826	  14.000	   8.245	-243.495	   5.713
     44.8160	   8.000	   8.199	-249.449	   5.711
     44.8494	  12.000	   8.156	-245.406	   5.709
     44.8829	   7.000	   8.115	-250.365	   5.708
     44.9163	  15.000	   8.076	-242.326	   5.706
     44.9497	   9.000	   8.039	-248.289	   5.704
     44.9831	  12.000	   8.004	-245.254	   5.702
     45.0165	  13.000	   7.971	-244.221	   5.700
     45.0500	  12.000	   7.940	-245.190	   5.698
     45.0834	   8.000	   7.910	-249.160	   5.697
     45.1168	   9.000	   7.882	-248.132	   5.695
     45.1502	  16.000	   7.855	-241.105	   5.693
     45.1837	   9.000	   7.829	-248.079	   5.691
     45.2171	   8.000	   7.805	-249.055	   5.689
     45.2505	  15.000	   7.782	-242.032	   5.687
     45.2839	  14.000	   7.759	-243.009	   5.686
     45.3174	   3.000	   7.738	-253.988	   5.684
     45.3508	   6.000	   7.718	-250.968	   5.682
     45.3842	   2.000	   7.698	-254.948	   5.680
     45.4176	  10.000	   7.680	-246.930	   5.678
     45.4510	   4.000	   7.662	-252.912	   5.676
     45.4845	  18.000	   7.645	-238.895	   5.675
     45.5179	   3.000	   7.629	-253.879	   5.673
     45.5513	  10.000	   7.614	-246.864	   5.671
     45.5847	  13.000	   7.599	-243.849	   5.669
     45.6182	  10.000	   7.585	-246.835	   5.667
     45.6516	   7.000	   7.571	-249.821	   5.665
     45.6850	  13.000	   7.558	-243.808	   5.664
     45.7184	  14.000	   7.546	-242.796	   5.662
     45.7518	   8.000	   7.534	-248.784	   5.660
     45.7853	  12.000	   7.523	-244.773	   5.658
     45.8187	   6.000	   7.512	-250.762	   5.656
     45.8521	   7.000	   7.502	-249.752	   5.654
     45.8855	   2.000	   7.493	-254.743	   5.653
     45.9190	   5.000	   7.484	-251.734	   5.651
     45.9524	   9.000	   7.475	-247.725	   5.649
     45.9858	  12.000	   7.467	-244.717	   5.647
     46.0192	   4.000	   7.460	-252.710	   5.645
     46.0527	   8.000	   7.453	-248.703	   5.643
     46.0861	   6.000	   7.447	-250.697	   5.642
     46.1195	  12.000	   7.441	-244.691	   5.640
     46.1529	   6.000	   7.436	-250.686	   5.638
     46.1863	  14.000	   7.432	-242.682	   5.636
     46.2198	   9.000	   7.428	-247.678	   5.634
     46.2532	   2.000	   7.426	-254.676	   5.632
     46.2866	   8.000	   7.424	-248.674	   5.631
     46.3200	   7.000	   7.423	-249.673	   5.629
     46.3535	   5.000	   7.423	-251.673	   5.627
     46.3869	  10.000	   7.424	-246.674	   5.625
     46.4203	   8.000	   7.427	-248.677	   5.623
     46.4537	  13.000	   7.249	-243.499	   5.621
     46.4871	  13.000	   7.258	-243.508	   5.620
     46.5206	  12.000	   7.269	-244.519	   5.618
     46.5540	   8.000	   7.283	-248.533	   5.616
     46.5874	   4.000	   7.209	-252.459	   5.614
     46.6208	   7.000	   7.231	-249.480	   5.612
     46.6543	   7.000	   7.255	-249.505	   5.610
     46.6877	   8.000	   7.285	-248.535	   5.609
     46.7211	   5.000	   7.321	-251.571	   5.607
     46.7545	  14.000	   7.365	-242.615	   5.605
     46.7879	   7.000	   7.419	-249.669	   5.603
     46.8214	  12.000	   7.488	-244.738	   5.601
     46.8548	   7.000	   7.575	-249.825	   5.599
     46.8882	  10.000	   7.691	-246.941	   5.598
     46.9216	  10.000	   7.845	-247.095	   5.596
     46.9551	  14.000	   8.052	-243.302	   5.594
     46.9885	   6.000	   8.330	-251.580	   5.592
     47.0219	   6.000	   8.700	-251.950	   5.590
     47.0553	  10.000	   9.178	-248.428	   5.588
     47.0887	  10.000	   9.765	-249.015	   5.587
     47.1222	   9.000	  10.422	-250.672	   5.585
     47.1556	  13.000	  11.038	-247.288	   5.583
     47.1890	  14.000	  11.442	-246.692	   5.581
     47.2224	  12.000	  11.532	-248.782	   5.579
     47.2559	  10.000	  11.357	-250.607	   5.577
     47.2893	   9.000	  11.017	-251.267	   5.576
     47.3227	  15.000	  10.557	-244.807	   5.574
     47.3561	  15.000	  10.010	-244.260	   5.572
     47.3895	  14.000	   9.445	-244.695	   5.570
     47.4230	  10.000	   8.935	-248.185	   5.568
     47.4564	   8.000	   8.516	-249.766	   5.566
     47.4898	  12.000	   8.187	-245.437	   5.565
     47.5232	   9.000	   7.937	-248.187	   5.563
     47.5567	  10.000	   7.748	-246.998	   5.561
     47.5901	  10.000	   7.606	-246.856	   5.559
     47.6235	   7.000	   7.497	-249.747	   5.557
     47.6569	   8.000	   7.413	-248.663	   5.555
     47.6904	   5.000	   7.346	-251.596	   5.554
     47.7238	   6.000	   7.292	-250.542	   5.552
     47.7572	   7.000	   7.248	-249.498	   5.550
     47.7906	   4.000	   7.211	-252.461	   5.548
     47.8240	  10.000	   7.179	-246.429	   5.546
     47.8575	   7.000	   7.152	-249.402	   5.545
     47.8909	   3.000	   7.129	-253.379	   5.543
     47.9243	   6.000	   7.109	-250.359	   5.541
     47.9577	   8.000	   7.091	-248.341	   5.539
     47.9912	  12.000	   7.075	-244.325	   5.537
     48.0246	   4.000	   7.060	-252.310	   5.535
     48.0580	   9.000	   7.048	-247.298	   5.534
     48.0914	   7.000	   7.036	-249.286	   5.532
     48.1248	   8.000	   7.026	-248.276	   5.530
     48.1583	   5.000	   7.016	-251.266	   5.528
     48.1917	   5.000	   7.007	-251.257	   5.526
     48.2251	  10.000	   6.999	-246.249	   5.524
     48.2585	   5.000	   6.992	-251.242	   5.523
     48.2920	   9.000	   6.985	-247.235	   5.521
     48.3254	   9.000	   6.978	-247.228	   5.519
     48.3588	   6.000	   6.972	-250.222	   5.517
     48.3922	   5.000	   6.966	-251.216	   5.515
     48.4257	  13.000	   6.961	-243.211	   5.513
     48.4591	   7.000	   6.955	-249.205	   5.512
     48.4925	  10.000	   6.951	-246.201	   5.510
     48.5259	   9.000	   6.946	-247.196	   5.508
     48.5593	   6.000	   6.941	-250.191	   5.506
     48.5928	   7.000	   6.937	-249.187	   5.504
     48.6262	   5.000	   6.933	-251.183	   5.502
     48.6596	   6.000	   6.929	-250.179	   5.501
     48.6930	   5.000	   6.925	-251.175	   5.499
     48.7264	   9.000	   6.922	-247.172	   5.497
     48.7599	   8.000	   6.918	-248.168	   5.495
     48.7933	   1.000	   6.915	-255.165	   5.493
     48.8267	   7.000	   6.911	-249.161	   5.491
     48.8601	   8.000	   6.908	-248.158	   5.490
     48.8936	   6.000	   6.905	-250.155	   5.488
     48.9270	   8.000	   6.902	-248.152	   5.486
     48.9604	   5.000	   6.899	-251.149	   5.484
     48.9938	   6.000	   6.896	-250.146	   5.482
     49.0273	  10.000	   6.893	-246.143	   5.480
     49.0607	   7.000	   6.890	-249.140	   5.479
     49.0941	   4.000	   6.891	-252.141	   5.480
     49.1275	   5.000	   6.892	-251.142	   5.482
     49.1609	  13.000	   6.893	-243.143	   5.485
     49.1944	   7.000	   6.895	-249.145	   5.487
     49.2278	   6.000	   6.896	-250.146	   5.489
     49.2612	   9.000	   6.898	-247.148	   5.491
     49.2946	  14.000	   6.899	-242.149	   5.493
     49.3281	   5.000	   6.901	-251.151	   5.496
     49.3615	  10.000	   6.902	-246.152	   5.498
     49.3949	  12.000	   6.904	-244.154	   5.500
     49.4283	   9.000	   6.906	-247.156	   5.502
     49.4617	   7.000	   6.907	-249.157	   5.505
     49.4952	   3.000	   6.909	-253.159	   5.507
     49.5286	   4.000	   6.911	-252.161	   5.509
     49.5620	   5.000	   6.912	-251.162	   5.511
     49.5954	   7.000	   6.914	-249.164	   5.513
     49.6289	   8.000	   6.916	-248.166	   5.516
     49.6623	  10.000	   6.918	-246.168	   5.518
     49.6957	   4.000	   6.920	-252.170	   5.520
     49.7291	  16.000	   6.921	-240.171	   5.522
     49.7626	  16.000	   6.923	-240.173	   5.525
     49.7960	  16.000	   6.925	-240.175	   5.527
     49.8294	   7.000	   6.927	-249.177	   5.529
     49.8628	   6.000	   6.929	-250.179	   5.531
     49.8962	   6.000	   6.931	-250.181	   5.533
     49.9297	  12.000	   6.933	-244.183	   5.536
     49.9631	   2.000	   6.935	-254.185	   5.538
     49.9965	   6.000	   6.937	-250.187	   5.540
     50.0299	  10.000	   6.939	-246.189	   5.542
     50.0634	  10.000	   6.940	-246.190	   5.545
     50.0968	   8.000	   6.942	-248.192	   5.547
     50.1302	   8.000	   6.944	-248.194	   5.549
     50.1636	   5.000	   6.946	-251.196	   5.551
     50.1970	   9.000	   7.050	-247.300	   5.553
     50.2305	   7.000	   7.055	-249.305	   5.556
     50.2639	   7.000	   7.059	-249.309	   5.558
     50.2973	   8.000	   7.063	-248.313	   5.560
     50.3307	   5.000	   7.118	-251.368	   5.562
     50.3642	   7.000	   7.123	-249.373	   5.564
     50.3976	   3.000	   7.129	-253.379	   5.567
     50.4310	   7.000	   7.135	-249.385	   5.569
     50.4644	   7.000	   7.140	-249.390	   5.571
     50.4978	   7.000	   7.146	-249.396	   5.573
     50.5313	   5.000	   7.153	-251.403	   5.576
     50.5647	  19.000	   7.159	-237.409	   5.578
     50.5981	   5.000	   7.160	-251.410	   5.580
     50.6315	   5.000	   7.167	-251.417	   5.582
     50.6650	   6.000	   7.174	-250.424	   5.584
     50.6984	   6.000	   7.180	-250.430	   5.587
     50.7318	   8.000	   7.185	-248.435	   5.589
     50.7652	   6.000	   7.192	-250.442	   5.591
     50.7986	   9.000	   7.200	-247.450	   5.593
     50.8321	   5.000	   7.208	-251.458	   5.596
     50.8655	  14.000	   7.216	-242.466	   5.598
     50.8989	   9.000	   7.224	-247.474	   5.600
     50.9323	  12.000	   7.233	-244.483	   5.602
     50.9658	   7.000	   7.241	-249.491	   5.604
     50.9992	   8.000	   7.250	-248.500	   5.607
     51.0326	   6.000	   7.259	-250.509	   5.609
     51.0660	   7.000	   7.269	-249.519	   5.611
     51.0994	   6.000	   7.279	-250.529	   5.613
     51.1329	  14.000	   7.289	-242.539	   5.616
     51.1663	  14.000	   7.299	-242.549	   5.618
     51.1997	   6.000	   7.310	-250.560	   5.620
     51.2331	   8.000	   7.322	-248.572	   5.622
     51.2666	  12.000	   7.333	-244.583	   5.624
     51.3000	   9.000	   7.345	-247.595	   5.627
     51.3334	   6.000	   7.358	-250.608	   5.629
     51.3668	   7.000	   7.371	-249.621	   5.631
     51.4003	   5.000	   7.384	-251.634	   5.633
     51.4337	   8.000	   7.398	-248.648	   5.636
     51.4671	   4.000	   7.413	-252.663	   5.638
     51.5005	   7.000	   7.428	-249.678	   5.640
     51.5339	  13.000	   7.444	-243.694	   5.642
     51.5674	   2.000	   7.461	-254.711	   5.644
     51.6008	  10.000	   7.478	-246.728	   5.647
     51.6342	  10.000	   7.496	-246.746	   5.649
     51.6676	   3.000	   7.516	-253.766	   5.651
     51.7011	  13.000	   7.536	-243.786	   5.653
     51.7345	   6.000	   7.557	-250.807	   5.656
     51.7679	   8.000	   7.579	-248.829	   5.658
     51.8013	   9.000	   7.602	-247.852	   5.660
     51.8347	   8.000	   7.627	-248.877	   5.662
     51.8682	   8.000	   7.653	-248.903	   5.664
     51.9016	  14.000	   7.680	-242.930	   5.667
     51.9350	   7.000	   7.709	-249.959	   5.669
     51.9684	   8.000	   7.740	-248.990	   5.671
     52.0019	  14.000	   7.773	-243.023	   5.673
     52.0353	  10.000	   7.807	-247.057	   5.676
     52.0687	   7.000	   7.845	-250.095	   5.678
     52.1021	  16.000	   7.884	-241.134	   5.680
     52.1356	  10.000	   7.926	-247.176	   5.682
     52.1690	   4.000	   7.972	-253.222	   5.684
     52.2024	   6.000	   8.020	-251.270	   5.687
     52.2358	   3.000	   8.073	-254.323	   5.689
     52.2692	   6.000	   8.129	-251.379	   5.691
     52.3027	   6.000	   8.190	-251.440	   5.693
     52.3361	   8.000	   8.256	-249.506	   5.696
     52.3695	   6.000	   8.327	-251.577	   5.698
     52.4029	   8.000	   8.405	-249.655	   5.700
     52.4364	  12.000	   8.490	-245.740	   5.702
     52.4698	   8.000	   8.582	-249.832	   5.704
     52.5032	   5.000	   8.684	-252.934	   5.707
     52.5366	  18.000	   8.796	-240.046	   5.709
     52.5700	  14.000	   8.920	-244.170	   5.711
     52.6035	   8.000	   9.057	-250.307	   5.713
     52.6369	   5.000	   9.209	-253.459	   5.716
     52.6703	  10.000	   9.380	-248.630	   5.718
     52.7037	  12.000	   9.571	-246.821	   5.720
     52.7372	   8.000	   9.786	-251.036	   5.722
     52.7706	  13.000	  10.030	-246.280	   5.724
     52.8040	   9.000	  10.308	-250.558	   5.727
     52.8374	  12.000	  10.626	-247.876	   5.729
     52.8708	  14.000	  10.993	-246.243	   5.731
     52.9043	   7.000	  11.419	-253.669	   5.733
     52.9377	   6.000	  11.918	-255.168	   5.736
     52.9711	   9.000	  12.507	-252.757	   5.738
     53.0045	  14.000	  13.212	-248.462	   5.740
     53.0380	  14.000	  14.067	-249.317	   5.742
     53.0714	  12.000	  15.120	-252.370	   5.744
     53.1048	  26.000	  16.443	-239.693	   5.747
     53.1382	  19.000	  18.132	-248.382	   5.749
     53.1716	  22.000	  20.319	-247.569	   5.751
     53.2051	  21.000	  23.178	-251.428	   5.753
     53.2385	  26.000	  26.921	-250.171	   5.756
     53.2719	  38.000	  31.784	-243.034	   5.758
     53.3053	  33.000	  37.990	-254.240	   5.760
     53.3388	  42.000	  45.655	-252.905	   5.762
     53.3722	  46.000	  54.550	-257.800	   5.764
     53.4056	  53.000	  63.759	-260.009	   5.767
     53.4390	  64.000	  71.458	-256.708	   5.769
     53.4725	  73.000	  75.664	-251.914	   5.771
     53.5059	  57.000	  75.763	-268.013	   5.773
     53.5393	  65.000	  72.874	-257.124	   5.776
     53.5727	  58.000	  68.291	-259.541	   5.778
     53.6061	  48.000	  62.398	-263.648	   5.780
     53.6396	  44.000	  55.295	-260.545	   5.782
     53.6730	  36.000	  47.604	-260.854	   5.784
     53.7064	  40.000	  40.624	-249.874	   5.787
     53.7398	  32.000	  34.275	-251.525	   5.789
     53.7733	  21.000	  29.101	-257.351	   5.791
     53.8067	  19.000	  25.025	-255.275	   5.793
     53.8401	  18.000	  21.867	-253.117	   5.796
     53.8735	  18.000	  19.614	-250.864	   5.798
     53.9069	  24.000	  17.738	-242.988	   5.800
     53.9404	  18.000	  16.279	-247.529	   5.802
     53.9738	  19.000	  15.130	-245.380	   5.804
     54.0072	  18.000	  14.211	-245.461	   5.807
     54.0406	  15.000	  13.465	-247.715	   5.809
     54.0741	  14.000	  12.850	-248.100	   5.811
     54.1075	  19.000	  12.337	-242.587	   5.813
     54.1409	  19.000	  11.906	-242.156	   5.816
     54.1743	  17.000	  11.539	-243.789	   5.818
     54.2077	  10.000	  11.225	-250.475	   5.820
     54.2412	   6.000	  10.956	-254.206	   5.822
     54.2746	   8.000	  10.723	-251.973	   5.824
     54.3080	  14.000	  10.522	-245.772	   5.827
     54.3414	  14.000	  10.346	-245.596	   5.829
     54.3749	  12.000	  10.194	-247.444	   5.831
     54.4083	  12.000	  10.061	-247.311	   5.833
     54.4417	  16.000	   9.945	-243.195	   5.835
     54.4751	  10.000	   9.844	-249.094	   5.838
     54.5086	   6.000	   9.757	-253.007	   5.840
     54.5420	   4.000	   9.681	-254.931	   5.842
     54.5754	   6.000	   9.615	-252.865	   5.844
     54.6088	  10.000	   9.558	-248.808	   5.847
     54.6422	  14.000	   9.511	-244.761	   5.849
     54.6757	  13.000	   9.470	-245.720	   5.851
     54.7091	  15.000	   9.437	-243.687	   5.853
     54.7425	  15.000	   9.411	-243.661	   5.855
     54.7759	   3.000	   9.390	-255.640	   5.858
     54.8093	  13.000	   9.375	-245.625	   5.860
     54.8428	  12.000	   9.365	-246.615	   5.862
     54.8762	  10.000	   9.361	-248.611	   5.864
     54.9096	  15.000	   9.361	-243.611	   5.867
     54.9430	  18.000	   9.366	-240.616	   5.869
     54.9765	  17.000	   9.376	-241.626	   5.871
     55.0099	   7.000	   9.390	-251.640	   5.873
     55.0433	  16.000	   9.409	-242.659	   5.875
     55.0767	  13.000	   9.432	-245.682	   5.878
     55.1102	  10.000	   9.459	-248.709	   5.880
     55.1436	  13.000	   9.491	-245.741	   5.882
     55.1770	  16.000	   9.527	-242.777	   5.884
     55.2104	   7.000	   9.568	-251.818	   5.887
     55.2438	  17.000	   9.613	-241.863	   5.889
     55.2773	   8.000	   9.664	-250.914	   5.891
     55.3107	  10.000	   9.720	-248.970	   5.893
     55.3441	  15.000	   9.781	-244.031	   5.895
     55.3775	  12.000	   9.847	-247.097	   5.898
     55.4110	  12.000	   9.920	-247.170	   5.900
     55.4444	  10.000	   9.998	-249.248	   5.902
     55.4778	  21.000	  10.084	-238.334	   5.904
     55.5112	  10.000	  10.177	-249.427	   5.907
     55.5446	  15.000	  10.277	-244.527	   5.909
     55.5781	  14.000	  10.386	-245.636	   5.911
     55.6115	  16.000	  10.504	-243.754	   5.913
     55.6449	  18.000	  10.631	-241.881	   5.915
     55.6783	   6.000	  10.769	-254.019	   5.918
     55.7118	   9.000	  10.919	-251.169	   5.920
     55.7452	  16.000	  11.082	-244.332	   5.922
     55.7786	   9.000	  11.258	-251.508	   5.924
     55.8120	   6.000	  11.450	-254.700	   5.927
     55.8455	   9.000	  11.659	-251.909	   5.929
     55.8789	  14.000	  11.887	-247.137	   5.931
     55.9123	   7.000	  12.136	-254.387	   5.933
     55.9457	  14.000	  12.410	-247.660	   5.935
     55.9791	  16.000	  12.709	-245.959	   5.938
     56.0126	   6.000	  13.039	-256.289	   5.940
     56.0460	   7.000	  13.403	-255.653	   5.942
     56.0794	  12.000	  13.805	-251.055	   5.944
     56.1128	   5.000	  14.252	-258.502	   5.947
     56.1463	  25.000	  14.749	-238.999	   5.949
     56.1797	  16.000	  15.305	-248.555	   5.951
     56.2131	  20.000	  15.928	-245.178	   5.953
     56.2465	  22.000	  16.629	-243.879	   5.955
     56.2799	  17.000	  17.424	-249.674	   5.958
     56.3134	  21.000	  18.326	-246.576	   5.960
     56.3468	  20.000	  19.358	-248.608	   5.962
     56.3802	   9.000	  20.545	-260.795	   5.964
     56.4136	  14.000	  21.919	-257.169	   5.967
     56.4471	  29.000	  23.522	-243.772	   5.969
     56.4805	  18.000	  25.407	-256.657	   5.971
     56.5139	  28.000	  27.650	-248.900	   5.973
     56.5473	  46.000	  30.353	-233.603	   5.975
     56.5807	  26.000	  33.657	-256.907	   5.978
     56.6142	  39.000	  37.760	-248.010	   5.980
     56.6476	  44.000	  42.938	-248.188	   5.982
     56.6810	  66.000	  49.557	-232.807	   5.984
     56.7144	  68.000	  58.092	-239.342	   5.987
     56.7479	  61.000	  69.121	-257.371	   5.989
     56.7813	  70.000	  83.309	-262.559	   5.991
     56.8147	  81.000	 101.318	-269.568	   5.993
     56.8481	 102.000	 123.590	-270.840	   5.995
     56.8816	 158.000	 149.871	-241.121	   5.998
     56.9150	 163.000	 178.306	-264.556	   6.000
     56.9484	 226.000	 204.609	-227.859	   6.002
     56.9818	 229.000	 222.710	-242.960	   6.004
     57.0152	 259.000	 228.801	-219.051	   6.007
     57.0487	 178.000	 224.039	-295.289	   6.009
     57.0821	 162.000	 212.753	-300.003	   6.011
     57.1155	 170.000	 197.687	-276.937	   6.013
     57.1489	 171.000	 179.134	-257.384	   6.015
     57.1824	 137.000	 157.238	-269.488	   6.018
     57.2158	 117.000	 133.939	-266.189	   6.020
     57.2492	 110.000	 111.842	-251.092	   6.022
     57.2826	  89.000	  92.657	-252.907	   6.024
     57.3160	  55.000	  76.884	-271.134	   6.027
     57.3495	  63.000	  64.300	-250.550	   6.029
     57.3829	  54.000	  54.416	-249.666	   6.031
     57.4163	  55.000	  46.689	-240.939	   6.033
     57.4497	  34.000	  40.643	-255.893	   6.035
     57.4832	  46.000	  35.875	-239.125	   6.038
     57.5166	  22.000	  32.074	-259.324	   6.040
     57.5500	  28.000	  29.003	-250.253	   6.042
     57.5834	  29.000	  26.486	-246.736	   6.044
     57.6168	  28.000	  24.393	-245.643	   6.047
     57.6503	  19.000	  22.631	-252.881	   6.049
     57.6837	  19.000	  21.131	-251.381	   6.051
     57.7171	  16.000	  19.844	-253.094	   6.053
     57.7505	  21.000	  18.730	-246.980	   6.055
     57.7840	  18.000	  17.759	-249.009	   6.058
     57.8174	  20.000	  16.908	-246.158	   6.060
     57.8508	  12.000	  16.158	-253.408	   6.062
     57.8842	  17.000	  15.494	-247.744	   6.064
     57.9176	  15.000	  14.903	-249.153	   6.067
     57.9511	  18.000	  14.375	-245.625	   6.069
     57.9845	   8.000	  13.901	-255.151	   6.071
     58.0179	  16.000	  13.475	-246.725	   6.073
     58.0513	  14.000	  13.090	-248.340	   6.075
     58.0848	   8.000	  12.741	-253.991	   6.078
     58.1182	   9.000	  12.424	-252.674	   6.080
     58.1516	  13.000	  12.135	-248.385	   6.082
     58.1850	   5.000	  11.871	-256.121	   6.084
     58.2185	  12.000	  11.628	-248.878	   6.086
     58.2519	   8.000	  11.406	-252.656	   6.089
     58.2853	   8.000	  11.201	-252.451	   6.091
     58.3187	   8.000	  11.012	-252.262	   6.093
     58.3521	  10.000	  10.838	-250.088	   6.095
     58.3856	  12.000	  10.676	-247.926	   6.098
     58.4190	  15.000	  10.526	-244.776	   6.100
     58.4524	  14.000	  10.387	-245.637	   6.102
     58.4858	   8.000	  10.257	-251.507	   6.104
     58.5193	  10.000	  10.137	-249.387	   6.106
     58.5527	   5.000	  10.024	-254.274	   6.109
     58.5861	  10.000	   9.918	-249.168	   6.111
     58.6195	   8.000	   9.819	-251.069	   6.113
     58.6529	  12.000	   9.727	-246.977	   6.115
     58.6864	   5.000	   9.640	-253.890	   6.118
     58.7198	   5.000	   9.558	-253.808	   6.120
     58.7532	   8.000	   9.481	-250.731	   6.122
     58.7866	  14.000	   9.409	-244.659	   6.124
     58.8201	   8.000	   9.341	-250.591	   6.126
     58.8535	   4.000	   9.276	-254.526	   6.129
     58.8869	   7.000	   9.215	-251.465	   6.131
     58.9203	   8.000	   9.158	-250.408	   6.133
     58.9538	   7.000	   9.104	-251.354	   6.135
     58.9872	   8.000	   9.052	-250.302	   6.138
     59.0206	   6.000	   9.003	-252.253	   6.140
     59.0540	  13.000	   8.957	-245.207	   6.142
     59.0874	   9.000	   8.913	-249.163	   6.144
     59.1209	   7.000	   8.871	-251.121	   6.146
     59.1543	   7.000	   8.831	-251.081	   6.149
     59.1877	   7.000	   8.794	-251.044	   6.151
     59.2211	  10.000	   8.758	-248.008	   6.153
     59.2545	  13.000	   9.233	-245.483	   6.155
     59.2880	   9.000	   9.211	-249.461	   6.158
     59.3214	   5.000	   9.190	-253.440	   6.160
     59.3548	   9.000	   9.171	-249.421	   6.162
     59.3882	   9.000	   9.155	-249.405	   6.164
     59.4217	   7.000	   9.139	-251.389	   6.166
     59.4551	  19.000	   9.384	-239.634	   6.169
     59.4885	  10.000	   9.377	-248.627	   6.171
     59.5219	  12.000	   9.372	-246.622	   6.173
     59.5554	   8.000	   9.368	-250.618	   6.175
     59.5888	   6.000	   9.366	-252.616	   6.178
     59.6222	   7.000	   9.366	-251.616	   6.180
     59.6556	  16.000	   9.367	-242.617	   6.182
     59.6890	  13.000	   9.369	-245.619	   6.184
     59.7225	   6.000	   9.374	-252.624	   6.186
     59.7559	   4.000	   9.379	-254.629	   6.189
     59.7893	   9.000	   9.387	-249.637	   6.191
     59.8227	  15.000	   9.396	-243.646	   6.193
     59.8562	  10.000	   9.406	-248.656	   6.195
     59.8896	   6.000	   9.418	-252.668	   6.198
     59.9230	  12.000	   9.431	-246.681	   6.200
     59.9564	  10.000	   9.447	-248.697	   6.202
     59.9898	  10.000	   9.463	-248.713	   6.204
     60.0233	  13.000	   9.482	-245.732	   6.206
     60.0567	   7.000	   9.502	-251.752	   6.209
     60.0901	  12.000	   9.524	-246.774	   6.211
     60.1235	  10.000	   9.548	-248.798	   6.213
     60.1570	  14.000	   9.573	-244.823	   6.215
     60.1904	   9.000	   9.601	-249.851	   6.218
     60.2238	  10.000	   9.630	-248.880	   6.220
     60.2572	  10.000	   9.661	-248.911	   6.222
     60.2906	  13.000	   9.695	-245.945	   6.224
     60.3241	   6.000	   9.731	-252.981	   6.226
     60.3575	  10.000	   9.769	-249.019	   6.229
     60.3909	  10.000	   9.810	-249.060	   6.231
     60.4243	   9.000	   9.853	-250.103	   6.233
     60.4578	   9.000	   9.898	-250.148	   6.235
     60.4912	  14.000	   9.947	-245.197	   6.238
     60.5246	  12.000	   9.998	-247.248	   6.240
     60.5580	   9.000	   9.749	-249.999	   6.242
     60.5915	  10.000	   9.812	-249.062	   6.244
     60.6249	  14.000	   9.879	-245.129	   6.246
     60.6583	  13.000	   9.950	-246.200	   6.249
     60.6917	  15.000	   9.871	-244.121	   6.251
     60.7251	   9.000	   9.952	-250.202	   6.253
     60.7586	  12.000	  10.037	-247.287	   6.255
     60.7920	  10.000	  10.127	-249.377	   6.258
     60.8254	  10.000	  10.221	-249.471	   6.260
     60.8588	  10.000	  10.321	-249.571	   6.262
     60.8923	  17.000	  10.427	-242.677	   6.264
     60.9257	  16.000	  10.539	-243.789	   6.266
     60.9591	   9.000	  10.657	-250.907	   6.269
     60.9925	  14.000	  10.782	-246.032	   6.271
     61.0259	  19.000	  10.915	-241.165	   6.273
     61.0594	  15.000	  11.057	-245.307	   6.275
     61.0928	   9.000	  11.207	-251.457	   6.278
     61.1262	  17.000	  11.368	-243.618	   6.280
     61.1596	  12.000	  11.539	-248.789	   6.282
     61.1931	  10.000	  11.723	-250.973	   6.284
     61.2265	  13.000	  11.919	-248.169	   6.286
     61.2599	  10.000	  12.129	-251.379	   6.289
     61.2933	  14.000	  12.355	-247.605	   6.291
     61.3267	  13.000	  12.598	-248.848	   6.293
     61.3602	  30.000	  12.861	-232.111	   6.295
     61.3936	  14.000	  13.144	-248.394	   6.298
     61.4270	  15.000	  13.451	-247.701	   6.300
     61.4604	  12.000	  13.784	-251.034	   6.302
     61.4939	   8.000	  14.146	-255.396	   6.304
     61.5273	  15.000	  14.541	-248.791	   6.306
     61.5607	  21.000	  14.972	-243.222	   6.309
     61.5941	  12.000	  15.445	-252.695	   6.311
     61.6275	  15.000	  15.965	-250.215	   6.313
     61.6610	  18.000	  16.538	-247.788	   6.315
     61.6944	  17.000	  17.172	-249.422	   6.318
     61.7278	  22.000	  17.876	-245.126	   6.320
     61.7612	  29.000	  18.659	-238.909	   6.322
     61.7947	  20.000	  19.536	-248.786	   6.324
     61.8281	  25.000	  20.521	-244.771	   6.326
     61.8615	  16.000	  21.631	-254.881	   6.329
     61.8949	  27.000	  22.891	-245.141	   6.331
     61.9284	  20.000	  24.326	-253.576	   6.333
     61.9618	  28.000	  25.972	-247.222	   6.335
     61.9952	  29.000	  27.873	-248.123	   6.338
     62.0286	  30.000	  30.083	-249.333	   6.340
     62.0620	  41.000	  32.678	-240.928	   6.342
     62.0955	  37.000	  35.757	-248.007	   6.344
     62.1289	  30.000	  39.455	-258.705	   6.346
     62.1623	  33.000	  43.954	-260.204	   6.349
     62.1957	  51.000	  49.505	-247.755	   6.351
     62.2292	  70.000	  56.433	-235.683	   6.353
     62.2626	  67.000	  65.166	-247.416	   6.355
     62.2960	  75.000	  76.224	-250.474	   6.357
     62.3294	  86.000	  90.233	-253.483	   6.360
     62.3628	  92.000	 107.880	-265.130	   6.362
     62.3963	 110.000	 129.788	-269.038	   6.356
     62.4297	 124.000	 156.319	-281.569	   6.350
     62.4631	 156.000	 187.045	-280.295	   6.344
     62.4965	 206.000	 219.802	-263.052	   6.338
     62.5300	 253.000	 250.093	-246.343	   6.332
     62.5634	 251.000	 271.765	-270.015	   6.327
     62.5968	 258.000	 280.439	-271.689	   6.321
     62.6302	 232.000	 276.783	-294.033	   6.315
     62.6637	 254.000	 265.350	-260.600	   6.309
     62.6971	 225.000	 250.019	-274.269	   6.303
     62.7305	 195.000	 231.720	-285.970	   6.297
     62.7639	 214.000	 209.732	-244.982	   6.291
     62.7973	 166.000	 184.486	-267.736	   6.286
     62.8308	 125.000	 158.244	-282.494	   6.280
     62.8642	 127.000	 133.568	-255.818	   6.274
     62.8976	  86.000	 112.018	-275.268	   6.268
     62.9310	  65.000	  94.060	-278.310	   6.262
     62.9645	  65.000	  79.488	-263.738	   6.256
     62.9979	  45.000	  67.820	-272.070	   6.250
     63.0313	  66.000	  58.519	-241.769	   6.244
     63.0647	  46.000	  51.102	-254.352	   6.239
     63.0981	  40.000	  45.157	-254.407	   6.233
     63.1316	  33.000	  40.352	-256.602	   6.227
     63.1650	  40.000	  36.423	-245.673	   6.221
     63.1984	  32.000	  33.174	-250.424	   6.215
     63.2318	  27.000	  30.453	-252.703	   6.209
     63.2653	  41.000	  28.150	-236.400	   6.203
     63.2987	  27.000	  26.179	-248.429	   6.198
     63.3321	  25.000	  24.478	-248.728	   6.192
     63.3655	  28.000	  22.999	-244.249	   6.186
     63.3989	   8.000	  21.705	-262.955	   6.180
     63.4324	  14.000	  20.565	-255.815	   6.174
     63.4658	  27.000	  19.557	-241.807	   6.168
     63.4992	  19.000	  18.660	-248.910	   6.162
     63.5326	  16.000	  17.858	-251.108	   6.156
     63.5661	  15.000	  17.140	-251.390	   6.151
     63.5995	  25.000	  16.493	-240.743	   6.145
     63.6329	  13.000	  15.908	-252.158	   6.139
     63.6663	  15.000	  15.379	-249.629	   6.133
     63.6997	  10.000	  14.897	-254.147	   6.127
     63.7332	  22.000	  14.458	-241.708	   6.121
     63.7666	  17.000	  14.056	-246.306	   6.115
     63.8000	  19.000	  13.687	-243.937	   6.110
     63.8334	  19.000	  13.349	-243.599	   6.104
     63.8669	   7.000	  13.037	-255.287	   6.098
     63.9003	   8.000	  12.749	-253.999	   6.092
     63.9337	  14.000	  12.482	-247.732	   6.086
     63.9671	  12.000	  12.235	-249.485	   6.080
     64.0005	  10.000	  12.006	-251.256	   6.074
     64.0340	  12.000	  11.792	-249.042	   6.068
     64.0674	  14.000	  11.593	-246.843	   6.063
     64.1008	  14.000	  11.408	-246.658	   6.057
     64.1342	   9.000	  11.234	-251.484	   6.051
     64.1677	   9.000	  11.072	-251.322	   6.045
     64.2011	   7.000	  10.920	-253.170	   6.039
     64.2345	  14.000	  10.777	-246.027	   6.033
     64.2679	  15.000	  10.643	-244.893	   6.027
     64.3014	  16.000	  10.517	-243.767	   6.022
     64.3348	  13.000	  10.398	-246.648	   6.016
     64.3682	  12.000	  10.287	-247.537	   6.010
     64.4016	   4.000	  10.182	-255.432	   6.004
     64.4350	  14.000	  10.082	-245.332	   5.998
     64.4685	   7.000	   9.989	-252.239	   5.992
     64.5019	  10.000	   9.901	-249.151	   5.986
     64.5353	   7.000	   9.818	-252.068	   5.981
     64.5687	  10.000	   9.740	-248.990	   5.975
     64.6022	   6.000	   9.666	-252.916	   5.969
     64.6356	   6.000	   9.597	-252.847	   5.963
     64.6690	  15.000	   9.531	-243.781	   5.957
     64.7024	   6.000	   9.470	-252.720	   5.951
     64.7358	   7.000	   9.413	-251.663	   5.945
     64.7693	   8.000	   9.359	-250.609	   5.939
     64.8027	   7.000	   9.309	-251.559	   5.934
     64.8361	   8.000	   9.263	-250.513	   5.928
     64.8695	  10.000	   9.221	-248.471	   5.922
     64.9030	   6.000	   9.183	-252.433	   5.916
     64.9364	  13.000	   9.148	-245.398	   5.910
     64.9698	   7.000	   9.118	-251.368	   5.904
     65.0032	   9.000	   9.091	-249.341	   5.898
     65.0367	  12.000	   9.070	-246.320	   5.893
     65.0701	  12.000	   9.053	-246.303	   5.887
     65.1035	  10.000	   9.041	-248.291	   5.881
     65.1369	   8.000	   9.036	-250.286	   5.875
     65.1703	  13.000	   9.037	-245.287	   5.869
     65.2038	   4.000	   9.046	-254.296	   5.863
     65.2372	  15.000	   9.065	-243.315	   5.857
     65.2706	   8.000	   9.094	-250.344	   5.851
     65.3040	   5.000	   9.136	-253.386	   5.846
     65.3374	   7.000	   9.195	-251.445	   5.840
     65.3709	   8.000	   9.274	-250.524	   5.834
     65.4043	   6.000	   9.381	-252.631	   5.828
     65.4377	   6.000	   9.521	-252.771	   5.822
     65.4711	   7.000	   9.705	-251.955	   5.816
     65.5046	  15.000	   9.944	-244.194	   5.810
     65.5380	  10.000	  10.253	-249.503	   5.805
     65.5714	   6.000	  10.646	-253.896	   5.799
     65.6048	  10.000	  11.136	-250.386	   5.793
     65.6383	   8.000	  11.733	-252.983	   5.787
     65.6717	  12.000	  12.427	-249.677	   5.781
     65.7051	  15.000	  13.175	-247.425	   5.775
     65.7385	  12.000	  13.882	-251.132	   5.769
     65.7719	  14.000	  14.416	-249.666	   5.763
     65.8054	  13.000	  14.665	-250.915	   5.758
     65.8388	  10.000	  14.618	-253.868	   5.752
     65.8722	  18.000	  14.365	-245.615	   5.746
     65.9056	  13.000	  14.010	-250.260	   5.740
     65.9391	   9.000	  13.597	-253.847	   5.734
     65.9725	   7.000	  13.114	-255.364	   5.728
     66.0059	   8.000	  12.546	-253.796	   5.722
     66.0393	  14.000	  11.920	-247.170	   5.717
     66.0727	  15.000	  11.293	-245.543	   5.711
     66.1062	   9.000	  10.716	-250.966	   5.705
     66.1396	   4.000	  10.214	-255.464	   5.699
     66.1730	   7.000	   9.793	-252.043	   5.693
     66.2064	  12.000	   9.447	-246.697	   5.687
     66.2399	  10.000	   8.746	-247.996	   5.681
     66.2733	   8.000	   8.522	-249.772	   5.676
     66.3067	  12.000	   8.341	-245.591	   5.670
     66.3401	   7.000	   8.192	-250.442	   5.664
     66.3736	   8.000	   8.068	-249.318	   5.658
     66.4070	   4.000	   7.756	-253.006	   5.652
     66.4404	   7.000	   7.672	-249.922	   5.646
     66.4738	   7.000	   7.601	-249.851	   5.640
     66.5072	   6.000	   7.539	-250.789	   5.634
     66.5407	   5.000	   7.486	-251.736	   5.629
     66.5741	   3.000	   7.439	-253.689	   5.623
     66.6075	   4.000	   7.397	-252.647	   5.617
     66.6409	   1.000	   7.360	-255.610	   5.611
     66.6744	   6.000	   7.327	-250.577	   5.605
     66.7078	   4.000	   7.297	-252.547	   5.599
     66.7412	   7.000	   7.270	-249.520	   5.593
     66.7746	   6.000	   7.245	-250.495	   5.588
     66.8080	   5.000	   7.222	-251.472	   5.582
     66.8415	   7.000	   7.201	-249.451	   5.576
     66.8749	   6.000	   7.180	-250.430	   5.570
     66.9083	   4.000	   7.161	-252.411	   5.564
     66.9417	   6.000	   7.143	-250.393	   5.558
     66.9752	   7.000	   7.125	-249.375	   5.552
     67.0086	   4.000	   7.108	-252.358	   5.546
     67.0420	   7.000	   7.093	-249.343	   5.541
     67.0754	  13.000	   7.077	-243.327	   5.535
     67.1088	   6.000	   7.063	-250.313	   5.529
     67.1423	   6.000	   7.049	-250.299	   5.523
     67.1757	   4.000	   7.035	-252.285	   5.517
     67.2091	   7.000	   7.022	-249.272	   5.511
     67.2425	   4.000	   7.010	-252.260	   5.505
     67.2760	   7.000	   6.999	-249.249	   5.500
     67.3094	  10.000	   6.987	-246.237	   5.494
     67.3428	   9.000	   6.976	-247.226	   5.488
     67.3762	   4.000	   6.966	-252.216	   5.482
     67.4097	   7.000	   6.956	-249.206	   5.476
     67.4431	   9.000	   6.946	-247.196	   5.470
     67.4765	   9.000	   6.936	-247.186	   5.464
     67.5099	   8.000	   6.927	-248.177	   5.459
     67.5433	   7.000	   6.918	-249.168	   5.453
     67.5768	   1.000	   6.909	-255.159	   5.447
     67.6102	   5.000	   6.946	-251.196	   5.441
     67.6436	   3.000	   6.938	-253.188	   5.435
     67.6770	   7.000	   6.931	-249.181	   5.429
     67.7104	  12.000	   6.923	-244.173	   5.423
     67.7439	   4.000	   6.916	-252.166	   5.417
     67.7773	   6.000	   6.909	-250.159	   5.412
     67.8107	   7.000	   6.925	-249.175	   5.406
     67.8441	   9.000	   6.919	-247.169	   5.400
     67.8776	   5.000	   6.913	-251.163	   5.394
     67.9110	   5.000	   6.907	-251.157	   5.388
     67.9444	   4.000	   6.901	-252.151	   5.382
     67.9778	   8.000	   6.895	-248.145	   5.376
     68.0113	  10.000	   6.890	-246.140	   5.371
     68.0447	   8.000	   6.884	-248.134	   5.365
     68.0781	   7.000	   6.879	-249.129	   5.359
     68.1115	  13.000	   6.874	-243.124	   5.353
     68.1449	   5.000	   6.869	-251.119	   5.347
     68.1784	   6.000	   6.864	-250.114	   5.341
     68.2118	  12.000	   6.859	-244.109	   5.335
     68.2452	   6.000	   6.855	-250.105	   5.329
     68.2786	   3.000	   6.850	-253.100	   5.324
     68.3121	   8.000	   6.846	-248.096	   5.318
     68.3455	   5.000	   6.841	-251.091	   5.312
     68.3789	  12.000	   6.837	-244.087	   5.306
     68.4123	   5.000	   6.833	-251.083	   5.300
     68.4457	   8.000	   6.830	-248.080	   5.294
     68.4792	  10.000	   6.826	-246.076	   5.288
     68.5126	   7.000	   6.822	-249.072	   5.283
     68.5460	   1.000	   6.819	-255.069	   5.277
     68.5794	  12.000	   6.816	-244.066	   5.271
     68.6129	   3.000	   6.813	-253.063	   5.265
     68.6463	   2.000	   6.810	-254.060	   5.259
     68.6797	   6.000	   6.807	-250.057	   5.253
     68.7131	   9.000	   6.805	-247.055	   5.247
     68.7466	   9.000	   6.802	-247.052	   5.241
     68.7800	   4.000	   6.800	-252.050	   5.236
     68.8134	   4.000	   6.799	-252.049	   5.230
     68.8468	   5.000	   6.797	-251.047	   5.224
     68.8802	   8.000	   6.795	-248.046	   5.218
     68.9137	   6.000	   6.794	-250.044	   5.212
     68.9471	   4.000	   6.794	-252.044	   5.206
     68.9805	   8.000	   6.793	-248.043	   5.200
     69.0139	   5.000	   6.793	-251.043	   5.195
     69.0474	   6.000	   6.793	-250.043	   5.189
     69.0808	   9.000	   6.793	-247.043	   5.183
     69.1142	   8.000	   6.794	-248.044	   5.177
     69.1476	   3.000	   6.795	-253.045	   5.171
     69.1810	   4.000	   6.797	-252.047	   5.165
     69.2145	   5.000	   6.799	-251.049	   5.159
     69.2479	   8.000	   6.801	-248.051	   5.154
     69.2813	   6.000	   6.804	-250.054	   5.148
     69.3147	   6.000	   6.808	-250.058	   5.142
     69.3482	  10.000	   6.812	-246.062	   5.136
     69.3816	  10.000	   6.817	-246.067	   5.130
     69.4150	   9.000	   6.822	-247.072	   5.124
     69.4484	   8.000	   6.828	-248.078	   5.118
     69.4818	   9.000	   6.835	-247.085	   5.112
     69.5153	   8.000	   6.832	-248.082	   5.107
     69.5487	   7.000	   6.841	-249.091	   5.101
     69.5821	  10.000	   6.851	-246.101	   5.095
     69.6155	   6.000	   6.862	-250.112	   5.089
     69.6490	   7.000	   6.875	-249.125	   5.083
     69.6824	  12.000	   6.883	-244.133	   5.077
     69.7158	   2.000	   6.898	-254.148	   5.071
     69.7492	   6.000	   6.915	-250.165	   5.066
     69.7826	   8.000	   6.934	-248.184	   5.060
     69.8161	   9.000	   6.955	-247.205	   5.054
     69.8495	   7.000	   6.978	-249.228	   5.048
     69.8829	  12.000	   7.004	-244.254	   5.042
     69.9163	   8.000	   7.032	-248.282	   5.036
     69.9498	   4.000	   7.063	-252.313	   5.030
     69.9832	  10.000	   7.098	-246.348	   5.024
     70.0166	   7.000	   7.137	-249.387	   5.019
     70.0500	  10.000	   7.180	-246.430	   5.013
     70.0835	  12.000	   7.229	-244.479	   5.007
     70.1169	   5.000	   7.283	-251.533	   5.001
     70.1503	   9.000	   7.344	-247.594	   4.995
     70.1837	   7.000	   7.412	-249.662	   4.989
     70.2171	  12.000	   7.490	-244.740	   4.983
     70.2506	   9.000	   7.577	-247.827	   4.978
     70.2840	  12.000	   7.677	-244.927	   4.972
     70.3174	   5.000	   7.791	-252.041	   4.966
     70.3508	  12.000	   7.921	-245.171	   4.960
     70.3843	  13.000	   8.072	-244.322	   4.954
     70.4177	   4.000	   8.248	-253.498	   4.948
     70.4511	   8.000	   8.454	-249.704	   4.942
     70.4845	  10.000	   8.697	-247.947	   4.936
     70.5179	  12.000	   8.988	-246.238	   4.931
     70.5514	   6.000	   9.339	-252.589	   4.925
     70.5848	   8.000	   9.766	-251.016	   4.919
     70.6182	  12.000	  10.290	-247.540	   4.913
     70.6516	   9.000	  11.061	-251.311	   4.907
     70.6851	   9.000	  11.864	-252.114	   4.901
     70.7185	  15.000	  12.855	-247.105	   4.895
     70.7519	  12.000	  14.071	-251.321	   4.890
     70.7853	  22.000	  15.547	-242.797	   4.884
     70.8187	  16.000	  17.300	-250.550	   4.878
     70.8522	  16.000	  19.370	-252.620	   4.872
     70.8856	  19.000	  21.532	-251.782	   4.866
     70.9190	  16.000	  23.628	-256.878	   4.860
     70.9524	  24.000	  25.329	-250.579	   4.854
     70.9859	  26.000	  26.326	-249.576	   4.849
     71.0193	  30.000	  26.508	-245.758	   4.843
     71.0527	  26.000	  26.039	-249.289	   4.837
     71.0861	  18.000	  25.206	-256.456	   4.831
     71.1196	  29.000	  24.219	-244.469	   4.825
     71.1530	  13.000	  23.114	-259.364	   4.819
     71.1864	  13.000	  21.821	-258.071	   4.813
     71.2198	  21.000	  20.303	-248.553	   4.807
     71.2532	  16.000	  18.634	-251.884	   4.802
     71.2867	  22.000	  16.954	-244.204	   4.796
     71.3201	  14.000	  15.391	-250.641	   4.790
     71.3535	  15.000	  14.017	-248.267	   4.784
     71.3869	   9.000	  12.852	-253.102	   4.778
     71.4204	  10.000	  11.885	-251.135	   4.772
     71.4538	  13.000	  11.092	-247.342	   4.766
     71.4872	  15.000	  10.444	-244.694	   4.761
     71.5206	  12.000	   9.914	-247.164	   4.755
     71.5540	  10.000	   9.481	-248.731	   4.749
     71.5875	   9.000	   9.125	-249.375	   4.743
     71.6209	   5.000	   8.888	-253.138	   4.737
     71.6543	  13.000	   8.642	-244.892	   4.731
     71.6877	   8.000	   8.436	-249.686	   4.725
     71.7212	   6.000	   8.260	-251.510	   4.719
     71.7546	   9.000	   8.111	-248.361	   4.714
     71.7880	  14.000	   7.982	-243.232	   4.708
     71.8214	   6.000	   7.871	-251.121	   4.702
     71.8548	   3.000	   7.804	-254.054	   4.696
     71.8883	   7.000	   7.721	-249.971	   4.690
     71.9217	   7.000	   7.648	-249.898	   4.684
     71.9551	   3.000	   7.585	-253.835	   4.678
     71.9885	   7.000	   7.531	-249.781	   4.673
     72.0220	  13.000	   7.484	-243.734	   4.667
     72.0554	   4.000	   7.443	-252.693	   4.661
     72.0888	   8.000	   7.409	-248.659	   4.655
     72.1222	  15.000	   7.379	-241.629	   4.649
     72.1556	  10.000	   7.355	-246.605	   4.643
     72.1891	   6.000	   7.335	-250.585	   4.637
     72.2225	   6.000	   7.320	-250.570	   4.631
     72.2559	  10.000	   7.308	-246.558	   4.626
     72.2893	   7.000	   7.300	-249.550	   4.620
     72.3228	   9.000	   7.296	-247.546	   4.614
     72.3562	   6.000	   7.296	-250.546	   4.608
     72.3896	   5.000	   7.298	-251.548	   4.602
     72.4230	  10.000	   7.305	-246.555	   4.596
     72.4565	   9.000	   7.315	-247.565	   4.590
     72.4899	   8.000	   7.328	-248.578	   4.585
     72.5233	   7.000	   7.345	-249.595	   4.579
     72.5567	   4.000	   7.365	-252.615	   4.573
     72.5901	   9.000	   7.389	-247.639	   4.567
     72.6236	   8.000	   7.417	-248.667	   4.561
     72.6570	  16.000	   7.449	-240.699	   4.555
     72.6904	   8.000	   7.485	-248.735	   4.549
     72.7238	   7.000	   7.526	-249.776	   4.544
     72.7573	   9.000	   7.572	-247.822	   4.538
     72.7907	   7.000	   7.623	-249.873	   4.532
     72.8241	   2.000	   7.680	-254.930	   4.526
     72.8575	   8.000	   7.743	-248.993	   4.520
     72.8909	   7.000	   7.812	-250.062	   4.514
     72.9244	   8.000	   7.890	-249.140	   4.508
     72.9578	   7.000	   7.975	-250.225	   4.502
     72.9912	   7.000	   8.070	-250.320	   4.497
     73.0246	   4.000	   8.175	-253.425	   4.491
     73.0581	   6.000	   8.291	-251.541	   4.485
     73.0915	  12.000	   8.420	-245.670	   4.479
     73.1249	  12.000	   8.563	-245.813	   4.473
     73.1583	  12.000	   8.723	-245.973	   4.467
     73.1917	   8.000	   8.902	-250.152	   4.461
     73.2252	   8.000	   9.101	-250.351	   4.456
     73.2586	   6.000	   9.326	-252.576	   4.450
     73.2920	   7.000	   9.579	-251.829	   4.444
     73.3254	   9.000	   9.866	-250.116	   4.438
     73.3589	   7.000	  10.193	-252.443	   4.432
     73.3923	   8.000	  10.565	-251.815	   4.426
     73.4257	  12.000	  10.995	-248.245	   4.420
     73.4591	  19.000	  11.492	-241.742	   4.414
     73.4926	  10.000	  12.074	-251.324	   4.409
     73.5260	  12.000	  12.758	-250.008	   4.403
     73.5594	  14.000	  13.573	-248.823	   4.397
     73.5928	  21.000	  14.551	-242.801	   4.391
     73.6262	  10.000	  15.734	-254.984	   4.385
     73.6597	  20.000	  17.174	-246.424	   4.379
     73.6931	  19.000	  18.934	-249.184	   4.373
     73.7265	  21.000	  21.087	-249.337	   4.368
     73.7599	  25.000	  23.713	-247.963	   4.362
     73.7934	  29.000	  26.893	-247.143	   4.356
     73.8268	  20.000	  30.694	-259.944	   4.350
     73.8602	  28.000	  35.126	-256.376	   4.344
     73.8936	  21.000	  40.084	-268.334	   4.338
     73.9270	  50.000	  45.263	-244.513	   4.332
     73.9605	  44.000	  50.093	-255.343	   4.326
     73.9939	  44.000	  53.824	-259.074	   4.321
     74.0273	  33.000	  55.833	-272.083	   4.315
     74.0607	  34.000	  56.004	-271.254	   4.309
     74.0942	  42.000	  54.782	-262.032	   4.303
     74.1276	  39.000	  52.825	-263.075	   4.297
     74.1610	  39.000	  50.576	-260.826	   4.291
     74.1944	  42.000	  48.109	-255.359	   4.285
     74.2278	  44.000	  45.261	-250.511	   4.280
     74.2613	  42.000	  41.908	-249.158	   4.274
     74.2947	  22.000	  38.160	-265.410	   4.268
     74.3281	  32.000	  34.316	-251.566	   4.262
     74.3615	  18.000	  30.684	-261.934	   4.256
     74.3950	  28.000	  27.463	-248.713	   4.250
     74.4284	  16.000	  24.735	-257.985	   4.244
     74.4618	  15.000	  22.502	-256.752	   4.239
     74.4952	   9.000	  20.726	-260.976	   4.233
     74.5286	  20.000	  19.356	-248.606	   4.227
     74.5621	  14.000	  18.345	-253.595	   4.221
     74.5955	  15.000	  17.655	-251.905	   4.215
     74.6289	  16.000	  17.259	-250.509	   4.209
     74.6623	  18.000	  17.143	-248.393	   4.203
     74.6958	  19.000	  17.304	-247.554	   4.197
     74.7292	  10.000	  17.752	-257.002	   4.192
     74.7626	  16.000	  18.503	-251.753	   4.186
     74.7960	  16.000	  19.542	-252.792	   4.180
     74.8295	  17.000	  20.956	-253.206	   4.174
     74.8629	  19.000	  22.701	-252.951	   4.168
     74.8963	  20.000	  24.712	-253.962	   4.162
     74.9297	  27.000	  26.837	-249.087	   4.156
     74.9631	  24.000	  28.806	-254.056	   4.154
     74.9966	  19.000	  30.276	-260.526	   4.159
     75.0300	  20.000	  30.949	-260.199	   4.163
     75.0634	  26.000	  30.818	-254.068	   4.167
     75.0968	  13.000	  30.073	-266.323	   4.172
     75.1303	  20.000	  29.009	-258.259	   4.176
     75.1637	  14.000	  27.828	-263.078	   4.181
     75.1971	  15.000	  26.562	-260.812	   4.185
     75.2305	  20.000	  25.132	-254.382	   4.189
     75.2639	  26.000	  23.474	-246.724	   4.194
     75.2974	  27.000	  21.629	-243.879	   4.198
     75.3308	  13.000	  19.724	-255.974	   4.202
     75.3642	  13.000	  17.897	-254.147	   4.207
     75.3976	  15.000	  16.246	-250.496	   4.211
     75.4311	  17.000	  14.811	-247.061	   4.215
     75.4645	  14.000	  13.591	-248.841	   4.220
     75.4979	   9.000	  12.570	-252.820	   4.224
     75.5313	  10.000	  11.718	-250.968	   4.228
     75.5648	   5.000	  11.051	-255.301	   4.233
     75.5982	  17.000	  10.463	-242.713	   4.237
     75.6316	   4.000	   9.970	-255.220	   4.241
     75.6650	  10.000	   9.556	-248.806	   4.246
     75.6984	   7.000	   9.205	-251.455	   4.250
     75.7319	   8.000	   8.905	-250.155	   4.254
     75.7653	   6.000	   8.647	-251.897	   4.259
     75.7987	   8.000	   8.443	-249.693	   4.263
     75.8321	   8.000	   8.247	-249.497	   4.268
     75.8656	   5.000	   8.075	-252.325	   4.272
     75.8990	  12.000	   7.922	-245.172	   4.276
     75.9324	  10.000	   7.786	-247.036	   4.281
     75.9658	   6.000	   7.665	-250.915	   4.285
     75.9992	   9.000	   7.556	-247.806	   4.289
     76.0327	   5.000	   7.458	-251.708	   4.294
     76.0661	   3.000	   7.369	-253.619	   4.298
     76.0995	   5.000	   7.289	-251.539	   4.302
     76.1329	   8.000	   7.216	-248.466	   4.307
     76.1664	   8.000	   7.149	-248.399	   4.311
     76.1998	   5.000	   7.088	-251.338	   4.315
     76.2332	  13.000	   7.033	-243.283	   4.320
     76.2666	   8.000	   6.982	-248.232	   4.324
     76.3000	   5.000	   6.935	-251.185	   4.328
     76.3335	  12.000	   6.893	-244.143	   4.333
     76.3669	   9.000	   6.853	-247.103	   4.337
     76.4003	   9.000	   6.817	-247.067	   4.341
     76.4337	  13.000	   6.784	-243.034	   4.346
     76.4672	  12.000	   6.753	-244.003	   4.350
     76.5006	   7.000	   6.725	-248.975	   4.355
     76.5340	  10.000	   6.699	-245.949	   4.359
     76.5674	  10.000	   6.675	-245.925	   4.363
     76.6008	   7.000	   6.653	-248.903	   4.368
     76.6343	   8.000	   6.633	-247.883	   4.372
     76.6677	   4.000	   6.614	-251.864	   4.376
     76.7011	   5.000	   6.597	-250.847	   4.381
     76.7345	   7.000	   6.582	-248.832	   4.385
     76.7680	   5.000	   6.568	-250.818	   4.389
     76.8014	  12.000	   6.555	-243.805	   4.394
     76.8348	   0.000	   6.543	-255.793	   4.398
     76.8682	   4.000	   6.533	-251.783	   4.402
     76.9016	   7.000	   6.524	-248.774	   4.407
     76.9351	  10.000	   6.515	-245.765	   4.411
     76.9685	   4.000	   6.508	-251.758	   4.415
     77.0019	   5.000	   6.502	-250.752	   4.420
     77.0353	   5.000	   6.497	-250.747	   4.424
     77.0688	   4.000	   6.493	-251.743	   4.428
     77.1022	   9.000	   6.489	-246.739	   4.433
     77.1356	   6.000	   6.487	-249.737	   4.437
     77.1690	   6.000	   6.486	-249.736	   4.442
     77.2025	   3.000	   6.485	-252.735	   4.446
     77.2359	   3.000	   6.485	-252.735	   4.450
     77.2693	   7.000	   6.486	-248.736	   4.455
     77.3027	   6.000	   6.489	-249.739	   4.459
     77.3361	   5.000	   6.492	-250.742	   4.463
     77.3696	   6.000	   6.495	-249.745	   4.468
     77.4030	   3.000	   6.500	-252.750	   4.472
     77.4364	   6.000	   6.506	-249.756	   4.476
     77.4698	   8.000	   6.513	-247.763	   4.481
     77.5033	   2.000	   6.521	-253.771	   4.485
     77.5367	   8.000	   6.530	-247.780	   4.489
     77.5701	   8.000	   6.540	-247.790	   4.494
     77.6035	   2.000	   6.552	-253.802	   4.498
     77.6369	   3.000	   6.565	-252.815	   4.502
     77.6704	   5.000	   6.579	-250.829	   4.507
     77.7038	   7.000	   6.595	-248.845	   4.511
     77.7372	   9.000	   6.612	-246.862	   4.515
     77.7706	  10.000	   6.631	-245.881	   4.520
     77.8041	   7.000	   6.652	-248.902	   4.524
     77.8375	   6.000	   6.675	-249.925	   4.529
     77.8709	   8.000	   6.700	-247.950	   4.533
     77.9043	   5.000	   6.635	-250.885	   4.537
     77.9378	   3.000	   6.667	-252.917	   4.542
     77.9712	   1.000	   6.702	-254.952	   4.546
     78.0046	   5.000	   6.741	-250.991	   4.550
     78.0380	   8.000	   6.783	-248.033	   4.555
     78.0714	   7.000	   6.830	-249.080	   4.559
     78.1049	   5.000	   6.882	-251.132	   4.563
     78.1383	  12.000	   6.893	-244.143	   4.568
     78.1717	  12.000	   6.957	-244.207	   4.572
     78.2051	   9.000	   7.029	-247.279	   4.576
     78.2385	  13.000	   7.109	-243.359	   4.581
     78.2720	   6.000	   7.199	-250.449	   4.585
     78.3054	   2.000	   7.301	-254.551	   4.589
     78.3388	   7.000	   7.416	-249.666	   4.594
     78.3722	   5.000	   7.548	-251.798	   4.598
     78.4057	   8.000	   7.700	-248.950	   4.602
     78.4391	   9.000	   7.875	-248.125	   4.607
     78.4725	   7.000	   8.089	-250.339	   4.611
     78.5059	  10.000	   8.331	-247.581	   4.616
     78.5394	   6.000	   8.619	-251.869	   4.620
     78.5728	   6.000	   8.963	-252.213	   4.624
     78.6062	   8.000	   9.376	-250.626	   4.629
     78.6396	   6.000	   9.874	-253.124	   4.633
     78.6730	   8.000	  10.474	-251.724	   4.637
     78.7065	  13.000	  11.201	-247.451	   4.642
     78.7399	   4.000	  12.067	-257.317	   4.646
     78.7733	  12.000	  13.090	-250.340	   4.650
     78.8067	  14.000	  14.274	-249.524	   4.655
     78.8402	  10.000	  15.601	-254.851	   4.659
     78.8736	   8.000	  17.006	-258.256	   4.663
     78.9070	  13.000	  18.368	-254.618	   4.668
     78.9404	  18.000	  19.467	-250.717	   4.672
     78.9738	  18.000	  20.217	-251.467	   4.676
     79.0073	  16.000	  20.483	-253.733	   4.681
     79.0407	  16.000	  20.315	-253.565	   4.685
     79.0741	  12.000	  19.862	-257.112	   4.689
     79.1075	  16.000	  19.279	-252.529	   4.694
     79.1410	  17.000	  18.652	-250.902	   4.698
     79.1744	  17.000	  17.956	-250.206	   4.703
     79.2078	  19.000	  17.185	-247.435	   4.707
     79.2412	  19.000	  16.281	-246.531	   4.711
     79.2747	   8.000	  15.262	-256.512	   4.716
     79.3081	  14.000	  14.195	-249.445	   4.720
     79.3415	  16.000	  13.158	-246.408	   4.724
     79.3749	  10.000	  12.206	-251.456	   4.729
     79.4083	  14.000	  11.368	-246.618	   4.733
     79.4418	   5.000	  10.649	-254.899	   4.737
     79.4752	  15.000	  10.042	-244.292	   4.742
     79.5086	   9.000	   9.534	-249.784	   4.746
     79.5420	   7.000	   9.111	-251.361	   4.750
     79.5755	   8.000	   8.758	-250.008	   4.755
     79.6089	  14.000	   8.463	-243.713	   4.759
     79.6423	   2.000	   8.216	-255.466	   4.763
     79.6757	  10.000	   8.009	-247.259	   4.768
     79.7091	   8.000	   7.833	-249.083	   4.772
     79.7426	   5.000	   7.683	-251.933	   4.776
     79.7760	   6.000	   7.554	-250.804	   4.781
     79.8094	  12.000	   7.443	-244.693	   4.785
     79.8428	   4.000	   7.346	-252.596	   4.790
     79.8763	   5.000	   7.262	-251.512	   4.794
     79.9097	   6.000	   7.188	-250.438	   4.798
     79.9431	   7.000	   7.122	-249.372	   4.803
     79.9765	   6.000	   7.064	-250.314	   4.807
     80.0099	   3.000	   7.013	-253.263	   4.811
     80.0434	   6.000	   6.967	-250.217	   4.816
     80.0768	   7.000	   6.927	-249.177	   4.820
     80.1102	   8.000	   6.891	-248.141	   4.824
     80.1436	   8.000	   6.858	-248.108	   4.829
     80.1771	   3.000	   6.829	-253.079	   4.833
     80.2105	  12.000	   6.803	-244.053	   4.837
     80.2439	   9.000	   6.780	-247.030	   4.842
     80.2773	   2.000	   6.759	-254.009	   4.846
     80.3108	   2.000	   6.741	-253.991	   4.850
     80.3442	   6.000	   6.724	-249.974	   4.855
     80.3776	   5.000	   6.710	-250.960	   4.859
     80.4110	  13.000	   6.697	-242.947	   4.863
     80.4444	   9.000	   6.686	-246.936	   4.868
     80.4779	   8.000	   6.676	-247.926	   4.872
     80.5113	   6.000	   6.667	-249.917	   4.877
     80.5447	   2.000	   6.660	-253.910	   4.881
     80.5781	  10.000	   6.654	-245.904	   4.885
     80.6116	   5.000	   6.649	-250.899	   4.890
     80.6450	   3.000	   6.645	-252.895	   4.894
     80.6784	   5.000	   6.642	-250.892	   4.898
     80.7118	   6.000	   6.641	-249.891	   4.903
     80.7452	   7.000	   6.640	-248.890	   4.907
     80.7787	   7.000	   6.640	-248.890	   4.911
     80.8121	   8.000	   6.641	-247.891	   4.916
     80.8455	   3.000	   6.644	-252.893	   4.920
     80.8789	   6.000	   6.647	-249.897	   4.924
     80.9124	   5.000	   6.651	-250.901	   4.929
     80.9458	   5.000	   6.657	-250.907	   4.933
     80.9792	  10.000	   6.663	-245.913	   4.937
     81.0126	   5.000	   6.671	-250.921	   4.942
     81.0460	   2.000	   6.680	-253.930	   4.946
     81.0795	   7.000	   6.691	-248.941	   4.950
     81.1129	   7.000	   6.704	-248.954	   4.955
     81.1463	   5.000	   6.718	-250.968	   4.959
     81.1797	   5.000	   6.734	-250.984	   4.964
     81.2132	   7.000	   6.753	-249.003	   4.968
     81.2466	   2.000	   6.775	-254.025	   4.972
     81.2800	   7.000	   6.799	-249.049	   4.977
     81.3134	   5.000	   6.828	-251.078	   4.981
     81.3468	   2.000	   6.861	-254.111	   4.985
     81.3803	   6.000	   6.900	-250.150	   4.990
     81.4137	   3.000	   6.945	-253.195	   4.994
     81.4471	   4.000	   6.998	-252.248	   4.998
     81.4805	   4.000	   7.062	-252.312	   5.003
     81.5140	   7.000	   7.137	-249.387	   5.007
     81.5474	   4.000	   7.227	-252.477	   5.011
     81.5808	   3.000	   7.335	-253.585	   5.016
     81.6142	   7.000	   7.464	-249.714	   5.020
     81.6477	   1.000	   7.618	-255.868	   5.024
     81.6811	   5.000	   7.800	-252.050	   5.029
     81.7145	   3.000	   8.012	-254.262	   5.033
     81.7479	   7.000	   8.253	-250.503	   5.037
     81.7813	   8.000	   8.518	-249.768	   5.042
     81.8148	   8.000	   8.791	-250.041	   5.046
     81.8482	   7.000	   9.048	-251.298	   5.051
     81.8816	   5.000	   9.254	-253.504	   5.055
     81.9150	  12.000	   9.381	-246.631	   5.059
     81.9485	   3.000	   9.418	-255.668	   5.064
     81.9819	   8.000	   9.377	-250.627	   5.068
     82.0153	   5.000	   9.286	-253.536	   5.072
     82.0487	   6.000	   9.175	-252.425	   5.077
     82.0821	   4.000	   9.057	-254.307	   5.081
     82.1156	   9.000	   8.932	-249.182	   5.085
     82.1490	   7.000	   8.791	-251.041	   5.090
     82.1824	  12.000	   8.626	-245.876	   5.094
     82.2158	  12.000	   8.437	-245.687	   5.098
     82.2493	   7.000	   8.235	-250.485	   5.103
     82.2827	   7.000	   8.035	-250.285	   5.107
     82.3161	   5.000	   7.848	-252.098	   5.111
     82.3495	   9.000	   7.680	-247.930	   5.116
     82.3829	   4.000	   7.534	-252.784	   5.120
     82.4164	   4.000	   7.410	-252.660	   5.124
     82.4498	   6.000	   7.305	-250.555	   5.129
     82.4832	   7.000	   7.217	-249.467	   5.133
     82.5166	   4.000	   7.144	-252.394	   5.138
     82.5501	   6.000	   7.083	-250.333	   5.142
     82.5835	   6.000	   7.032	-250.282	   5.146
     82.6169	   7.000	   6.989	-249.239	   5.151
     82.6503	   7.000	   6.953	-249.203	   5.155
     82.6838	   3.000	   6.923	-253.173	   5.159
     82.7172	  10.000	   6.897	-246.147	   5.164
     82.7506	   7.000	   6.875	-249.125	   5.168
     82.7840	   3.000	   6.856	-253.106	   5.172
     82.8174	   8.000	   6.840	-248.090	   5.177
     82.8509	   6.000	   6.826	-250.076	   5.181
     82.8843	   6.000	   6.814	-250.064	   5.185
     82.9177	   7.000	   6.804	-249.054	   5.190
     82.9511	   8.000	   6.795	-248.045	   5.194
     82.9846	   8.000	   6.788	-248.038	   5.198
     83.0180	   8.000	   6.752	-248.002	   5.203
     83.0514	   5.000	   6.747	-250.997	   5.207
     83.0848	   6.000	   6.743	-249.993	   5.211
     83.1182	   1.000	   6.739	-254.989	   5.216
     83.1517	   4.000	   6.736	-251.986	   5.220
     83.1851	   3.000	   6.734	-252.984	   5.225
     83.2185	  10.000	   6.732	-245.982	   5.229
     83.2519	   9.000	   6.778	-247.028	   5.233
     83.2854	   3.000	   6.779	-253.029	   5.238
     83.3188	   9.000	   6.780	-247.030	   5.242
     83.3522	  10.000	   6.781	-246.031	   5.246
     83.3856	   4.000	   6.783	-252.033	   5.251
     83.4190	   7.000	   6.785	-249.035	   5.255
     83.4525	   9.000	   6.787	-247.037	   5.259
     83.4859	   4.000	   6.790	-252.040	   5.264
     83.5193	   5.000	   6.823	-251.073	   5.268
     83.5527	   6.000	   6.827	-250.077	   5.272
     83.5862	   4.000	   6.831	-252.081	   5.277
     83.6196	   6.000	   6.835	-250.085	   5.281
     83.6530	   3.000	   6.839	-253.089	   5.285
     83.6864	   8.000	   6.844	-248.094	   5.290
     83.7198	  10.000	   6.848	-246.098	   5.294
     83.7533	  13.000	   6.853	-243.103	   5.298
     83.7867	   8.000	   6.859	-248.109	   5.303
     83.8201	   6.000	   6.864	-250.114	   5.307
     83.8535	   2.000	   6.869	-254.119	   5.312
     83.8870	   8.000	   6.875	-248.125	   5.316
     83.9204	   6.000	   6.881	-250.131	   5.320
     83.9538	   4.000	   6.887	-252.137	   5.325
     83.9872	   5.000	   6.893	-251.143	   5.329
     84.0207	   6.000	   6.899	-250.149	   5.333
     84.0541	   7.000	   6.906	-249.156	   5.338
     84.0875	   8.000	   6.913	-248.163	   5.342
     84.1209	   8.000	   6.920	-248.170	   5.346
     84.1543	   6.000	   6.927	-250.177	   5.351
     84.1878	   5.000	   6.934	-251.184	   5.355
     84.2212	   7.000	   6.942	-249.192	   5.359
     84.2546	   7.000	   6.949	-249.199	   5.364
     84.2880	   2.000	   6.957	-254.207	   5.368
     84.3215	   8.000	   6.966	-248.216	   5.372
     84.3549	   8.000	   6.974	-248.224	   5.377
     84.3883	   5.000	   6.983	-251.233	   5.381
     84.4217	   3.000	   6.991	-253.241	   5.385
     84.4551	   8.000	   7.000	-248.250	   5.390
     84.4886	   8.000	   7.010	-248.260	   5.394
     84.5220	   5.000	   7.019	-251.269	   5.399
     84.5554	   3.000	   7.029	-253.279	   5.403
     84.5888	   3.000	   7.040	-253.290	   5.407
     84.6223	   7.000	   7.050	-249.300	   5.412
     84.6557	   6.000	   7.061	-250.311	   5.416
     84.6891	   8.000	   7.072	-248.322	   5.420
     84.7225	   6.000	   7.084	-250.334	   5.425
     84.7560	   1.000	   7.096	-255.346	   5.429
     84.7894	   6.000	   7.108	-250.358	   5.433
     84.8228	   7.000	   7.121	-249.371	   5.438
     84.8562	   5.000	   7.134	-251.384	   5.442
     84.8896	   4.000	   7.148	-252.398	   5.446
     84.9231	   9.000	   7.162	-247.412	   5.451
     84.9565	   6.000	   7.177	-250.427	   5.455
     84.9899	   7.000	   7.193	-249.443	   5.459
     85.0233	   5.000	   7.209	-251.459	   5.464
     85.0567	   6.000	   7.226	-250.476	   5.468
     85.0902	  10.000	   7.243	-246.493	   5.472
     85.1236	   7.000	   7.262	-249.512	   5.477
     85.1570	   4.000	   7.281	-252.531	   5.481
     85.1904	   8.000	   7.301	-248.551	   5.486
     85.2239	   5.000	   7.322	-251.572	   5.490
     85.2573	   6.000	   7.344	-250.594	   5.494
     85.2907	   6.000	   7.368	-250.618	   5.499
     85.3241	   8.000	   7.393	-248.643	   5.503
     85.3576	   8.000	   7.419	-248.669	   5.507
     85.3910	   8.000	   7.446	-248.696	   5.512
     85.4244	  12.000	   7.476	-244.726	   5.516
     85.4578	   7.000	   7.507	-249.757	   5.520
     85.4912	   6.000	   7.540	-250.790	   5.525
     85.5247	   1.000	   7.575	-255.825	   5.529
     85.5581	   9.000	   7.613	-247.863	   5.533
     85.5915	   7.000	   7.653	-249.903	   5.538
     85.6249	   7.000	   7.697	-249.947	   5.542
     85.6584	   7.000	   7.743	-249.993	   5.546
     85.6918	   8.000	   7.794	-249.044	   5.551
     85.7252	   3.000	   7.848	-254.098	   5.555
     85.7586	   4.000	   7.907	-253.157	   5.559
     85.7920	   4.000	   7.971	-253.221	   5.564
     85.8255	   5.000	   8.041	-252.291	   5.568
     85.8589	   9.000	   8.118	-248.368	   5.573
     85.8923	   8.000	   8.201	-249.451	   5.577
     85.9257	  15.000	   8.294	-242.544	   5.581
     85.9592	  15.000	   8.396	-242.646	   5.586
     85.9926	   8.000	   8.509	-249.759	   5.590
     86.0260	   7.000	   8.629	-250.879	   5.594
     86.0594	   8.000	   8.771	-250.021	   5.599
     86.0928	   9.000	   9.164	-249.414	   5.603
     86.1263	   7.000	   9.349	-251.599	   5.607
     86.1597	  13.000	   9.560	-245.810	   5.612
     86.1931	   9.000	   9.801	-250.051	   5.616
     86.2265	  17.000	  10.078	-242.328	   5.620
     86.2600	  15.000	  10.398	-244.648	   5.625
     86.2934	   6.000	  10.774	-254.024	   5.629
     86.3268	  14.000	  11.215	-246.465	   5.633
     86.3602	   6.000	  11.850	-255.100	   5.638
     86.3937	  14.000	  12.466	-247.716	   5.642
     86.4271	   5.000	  13.193	-257.443	   5.646
     86.4605	  14.000	  14.049	-249.299	   5.651
     86.4939	  16.000	  15.055	-248.305	   5.655
     86.5273	  14.000	  16.225	-251.475	   5.660
     86.5608	  14.000	  17.566	-252.816	   5.664
     86.5942	  14.000	  19.067	-254.317	   5.668
     86.6276	  16.000	  20.683	-253.933	   5.673
     86.6610	  19.000	  22.324	-252.574	   5.677
     86.6945	  22.000	  23.846	-251.096	   5.681
     86.7279	  26.000	  25.071	-248.321	   5.686
     86.7613	  25.000	  25.843	-250.093	   5.690
     86.7947	  12.000	  26.100	-263.350	   5.694
     86.8281	  21.000	  25.900	-254.150	   5.699
     86.8616	  25.000	  25.393	-249.643	   5.703
     86.8950	  22.000	  24.739	-251.989	   5.707
     86.9284	  17.000	  24.045	-256.295	   5.712
     86.9618	  12.000	  23.340	-260.590	   5.716
     86.9953	  18.000	  22.585	-253.835	   5.720
     87.0287	  15.000	  21.718	-255.968	   5.725
     87.0621	  15.000	  20.707	-254.957	   5.729
     87.0955	  28.000	  19.571	-240.821	   5.733
     87.1289	  19.000	  18.372	-248.622	   5.738
     87.1624	  16.000	  17.185	-250.435	   5.742
     87.1958	  18.000	  16.071	-247.321	   5.747
     87.2292	  10.000	  15.066	-254.316	   5.751
     87.2626	  10.000	  14.184	-253.434	   5.755
     87.2961	   4.000	  13.424	-258.674	   5.760
     87.3295	   7.000	  12.776	-255.026	   5.764
     87.3629	  12.000	  12.229	-249.479	   5.768
     87.3963	  12.000	  11.767	-249.017	   5.773
     87.4297	   5.000	  11.379	-255.629	   5.777
     87.4632	   3.000	  11.053	-257.303	   5.781
     87.4966	   7.000	  10.779	-253.029	   5.786
     87.5300	   5.000	  10.549	-254.799	   5.790
     87.5634	   3.000	  10.356	-256.606	   5.794
     87.5969	   4.000	  10.194	-255.444	   5.799
     87.6303	   4.000	  10.058	-255.308	   5.803
     87.6637	   5.000	   9.944	-254.194	   5.807
     87.6971	   9.000	   9.849	-250.099	   5.812
     87.7306	   9.000	   9.770	-250.020	   5.816
     87.7640	  12.000	   9.706	-246.956	   5.820
     87.7974	  12.000	   9.655	-246.905	   5.825
     87.8308	  10.000	   9.615	-248.865	   5.829
     87.8642	   9.000	   9.586	-249.836	   5.834
     87.8977	   7.000	   9.566	-251.816	   5.838
     87.9311	   6.000	   9.555	-252.805	   5.842
     87.9645	   6.000	   9.552	-252.802	   5.847
     87.9979	   7.000	   9.557	-251.807	   5.851
     88.0314	   6.000	   9.569	-252.819	   5.855
     88.0648	   6.000	   9.589	-252.839	   5.860
     88.0982	  10.000	   9.616	-248.866	   5.864
     88.1316	   5.000	   9.650	-253.900	   5.868
     88.1650	   4.000	   9.691	-254.941	   5.873
     88.1985	   7.000	   9.739	-251.989	   5.877
     88.2319	  10.000	   9.795	-249.045	   5.881
     88.2653	  18.000	   9.858	-241.108	   5.886
     88.2987	  10.000	   9.929	-249.179	   5.890
     88.3322	   7.000	  10.009	-252.259	   5.894
     88.3656	   8.000	  10.097	-251.347	   5.899
     88.3990	   8.000	  10.195	-251.445	   5.903
     88.4324	   6.000	  10.302	-253.552	   5.907
     88.4659	   7.000	  10.420	-252.670	   5.912
     88.4993	  10.000	  10.551	-249.801	   5.916
     88.5327	   4.000	  10.692	-255.942	   5.920
     88.5661	   5.000	  10.840	-255.090	   5.915
     88.5995	   9.000	  11.004	-251.254	   5.911
     88.6330	  13.000	  11.185	-247.435	   5.907
     88.6664	  13.000	  11.384	-247.634	   5.902
     88.6998	   8.000	  11.604	-252.854	   5.898
     88.7332	  16.000	  11.849	-245.099	   5.893
     88.7667	  12.000	  12.120	-249.370	   5.889
     88.8001	   8.000	  12.421	-253.671	   5.885
     88.8335	  10.000	  12.756	-252.006	   5.880
     88.8669	  14.000	  13.131	-248.381	   5.876
     88.9003	   8.000	  13.552	-254.802	   5.872
     88.9338	  16.000	  14.025	-247.275	   5.867
     88.9672	  16.000	  14.559	-247.809	   5.863
     89.0006	  14.000	  15.166	-250.416	   5.859
     89.0340	  18.000	  15.859	-247.109	   5.854
     89.0675	  14.000	  16.654	-251.904	   5.850
     89.1009	  18.000	  17.571	-248.821	   5.846
     89.1343	  26.000	  18.635	-241.885	   5.841
     89.1677	  18.000	  19.874	-251.124	   5.837
     89.2011	  21.000	  21.325	-249.575	   5.833
     89.2346	  20.000	  23.028	-252.278	   5.828
     89.2680	  13.000	  25.032	-261.282	   5.824
     89.3014	  20.000	  27.391	-256.641	   5.820
     89.3348	  16.000	  30.163	-263.413	   5.815
     89.3683	  26.000	  33.408	-256.658	   5.811
     89.4017	  32.000	  37.182	-254.432	   5.806
     89.4351	  27.000	  41.516	-263.766	   5.802
     89.4685	  45.000	  46.401	-250.651	   5.798
     89.5019	  39.000	  51.744	-261.994	   5.793
     89.5354	  39.000	  57.326	-267.576	   5.789
     89.5688	  49.000	  62.767	-263.017	   5.785
     89.6022	  54.000	  67.539	-262.789	   5.780
     89.6356	  49.000	  71.078	-271.328	   5.776
     89.6691	  61.000	  72.989	-261.239	   5.772
     89.7025	  57.000	  73.214	-265.464	   5.767
     89.7359	  55.000	  72.064	-266.314	   5.763
     89.7693	  38.000	  70.060	-281.310	   5.759
     89.8027	  45.000	  67.692	-271.942	   5.754
     89.8362	  48.000	  65.255	-266.505	   5.750
     89.8696	  58.000	  62.796	-254.046	   5.746
     89.9030	  45.000	  60.175	-264.425	   5.741
     89.9364	  43.000	  57.189	-263.439	   5.737
     89.9699	  38.000	  53.721	-264.971	   5.733
     90.0033	  46.000	  49.819	-253.069	   5.728
     90.0367	  32.000	  45.672	-262.922	   5.724
     90.0701	  26.000	  41.518	-264.768	   5.719
     90.1036	  31.000	  37.566	-255.816	   5.715
     90.1370	  29.000	  33.946	-254.196	   5.711
     90.1704	  27.000	  30.721	-252.971	   5.706
     90.2038	  26.000	  27.898	-251.148	   5.702
     90.2372	  26.000	  25.454	-248.704	   5.698
     90.2707	  13.000	  23.352	-259.602	   5.693
     90.3041	  15.000	  21.549	-255.799	   5.689
     90.3375	  15.000	  20.003	-254.253	   5.685
     90.3709	   8.000	  18.676	-259.926	   5.680
     90.4044	  14.000	  17.535	-252.785	   5.676
     90.4378	   3.000	  16.549	-262.799	   5.672
     90.4712	   9.000	  15.694	-255.944	   5.667
     90.5046	  10.000	  14.949	-254.199	   5.663
     90.5380	  12.000	  14.296	-251.546	   5.659
     90.5715	  14.000	  13.720	-248.970	   5.654
     90.6049	  10.000	  13.211	-252.461	   5.650
     90.6383	   5.000	  12.758	-257.008	   5.646
     90.6717	   6.000	  12.352	-255.602	   5.641
     90.7052	   6.000	  11.988	-255.238	   5.637
     90.7386	   9.000	  11.659	-251.909	   5.632
     90.7720	   8.000	  11.362	-252.612	   5.628
     90.8054	  12.000	  11.091	-248.341	   5.624
     90.8389	  10.000	  10.936	-250.186	   5.619
     90.8723	  12.000	  10.712	-247.962	   5.615
     90.9057	  14.000	  10.507	-245.757	   5.611
     90.9391	   9.000	  10.318	-250.568	   5.606
     90.9725	   6.000	  10.144	-253.394	   5.602
     91.0060	   9.000	   9.942	-250.192	   5.598
     91.0394	   4.000	   9.794	-255.044	   5.593
     91.0728	  10.000	   9.658	-248.908	   5.589
     91.1062	   8.000	   9.531	-250.781	   5.585
     91.1397	   8.000	   9.459	-250.709	   5.580
     91.1731	  12.000	   9.350	-246.600	   5.576
     91.2065	   5.000	   9.248	-253.498	   5.572
     91.2399	   4.000	   9.153	-254.403	   5.567
     91.2733	  10.000	   9.064	-248.314	   5.563
     91.3068	  18.000	   8.960	-240.210	   5.559
     91.3402	  10.000	   8.883	-248.133	   5.554
     91.3736	  10.000	   8.810	-248.060	   5.550
     91.4070	   6.000	   8.742	-251.992	   5.545
     91.4405	   8.000	   8.677	-249.927	   5.541
     91.4739	  10.000	   8.617	-247.867	   5.537
     91.5073	  16.000	   8.560	-241.810	   5.532
     91.5407	   6.000	   8.506	-251.756	   5.528
     91.5741	   5.000	   8.456	-252.706	   5.524
     91.6076	   6.000	   8.408	-251.658	   5.519
     91.6410	   9.000	   8.363	-248.613	   5.515
     91.6744	   5.000	   8.320	-252.570	   5.511
     91.7078	   2.000	   8.280	-255.530	   5.506
     91.7413	   7.000	   8.242	-250.492	   5.502
     91.7747	   5.000	   8.206	-252.456	   5.498
     91.8081	   6.000	   8.172	-251.422	   5.493
     91.8415	   6.000	   8.140	-251.390	   5.489
     91.8749	   5.000	   8.110	-252.360	   5.485
     91.9084	  15.000	   8.081	-242.331	   5.480
     91.9418	   8.000	   8.054	-249.304	   5.476
     91.9752	   5.000	   8.029	-252.279	   5.472
     92.0086	   2.000	   8.005	-255.255	   5.467
     92.0421	   7.000	   7.982	-250.232	   5.463
     92.0755	  14.000	   7.961	-243.211	   5.458
     92.1089	   3.000	   7.942	-254.192	   5.454
     92.1423	   8.000	   7.923	-249.173	   5.450
     92.1758	   6.000	   7.906	-251.156	   5.445
     92.2092	   2.000	   7.890	-255.140	   5.441
     92.2426	   5.000	   7.875	-252.125	   5.437
     92.2760	   5.000	   7.861	-252.111	   5.432
     92.3094	   6.000	   7.849	-251.099	   5.428
     92.3429	   8.000	   7.838	-249.088	   5.424
     92.3763	   9.000	   7.827	-248.077	   5.419
     92.4097	   8.000	   7.818	-249.068	   5.415
     92.4431	  10.000	   7.811	-247.061	   5.411
     92.4766	   7.000	   7.804	-250.054	   5.406
     92.5100	   4.000	   7.798	-253.048	   5.402
     92.5434	  10.000	   7.794	-247.044	   5.398
     92.5768	   2.000	   7.791	-255.041	   5.393
     92.6102	   5.000	   7.789	-252.039	   5.389
     92.6437	   8.000	   7.788	-249.038	   5.385
     92.6771	   3.000	   7.788	-254.038	   5.380
     92.7105	   7.000	   7.790	-250.040	   5.376
     92.7439	  10.000	   7.793	-247.043	   5.371
     92.7774	  10.000	   7.798	-247.048	   5.367
     92.8108	   9.000	   7.804	-248.054	   5.363
     92.8442	  15.000	   7.812	-242.062	   5.358
     92.8776	   6.000	   7.821	-251.071	   5.354
     92.9110	  10.000	   7.832	-247.082	   5.350
     92.9445	   9.000	   7.845	-248.095	   5.345
     92.9779	   9.000	   7.860	-248.110	   5.341
     93.0113	   8.000	   7.877	-249.127	   5.337
     93.0447	   6.000	   7.896	-251.146	   5.332
     93.0782	   3.000	   7.917	-254.167	   5.328
     93.1116	   5.000	   7.941	-252.191	   5.324
     93.1450	  18.000	   7.968	-239.218	   5.319
     93.1784	   9.000	   7.998	-248.248	   5.315
     93.2119	   2.000	   8.030	-255.280	   5.311
     93.2453	   7.000	   8.067	-250.317	   5.306
     93.2787	   6.000	   8.107	-251.357	   5.302
     93.3121	   9.000	   8.152	-248.402	   5.298
     93.3455	   8.000	   8.201	-249.451	   5.293
     93.3790	   8.000	   8.255	-249.505	   5.289
     93.4124	   8.000	   8.315	-249.565	   5.284
     93.4458	   7.000	   8.382	-250.632	   5.280
     93.4792	  14.000	   8.455	-243.705	   5.276
     93.5126	   2.000	   8.536	-255.786	   5.271
     93.5461	   6.000	   8.626	-251.876	   5.267
     93.5795	   6.000	   8.726	-251.976	   5.263
     93.6129	   9.000	   8.836	-249.086	   5.258
     93.6463	   8.000	   8.960	-250.210	   5.254
     93.6798	   6.000	   9.098	-252.348	   5.250
     93.7132	  10.000	   9.254	-248.504	   5.245
     93.7466	   4.000	   9.428	-254.678	   5.241
     93.7800	  12.000	   9.625	-246.875	   5.237
     93.8135	  13.000	   9.848	-246.098	   5.232
     93.8469	   8.000	  10.102	-251.352	   5.228
     93.8803	   6.000	  10.393	-253.643	   5.224
     93.9137	  15.000	  10.727	-244.977	   5.219
     93.9471	   6.000	  11.112	-254.362	   5.215
     93.9806	  12.000	  11.558	-248.808	   5.211
     94.0140	   6.000	  11.920	-255.170	   5.206
     94.0474	   6.000	  12.525	-255.775	   5.202
     94.0808	  15.000	  13.229	-247.479	   5.197
     94.1143	  13.000	  14.050	-250.300	   5.193
     94.1477	  17.000	  15.004	-247.254	   5.189
     94.1811	  18.000	  16.108	-247.358	   5.184
     94.2145	  10.000	  17.378	-256.628	   5.180
     94.2479	  17.000	  18.822	-251.072	   5.176
     94.2814	  17.000	  20.436	-252.686	   5.171
     94.3148	  25.000	  22.117	-246.367	   5.167
     94.3482	  29.000	  23.960	-244.210	   5.163
     94.3816	  28.000	  25.783	-247.033	   5.158
     94.4151	  27.000	  27.437	-249.687	   5.154
     94.4485	  26.000	  28.757	-252.007	   5.150
     94.4819	  29.000	  29.603	-249.853	   5.145
     94.5153	  24.000	  29.914	-255.164	   5.141
     94.5488	  26.000	  29.738	-252.988	   5.137
     94.5822	  20.000	  29.203	-258.453	   5.132
     94.6156	  21.000	  28.469	-256.719	   5.128
     94.6490	  20.000	  27.667	-256.917	   5.124
     94.6824	  22.000	  26.866	-254.116	   5.119
     94.7159	  19.000	  26.068	-256.318	   5.115
     94.7493	  25.000	  25.226	-249.476	   5.110
     94.7827	  19.000	  24.276	-254.526	   5.106
     94.8161	  18.000	  23.177	-254.427	   5.102
     94.8496	   8.000	  21.933	-263.183	   5.097
     94.8830	  15.000	  20.589	-254.839	   5.093
     94.9164	  16.000	  19.214	-252.464	   5.089
     94.9498	  16.000	  17.875	-251.125	   5.084
     94.9832	  12.000	  16.620	-253.870	   5.080
     95.0167	  12.000	  15.479	-252.729	   5.076
     95.0501	   5.000	  14.461	-258.711	   5.071
     95.0835	  10.000	  13.564	-252.814	   5.067
     95.1169	  12.000	  12.782	-250.032	   5.063
     95.1504	   6.000	  12.102	-255.352	   5.058
     95.1838	  10.000	  11.513	-250.763	   5.054
     95.2172	   9.000	  11.002	-251.252	   5.050
     95.2506	   7.000	  10.558	-252.808	   5.045
     95.2840	  13.000	  10.172	-246.422	   5.041
     95.3175	  10.000	   9.836	-249.086	   5.037
     95.3509	   6.000	   9.540	-252.790	   5.032
     95.3843	  15.000	   9.281	-243.531	   5.028
     95.4177	   4.000	   9.051	-254.301	   5.023
     95.4512	   8.000	   8.847	-250.097	   5.019
     95.4846	   7.000	   8.665	-250.915	   5.015
     95.5180	   5.000	   8.502	-252.752	   5.010
     95.5514	   7.000	   8.355	-250.605	   5.006
     95.5848	   6.000	   8.222	-251.472	   5.002
     95.6183	   6.000	   8.102	-251.352	   4.997
     95.6517	  10.000	   7.992	-247.242	   4.993
     95.6851	   5.000	   7.892	-252.142	   4.989
     95.7185	   4.000	   7.800	-253.050	   4.984
     95.7520	   5.000	   7.715	-251.965	   4.980
     95.7854	   5.000	   7.637	-251.887	   4.976
     95.8188	  10.000	   7.565	-246.815	   4.971
     95.8522	   8.000	   7.498	-248.748	   4.967
     95.8857	   7.000	   7.436	-249.686	   4.963
     95.9191	   7.000	   7.378	-249.628	   4.958
     95.9525	   7.000	   7.324	-249.574	   4.954
     95.9859	  10.000	   7.274	-246.524	   4.950
     96.0193	   7.000	   7.226	-249.476	   4.945
     96.0528	   6.000	   7.182	-250.432	   4.941
     96.0862	   9.000	   7.140	-247.390	   4.936
     96.1196	   6.000	   7.101	-250.351	   4.932
     96.1530	   5.000	   7.064	-251.314	   4.928
     96.1865	   6.000	   7.029	-250.279	   4.923
     96.2199	  13.000	   6.996	-243.246	   4.919
     96.2533	  13.000	   6.965	-243.215	   4.915
     96.2867	   4.000	   6.935	-252.185	   4.910
     96.3201	  13.000	   6.907	-243.157	   4.906
     96.3536	   6.000	   6.880	-250.130	   4.902
     96.3870	   8.000	   6.854	-248.104	   4.897
     96.4204	   6.000	   6.830	-250.080	   4.893
     96.4538	   8.000	   6.807	-248.057	   4.889
     96.4873	   5.000	   6.785	-251.035	   4.884
     96.5207	   9.000	   6.763	-247.013	   4.880
     96.5541	   2.000	   6.743	-253.993	   4.876
     96.5875	   6.000	   6.724	-249.974	   4.871
     96.6209	   6.000	   6.705	-249.955	   4.867
     96.6544	   4.000	   6.688	-251.938	   4.863
     96.6878	   5.000	   6.671	-250.921	   4.858
     96.7212	   7.000	   6.654	-248.904	   4.854
     96.7546	   5.000	   6.639	-250.889	   4.849
     96.7881	   9.000	   6.624	-246.874	   4.845
     96.8215	  12.000	   6.610	-243.860	   4.841
     96.8549	  10.000	   6.597	-245.847	   4.836
     96.8883	   8.000	   6.584	-247.834	   4.832
     96.9218	  12.000	   6.572	-243.822	   4.828
     96.9552	   6.000	   6.561	-249.811	   4.823
     96.9886	   5.000	   6.551	-250.801	   4.819
     97.0220	   5.000	   6.541	-250.791	   4.815
     97.0554	   5.000	   6.533	-250.783	   4.810
     97.0889	   6.000	   6.525	-249.775	   4.806
     97.1223	   4.000	   6.518	-251.768	   4.802
     97.1557	   9.000	   6.513	-246.763	   4.797
     97.1891	   8.000	   6.508	-247.758	   4.793
     97.2226	   3.000	   6.504	-252.754	   4.789
     97.2560	   3.000	   6.500	-252.750	   4.784
     97.2894	   2.000	   6.497	-253.747	   4.780
     97.3228	   6.000	   6.493	-249.743	   4.776
     97.3562	   7.000	   6.488	-248.738	   4.771
     97.3897	   2.000	   6.481	-253.731	   4.767
     97.4231	   4.000	   6.473	-251.723	   4.762
     97.4565	   7.000	   6.463	-248.713	   4.758
     97.4899	   5.000	   6.451	-250.701	   4.754
     97.5234	   6.000	   6.439	-249.689	   4.749
     97.5568	   5.000	   6.427	-250.677	   4.745
     97.5902	   5.000	   6.415	-250.665	   4.741
     97.6236	   3.000	   6.403	-252.653	   4.736
     97.6570	   9.000	   6.391	-246.641	   4.732
     97.6905	   5.000	   6.379	-250.629	   4.728
     97.7239	  10.000	   6.367	-245.617	   4.723
     97.7573	   2.000	   6.354	-253.604	   4.719
     97.7907	   2.000	   6.341	-253.591	   4.715
     97.8242	  10.000	   6.327	-245.577	   4.710
     97.8576	   6.000	   6.314	-249.564	   4.706
     97.8910	  13.000	   6.301	-242.551	   4.702
     97.9244	   8.000	   6.288	-247.538	   4.697
     97.9578	   7.000	   6.276	-248.526	   4.693
     97.9913	   7.000	   6.265	-248.515	   4.689
     98.0247	   7.000	   6.254	-248.504	   4.684
     98.0581	   4.000	   6.244	-251.494	   4.680
     98.0915	   3.000	   6.234	-252.484	   4.675
     98.1250	  14.000	   6.225	-241.475	   4.671
     98.1584	   5.000	   6.216	-250.466	   4.667
     98.1918	   6.000	   6.207	-249.457	   4.662
     98.2252	   7.000	   6.198	-248.448	   4.658
     98.2587	   9.000	   6.190	-246.440	   4.654
     98.2921	   8.000	   6.182	-247.432	   4.649
     98.3255	   7.000	   6.175	-248.425	   4.645
     98.3589	   5.000	   6.167	-250.417	   4.641
     98.3923	   4.000	   6.160	-251.410	   4.636
     98.4258	   5.000	   6.153	-250.403	   4.632
     98.4592	   7.000	   6.145	-248.395	   4.628
     98.4926	   7.000	   6.176	-248.426	   4.623
     98.5260	   4.000	   6.169	-251.419	   4.619
     98.5595	   5.000	   6.163	-250.413	   4.615
     98.5929	   4.000	   6.157	-251.407	   4.610
     98.6263	   5.000	   6.151	-250.401	   4.606
     98.6597	   8.000	   6.145	-247.395	   4.602
     98.6931	   7.000	   6.139	-248.389	   4.597
     98.7266	   6.000	   6.135	-249.385	   4.595
     98.7600	   9.000	   6.134	-246.384	   4.595
     98.7934	  14.000	   6.133	-241.383	   4.595
     98.8268	   8.000	   6.150	-247.400	   4.595
     98.8603	   7.000	   6.150	-248.400	   4.595
     98.8937	   5.000	   6.149	-250.399	   4.595
     98.9271	  10.000	   6.149	-245.399	   4.595
     98.9605	   6.000	   6.148	-249.398	   4.595
     98.9939	   7.000	   6.148	-248.398	   4.595
     99.0274	   2.000	   6.089	-253.339	   4.595
     99.0608	   6.000	   6.089	-249.339	   4.595
     99.0942	   2.000	   6.090	-253.340	   4.595
     99.1276	   5.000	   6.091	-250.341	   4.595
     99.1611	   8.000	   6.092	-247.342	   4.595
     99.1945	  10.000	   6.093	-245.343	   4.595
     99.2279	   6.000	   6.094	-249.344	   4.595
     99.2613	   9.000	   6.095	-246.345	   4.595
     99.2948	   7.000	   6.096	-248.346	   4.595
     99.3282	   1.000	   6.068	-254.318	   4.595
     99.3616	   6.000	   6.070	-249.320	   4.595
     99.3950	   5.000	   6.071	-250.321	   4.595
     99.4284	  10.000	   6.073	-245.323	   4.595
     99.4619	   6.000	   6.075	-249.325	   4.595
     99.4953	   6.000	   6.077	-249.327	   4.595
     99.5287	   5.000	   6.080	-250.330	   4.595
     99.5621	   5.000	   6.082	-250.332	   4.595
     99.5956	   3.000	   6.084	-252.334	   4.595
     99.6290	   7.000	   6.087	-248.337	   4.595
     99.6624	   8.000	   6.089	-247.339	   4.595
     99.6958	   6.000	   6.092	-249.342	   4.595
     99.7292	   6.000	   6.094	-249.344	   4.595
     99.7627	   5.000	   6.097	-250.347	   4.595
     99.7961	   8.000	   6.100	-247.350	   4.595
     99.8295	   5.000	   6.103	-250.353	   4.595
     99.8629	   3.000	   6.106	-252.356	   4.595
     99.8964	   4.000	   6.110	-251.360	   4.595
     99.9298	   8.000	   6.113	-247.363	   4.595
     99.9632	   9.000	   6.117	-246.367	   4.595
     99.9966	   5.000	   6.120	-250.370	   4.595
    100.0300	   7.000	   6.124	-248.374	   4.595
    100.0635	   3.000	   6.128	-252.378	   4.595
    100.0969	   9.000	   6.133	-246.383	   4.595
    100.1303	   7.000	   6.137	-248.387	   4.595
    100.1637	   2.000	   6.142	-253.392	   4.595
    100.1972	   5.000	   6.147	-250.397	   4.595
    100.2306	   7.000	   6.152	-248.402	   4.595
    100.2640	   7.000	   6.157	-248.407	   4.595
    100.2974	   6.000	   6.163	-249.413	   4.595
    100.3308	   7.000	   6.168	-248.418	   4.595
    100.3643	   7.000	   6.175	-248.425	   4.595
    100.3977	   9.000	   6.181	-246.431	   4.595
    100.4311	   5.000	   6.188	-250.438	   4.595
    100.4645	   8.000	   6.195	-247.445	   4.595
    100.4980	   9.000	   6.202	-246.452	   4.595
    100.5314	   4.000	   6.210	-251.460	   4.595
    100.5648	   5.000	   6.219	-250.469	   4.595
    100.5982	   6.000	   6.228	-249.478	   4.595
    100.6317	   9.000	   6.237	-246.487	   4.595
    100.6651	   4.000	   6.247	-251.497	   4.595
    100.6985	   9.000	   6.257	-246.507	   4.595
    100.7319	   5.000	   6.268	-250.518	   4.595
    100.7653	   3.000	   6.280	-252.530	   4.595
    100.7988	   8.000	   6.292	-247.542	   4.595
    100.8322	   8.000	   6.306	-247.556	   4.595
    100.8656	   5.000	   6.320	-250.570	   4.595
    100.8990	   7.000	   6.335	-248.585	   4.595
    100.9325	   6.000	   6.351	-249.601	   4.595
    100.9659	   4.000	   6.368	-251.618	   4.595
    100.9993	   6.000	   6.386	-249.636	   4.595
    101.0327	   4.000	   6.406	-251.656	   4.595
    101.0661	   5.000	   6.427	-250.677	   4.595
    101.0996	   3.000	   6.450	-252.700	   4.595
    101.1330	   5.000	   6.475	-250.725	   4.595
    101.1664	   6.000	   6.501	-249.751	   4.595
    101.1998	   6.000	   6.530	-249.780	   4.595
    101.2333	   4.000	   6.561	-251.811	   4.595
    101.2667	   6.000	   6.595	-249.845	   4.595
    101.3001	  10.000	   6.631	-245.882	   4.595
    101.3335	   7.000	   6.672	-248.922	   4.595
    101.3670	   7.000	   6.716	-248.966	   4.595
    101.4004	   6.000	   6.929	-250.179	   4.595
    101.4338	   7.000	   6.985	-249.235	   4.595
    101.4672	  10.000	   7.046	-246.296	   4.595
    101.5006	   5.000	   7.114	-251.364	   4.595
    101.5341	   7.000	   7.189	-249.439	   4.595
    101.5675	   5.000	   7.273	-251.523	   4.595
    101.6009	   6.000	   7.367	-250.617	   4.595
    101.6343	  16.000	   7.472	-240.722	   4.595
    101.6678	   7.000	   7.590	-249.840	   4.595
    101.7012	   3.000	   7.724	-253.974	   4.595
    101.7346	  13.000	   7.957	-244.207	   4.595
    101.7680	   9.000	   8.131	-248.381	   4.595
    101.8014	  10.000	   8.329	-247.579	   4.595
    101.8349	   8.000	   8.555	-249.805	   4.595
    101.8683	   8.000	   8.812	-250.062	   4.595
    101.9017	   6.000	   9.106	-252.356	   4.595
    101.9351	  12.000	   9.439	-246.689	   4.595
    101.9686	   6.000	   9.818	-253.068	   4.595
    102.0020	   7.000	  10.244	-252.494	   4.595
    102.0354	   7.000	  10.718	-252.968	   4.595
    102.0688	  14.000	  11.239	-246.489	   4.595
    102.1022	  14.000	  11.798	-247.048	   4.595
    102.1357	   8.000	  12.379	-253.629	   4.595
    102.1691	  10.000	  12.955	-252.205	   4.595
    102.2025	  18.000	  13.491	-244.741	   4.595
    102.2359	  13.000	  13.945	-250.195	   4.595
    102.2694	  14.000	  14.279	-249.529	   4.595
    102.3028	  18.000	  14.467	-245.717	   4.595
    102.3362	   8.000	  14.509	-255.759	   4.595
    102.3696	   9.000	  14.464	-254.714	   4.595
    102.4030	  16.000	  14.290	-247.540	   4.595
    102.4365	  15.000	  14.067	-248.317	   4.595
    102.4699	  14.000	  13.829	-249.079	   4.595
    102.5033	   9.000	  13.594	-253.844	   4.595
    102.5367	  24.000	  13.367	-238.617	   4.595
    102.5702	  12.000	  13.139	-250.389	   4.595
    102.6036	   9.000	  12.894	-253.144	   4.595
    102.6370	   8.000	  12.615	-253.865	   4.595
    102.6704	  16.000	  12.295	-245.545	   4.595
    102.7038	  10.000	  11.933	-251.183	   4.595
    102.7373	  17.000	  11.561	-243.811	   4.595
    102.7707	  13.000	  11.157	-247.407	   4.595
    102.8041	  10.000	  10.756	-250.006	   4.595
    102.8375	   8.000	  10.374	-251.624	   4.595
    102.8710	   7.000	  10.020	-252.270	   4.595
    102.9044	   9.000	   9.698	-249.948	   4.595
    102.9378	  15.000	   9.412	-243.662	   4.595
    102.9712	   6.000	   9.159	-252.409	   4.595
    103.0047	  14.000	   8.938	-244.188	   4.595
    103.0381	   7.000	   8.746	-250.996	   4.595
    103.0715	  10.000	   8.580	-247.830	   4.595
    103.1049	   4.000	   8.438	-253.688	   4.595
    103.1383	   6.000	   8.316	-251.566	   4.595
    103.1718	   4.000	   8.212	-253.462	   4.595
    103.2052	   9.000	   8.125	-248.375	   4.595
    103.2386	   6.000	   8.051	-251.301	   4.595
    103.2720	   5.000	   7.989	-252.239	   4.595
    103.3055	   6.000	   7.939	-251.189	   4.595
    103.3389	  16.000	   7.898	-241.148	   4.595
    103.3723	   7.000	   7.866	-250.116	   4.595
    103.4057	   3.000	   7.842	-254.092	   4.595
    103.4391	   6.000	   7.824	-251.074	   4.595
    103.4726	   8.000	   7.814	-249.064	   4.595
    103.5060	   8.000	   7.809	-249.059	   4.595
    103.5394	  10.000	   7.811	-247.061	   4.595
    103.5728	   6.000	   7.818	-251.068	   4.595
    103.6063	   7.000	   7.830	-250.080	   4.595
    103.6397	   4.000	   7.847	-253.097	   4.595
    103.6731	   4.000	   7.869	-253.119	   4.595
    103.7065	   5.000	   7.896	-252.146	   4.595
    103.7400	   8.000	   7.929	-249.179	   4.595
    103.7734	  10.000	   7.966	-247.216	   4.595
    103.8068	   8.000	   8.009	-249.259	   4.595
    103.8402	  12.000	   8.057	-245.307	   4.595
    103.8736	  10.000	   8.110	-247.360	   4.595
    103.9071	   8.000	   8.170	-249.420	   4.595
    103.9405	   3.000	   8.235	-254.485	   4.595
    103.9739	   8.000	   8.307	-249.557	   4.595
    104.0073	   8.000	   8.387	-249.637	   4.595
    104.0407	   4.000	   8.473	-253.723	   4.595
    104.0742	   9.000	   8.568	-248.818	   4.595
    104.1076	   6.000	   8.671	-251.921	   4.595
    104.1410	  13.000	   8.784	-245.034	   4.595
    104.1744	   9.000	   8.908	-249.158	   4.595
    104.2079	   7.000	   9.042	-251.292	   4.595
    104.2413	  15.000	   9.190	-243.440	   4.595
    104.2747	  15.000	   9.351	-243.601	   4.595
    104.3081	  15.000	   9.528	-243.778	   4.595
    104.3416	   8.000	   9.722	-250.972	   4.595
    104.3750	  19.000	   9.936	-240.186	   4.595
    104.4084	   9.000	  10.172	-250.422	   4.595
    104.4418	   7.000	  10.433	-252.683	   4.595
    104.4752	  13.000	  10.722	-246.972	   4.595
    104.5087	   8.000	  11.044	-252.294	   4.595
    104.5421	  15.000	  11.403	-245.653	   4.595
    104.5755	  16.000	  11.804	-245.054	   4.595
    104.6089	  17.000	  12.255	-244.505	   4.595
    104.6424	  19.000	  12.763	-243.013	   4.595
    104.6758	   8.000	  13.336	-254.586	   4.595
    104.7092	  14.000	  13.985	-249.235	   4.595
    104.7426	  14.000	  14.720	-249.970	   4.595
    104.7760	  15.000	  15.555	-249.805	   4.595
    104.8095	  16.000	  16.504	-249.754	   4.595
    104.8429	   9.000	  17.582	-257.832	   4.595
    104.8763	  24.000	  18.804	-244.054	   4.595
    104.9097	  16.000	  20.187	-253.437	   4.595
    104.9432	   8.000	  21.745	-262.995	   4.595
    104.9766	  22.000	  23.488	-250.738	   4.595
    105.0100	  26.000	  25.415	-248.665	   4.595
    105.0434	  21.000	  27.517	-255.767	   4.595
    105.0769	  24.000	  29.757	-255.007	   4.595
    105.1103	  27.000	  32.072	-254.322	   4.595
    105.1437	  22.000	  34.363	-261.613	   4.595
    105.1771	  33.000	  36.498	-252.748	   4.595
    105.2105	  44.000	  38.325	-243.575	   4.595
    105.2440	  34.000	  39.702	-254.952	   4.595
    105.2774	  40.000	  40.533	-249.783	   4.595
    105.3108	  30.000	  40.798	-260.048	   4.595
    105.3442	  29.000	  40.562	-260.812	   4.595
    105.3777	  33.000	  39.950	-256.200	   4.595
    105.4111	  24.000	  39.115	-264.365	   4.595
    105.4445	  26.000	  38.190	-261.440	   4.595
    105.4779	  24.000	  37.268	-262.518	   4.595
    105.5113	  16.000	  36.389	-269.639	   4.595
    105.5448	  19.000	  35.542	-265.792	   4.595
    105.5782	  18.000	  34.681	-265.931	   4.595
    105.6116	  21.000	  33.741	-261.991	   4.595
    105.6450	  19.000	  32.671	-262.921	   4.595
    105.6785	  28.000	  31.448	-252.698	   4.595
    105.7119	  21.000	  30.091	-258.341	   4.595
    105.7453	  20.000	  28.647	-257.897	   4.595
    105.7787	  19.000	  27.183	-257.433	   4.595
    105.8121	  15.000	  25.764	-260.014	   4.595
    105.8456	  10.000	  24.446	-263.696	   4.595
    105.8790	  15.000	  23.265	-257.515	   4.595
    105.9124	  18.000	  22.245	-253.495	   4.595
    105.9458	  10.000	  21.395	-260.645	   4.595
    105.9793	  22.000	  20.715	-247.965	   4.595
    106.0127	  16.000	  20.198	-253.448	   4.595
    106.0461	  17.000	  19.831	-252.081	   4.595
    106.0795	  15.000	  19.593	-253.843	   4.595
    106.1129	  10.000	  19.460	-258.710	   4.595
    106.1464	  13.000	  19.396	-255.646	   4.595
    106.1798	  18.000	  19.360	-250.610	   4.595
    106.2132	  12.000	  19.309	-256.559	   4.595
    106.2466	  19.000	  19.201	-249.451	   4.595
    106.2801	  10.000	  19.009	-258.259	   4.595
    106.3135	  18.000	  18.790	-250.040	   4.595
    106.3469	  13.000	  18.419	-254.669	   4.595
    106.3803	  12.000	  17.988	-255.238	   4.595
    106.4137	  14.000	  17.528	-252.778	   4.595
    106.4472	  19.000	  17.068	-247.318	   4.595
    106.4806	   6.000	  16.626	-259.876	   4.595
    106.5140	  17.000	  16.211	-248.461	   4.595
    106.5474	   5.000	  15.819	-260.069	   4.595
    106.5809	  18.000	  15.437	-246.687	   4.595
    106.6143	  14.000	  15.048	-250.298	   4.595
    106.6477	   9.000	  14.639	-254.889	   4.595
    106.6811	  12.000	  14.234	-251.484	   4.595
    106.7146	  16.000	  13.767	-247.017	   4.595
    106.7480	   9.000	  13.280	-253.530	   4.595
    106.7814	  13.000	  12.786	-249.036	   4.595
    106.8148	   8.000	  12.300	-253.550	   4.595
    106.8482	   9.000	  11.833	-252.083	   4.595
    106.8817	  17.000	  11.394	-243.644	   4.595
    106.9151	   9.000	  10.988	-251.238	   4.595
    106.9485	   5.000	  10.617	-254.867	   4.595
    106.9819	  10.000	  10.281	-249.531	   4.595
    107.0154	   7.000	   9.978	-252.228	   4.595
    107.0488	   6.000	   9.705	-252.955	   4.595
    107.0822	   8.000	   9.460	-250.710	   4.595
    107.1156	  10.000	   9.240	-248.490	   4.595
    107.1490	   4.000	   9.019	-254.269	   4.595
    107.1825	  13.000	   8.842	-245.092	   4.595
    107.2159	   5.000	   8.682	-252.932	   4.595
    107.2493	   6.000	   8.537	-251.787	   4.595
    107.2827	   7.000	   8.406	-250.656	   4.595
    107.3162	   6.000	   8.288	-251.538	   4.595
    107.3496	  12.000	   8.180	-245.430	   4.595
    107.3830	   7.000	   8.082	-250.332	   4.595
    107.4164	   3.000	   7.992	-254.242	   4.595
    107.4499	   8.000	   7.909	-249.159	   4.595
    107.4833	   7.000	   7.833	-250.083	   4.595
    107.5167	   0.000	   7.752	-257.002	   4.595
    107.5501	  13.000	   7.688	-243.938	   4.595
    107.5835	   5.000	   7.629	-251.879	   4.595
    107.6170	   6.000	   7.574	-250.824	   4.595
    107.6504	   5.000	   7.523	-251.773	   4.595
    107.6838	   6.000	   7.476	-250.726	   4.595
    107.7172	   3.000	   7.433	-253.683	   4.595
    107.7507	   9.000	   7.392	-247.642	   4.595
    107.7841	  10.000	   7.355	-246.605	   4.595
    107.8175	   9.000	   7.320	-247.570	   4.595
    107.8509	   5.000	   7.287	-251.537	   4.595
    107.8843	   3.000	   7.257	-253.507	   4.595
    107.9178	   5.000	   7.229	-251.479	   4.595
    107.9512	   7.000	   7.204	-249.454	   4.595
    107.9846	  13.000	   7.180	-243.430	   4.595
    108.0180	  10.000	   7.158	-246.408	   4.595
    108.0515	   4.000	   7.137	-252.387	   4.595
    108.0849	   6.000	   7.119	-250.369	   4.595
    108.1183	   5.000	   7.102	-251.352	   4.595
    108.1517	  10.000	   7.086	-246.336	   4.595
    108.1852	   5.000	   7.072	-251.322	   4.595
    108.2186	   4.000	   7.060	-252.310	   4.595
    108.2520	   7.000	   7.048	-249.298	   4.595
    108.2854	   9.000	   7.039	-247.289	   4.595
    108.3188	   2.000	   7.030	-254.280	   4.595
    108.3523	   5.000	   7.023	-251.273	   4.595
    108.3857	   5.000	   7.017	-251.267	   4.595
    108.4191	   4.000	   7.012	-252.262	   4.595
    108.4525	   5.000	   7.009	-251.259	   4.595
    108.4859	   6.000	   7.007	-250.257	   4.595
    108.5194	   6.000	   7.007	-250.257	   4.595
    108.5528	   2.000	   7.007	-254.257	   4.595
    108.5862	   7.000	   7.009	-249.259	   4.595
    108.6196	   4.000	   7.013	-252.263	   4.595
    108.6531	   9.000	   7.018	-247.268	   4.595
    108.6865	   6.000	   7.024	-250.274	   4.595
    108.7199	   7.000	   7.032	-249.282	   4.595
    108.7533	   3.000	   7.041	-253.291	   4.595
    108.7868	   9.000	   7.052	-247.302	   4.595
    108.8202	   4.000	   7.065	-252.315	   4.595
    108.8536	   7.000	   7.079	-249.329	   4.595
    108.8870	   5.000	   7.096	-251.346	   4.595
    108.9204	   7.000	   7.114	-249.364	   4.595
    108.9539	   6.000	   7.135	-250.385	   4.595
    108.9873	   4.000	   7.158	-252.408	   4.595
    109.0207	   8.000	   7.183	-248.433	   4.595
    109.0541	   3.000	   7.212	-253.462	   4.595
    109.0876	   8.000	   7.243	-248.493	   4.595
    109.1210	   7.000	   7.277	-249.527	   4.595
    109.1544	   9.000	   7.314	-247.564	   4.595
    109.1878	   7.000	   7.356	-249.606	   4.595
    109.2212	   8.000	   7.401	-248.651	   4.595
    109.2547	   8.000	   7.451	-248.701	   4.595
    109.2881	   7.000	   7.505	-249.755	   4.595
    109.3215	   7.000	   7.573	-249.823	   4.595
    109.3549	  13.000	   7.639	-243.889	   4.595
    109.3884	  10.000	   7.712	-246.962	   4.595
    109.4218	  12.000	   7.793	-245.043	   4.595
    109.4552	   8.000	   7.882	-249.132	   4.595
    109.4886	   6.000	   7.981	-251.231	   4.595
    109.5220	   9.000	   8.091	-248.341	   4.595
    109.5555	   5.000	   8.213	-252.463	   4.595
    109.5889	   4.000	   8.349	-253.599	   4.595
    109.6223	  14.000	   8.501	-243.751	   4.595
    109.6557	   8.000	   8.671	-249.921	   4.595
    109.6892	   8.000	   8.862	-250.112	   4.595
    109.7226	  12.000	   9.080	-246.330	   4.595
    109.7560	   6.000	   9.322	-252.572	   4.595
    109.7894	   9.000	   9.595	-249.845	   4.595
    109.8229	  12.000	   9.902	-247.152	   4.595
    109.8563	   9.000	  10.248	-250.498	   4.595
    109.8897	  10.000	  10.637	-249.887	   4.595
    109.9231	  15.000	  11.076	-245.326	   4.595
    109.9565	  14.000	  11.567	-246.817	   4.595
    109.9900	   7.000	  12.115	-254.365	   4.595
    110.0234	   9.000	  12.722	-252.972	   4.595
    110.0568	   8.000	  13.387	-254.637	   4.595
    110.0902	  17.000	  14.108	-246.358	   4.595
    110.1237	  13.000	  14.873	-251.123	   4.595
    110.1571	  13.000	  15.663	-251.913	   4.595
    110.1905	  17.000	  16.452	-248.702	   4.595
    110.2239	  21.000	  17.201	-245.451	   4.595
    110.2573	  14.000	  17.865	-253.115	   4.595
    110.2908	  25.000	  18.302	-242.552	   4.595
    110.3242	  20.000	  18.674	-247.924	   4.595
    110.3576	  15.000	  18.862	-253.112	   4.595
    110.3910	  18.000	  18.872	-250.122	   4.595
    110.4245	  25.000	  18.729	-242.979	   4.595
    110.4579	  13.000	  18.475	-254.725	   4.595
    110.4913	  12.000	  18.154	-255.404	   4.595
    110.5247	  12.000	  17.806	-255.056	   4.595
    110.5581	  17.000	  17.459	-249.709	   4.595
    110.5916	  18.000	  17.126	-248.376	   4.595
    110.6250	  17.000	  16.806	-249.056	   4.595
    110.6584	  12.000	  16.486	-253.736	   4.595
    110.6918	  16.000	  16.098	-249.348	   4.595
    110.7253	  13.000	  15.722	-251.972	   4.595
    110.7587	   6.000	  15.295	-258.545	   4.595
    110.7921	   4.000	  14.814	-260.064	   4.595
    110.8255	  18.000	  14.285	-245.535	   4.595
    110.8589	  17.000	  13.723	-245.973	   4.595
    110.8924	  15.000	  13.148	-247.398	   4.595
    110.9258	  13.000	  12.577	-248.827	   4.595
    110.9592	   8.000	  12.028	-253.278	   4.595
    110.9926	  12.000	  11.509	-248.759	   4.595
    111.0261	  10.000	  11.028	-250.278	   4.595
    111.0595	  10.000	  10.587	-249.837	   4.595
    111.0929	  16.000	  10.188	-243.438	   4.595
    111.1263	  10.000	   9.828	-249.078	   4.595
    111.1598	  13.000	   9.504	-245.754	   4.595
    111.1932	   7.000	   9.215	-251.465	   4.595
    111.2266	  10.000	   8.956	-248.206	   4.595
    111.2600	   5.000	   8.725	-252.975	   4.595
    111.2934	  12.000	   8.518	-245.768	   4.595
    111.3269	  13.000	   8.333	-244.583	   4.595
    111.3603	  17.000	   8.143	-240.393	   4.595
    111.3937	   7.000	   7.994	-250.244	   4.595
    111.4271	   6.000	   7.861	-251.111	   4.595
    111.4606	   4.000	   7.740	-252.990	   4.595
    111.4940	   4.000	   7.631	-252.881	   4.595
    111.5274	   9.000	   7.533	-247.783	   4.595
    111.5608	  12.000	   7.443	-244.693	   4.595
    111.5942	   6.000	   7.362	-250.612	   4.595
    111.6277	  10.000	   7.288	-246.538	   4.595
    111.6611	  10.000	   7.220	-246.470	   4.595
    111.6945	   7.000	   7.158	-249.408	   4.595
    111.7279	   6.000	   7.101	-250.351	   4.595
    111.7614	  13.000	   7.037	-243.287	   4.595
    111.7948	   7.000	   6.989	-249.239	   4.595
    111.8282	   4.000	   6.944	-252.194	   4.595
    111.8616	   5.000	   6.903	-251.153	   4.595
    111.8951	   8.000	   6.866	-248.116	   4.595
    111.9285	   6.000	   6.831	-250.081	   4.595
    111.9619	   6.000	   6.798	-250.048	   4.595
    111.9953	   3.000	   6.769	-253.019	   4.595
    112.0287	   6.000	   6.741	-249.991	   4.595
    112.0622	   3.000	   6.715	-252.965	   4.595
    112.0956	   7.000	   6.692	-248.942	   4.595
    112.1290	   9.000	   6.670	-246.920	   4.595
    112.1624	   9.000	   6.650	-246.900	   4.595
    112.1959	   3.000	   6.632	-252.882	   4.595
    112.2293	   5.000	   6.615	-250.865	   4.595
    112.2627	   6.000	   6.600	-249.850	   4.595
    112.2961	   6.000	   6.586	-249.836	   4.595
    112.3295	  10.000	   6.573	-245.823	   4.595
    112.3630	   5.000	   6.562	-250.812	   4.595
    112.3964	   9.000	   6.553	-246.803	   4.595
    112.4298	   3.000	   6.544	-252.794	   4.595
    112.4632	   6.000	   6.537	-249.787	   4.595
    112.4967	   7.000	   6.531	-248.781	   4.595
    112.5301	   9.000	   6.527	-246.777	   4.595
    112.5635	  15.000	   6.524	-240.774	   4.595
    112.5969	   5.000	   6.523	-250.773	   4.595
    112.6303	   5.000	   6.524	-250.774	   4.595
    112.6638	   9.000	   6.526	-246.776	   4.595
    112.6972	   6.000	   6.530	-249.780	   4.595
    112.7306	   6.000	   6.536	-249.786	   4.595
    112.7640	   9.000	   6.544	-246.794	   4.595
    112.7975	   2.000	   6.554	-253.804	   4.595
    112.8309	   7.000	   6.567	-248.817	   4.595
    112.8643	   3.000	   6.583	-252.833	   4.595
    112.8977	   7.000	   6.603	-248.853	   4.595
    112.9311	   6.000	   6.626	-249.876	   4.595
    112.9646	   9.000	   6.652	-246.902	   4.595
    112.9980	   6.000	   6.683	-249.933	   4.595
    113.0314	   6.000	   6.719	-249.969	   4.595
    113.0648	   4.000	   6.760	-252.010	   4.595
    113.0983	   7.000	   6.806	-249.056	   4.595
    113.1317	  10.000	   6.857	-246.107	   4.595
    113.1651	   6.000	   6.914	-250.164	   4.595
    113.1985	   6.000	   6.975	-250.225	   4.595
    113.2319	   4.000	   7.041	-252.291	   4.595
    113.2654	   3.000	   7.109	-253.359	   4.595
    113.2988	  12.000	   7.177	-244.427	   4.595
    113.3322	  15.000	   7.242	-241.492	   4.595
    113.3656	   8.000	   7.300	-248.550	   4.595
    113.3991	   5.000	   7.348	-251.598	   4.595
    113.4325	  12.000	   7.381	-244.631	   4.595
    113.4659	   6.000	   7.400	-250.650	   4.595
    113.4993	   5.000	   7.402	-251.652	   4.595
    113.5328	  13.000	   7.390	-243.640	   4.595
    113.5662	   8.000	   7.367	-248.617	   4.595
    113.5996	   4.000	   7.336	-252.586	   4.595
    113.6330	   3.000	   7.301	-253.551	   4.595
    113.6664	   9.000	   7.265	-247.515	   4.595
    113.6999	   6.000	   7.231	-250.481	   4.595
    113.7333	   2.000	   7.197	-254.447	   4.595
    113.7667	   8.000	   7.165	-248.415	   4.595
    113.8001	   5.000	   7.133	-251.383	   4.595
    113.8336	  14.000	   7.100	-242.350	   4.595
    113.8670	   6.000	   7.063	-250.313	   4.595
    113.9004	  13.000	   7.021	-243.271	   4.595
    113.9338	   7.000	   6.975	-249.225	   4.595
    113.9672	  12.000	   6.925	-244.175	   4.595
    114.0007	   4.000	   6.871	-252.121	   4.595
    114.0341	  10.000	   6.817	-246.067	   4.595
    114.0675	  13.000	   6.762	-243.012	   4.595
    114.1009	   4.000	   6.708	-251.958	   4.595
    114.1344	   5.000	   6.658	-250.908	   4.595
    114.1678	  10.000	   6.610	-245.860	   4.595
    114.2012	   8.000	   6.566	-247.816	   4.595
    114.2346	  10.000	   6.525	-245.775	   4.595
    114.2681	  10.000	   6.488	-245.738	   4.595
    114.3015	  10.000	   6.455	-245.705	   4.595
    114.3349	   5.000	   6.425	-250.675	   4.595
    114.3683	   4.000	   6.397	-251.647	   4.595
    114.4017	   8.000	   6.373	-247.623	   4.595
    114.4352	   6.000	   6.350	-249.600	   4.595
    114.4686	   9.000	   6.352	-246.602	   4.595
    114.5020	   8.000	   6.334	-247.584	   4.595
    114.5354	   9.000	   6.317	-246.567	   4.595
    114.5688	   7.000	   6.302	-248.552	   4.595
    114.6023	   2.000	   6.288	-253.538	   4.595
    114.6357	   5.000	   6.275	-250.525	   4.595
    114.6691	   4.000	   6.264	-251.514	   4.595
    114.7025	  13.000	   6.253	-242.503	   4.595
    114.7360	   8.000	   6.243	-247.493	   4.595
    114.7694	   4.000	   6.234	-251.484	   4.595
    114.8028	   9.000	   6.226	-246.476	   4.595
    114.8362	   8.000	   6.218	-247.468	   4.595
    114.8697	   3.000	   6.211	-252.461	   4.595
    114.9031	   4.000	   6.215	-251.465	   4.595
    114.9365	   6.000	   6.209	-249.459	   4.595
    114.9699	   7.000	   6.203	-248.453	   4.595
    115.0033	   9.000	   6.198	-246.448	   4.595
    115.0368	   8.000	   6.193	-247.443	   4.595
    115.0702	   5.000	   6.188	-250.438	   4.595
    115.1036	   6.000	   6.183	-249.433	   4.595
    115.1370	   4.000	   6.179	-251.429	   4.595
    115.1705	   6.000	   6.175	-249.425	   4.595
    115.2039	  12.000	   6.172	-243.422	   4.595
    115.2373	   4.000	   6.168	-251.418	   4.595
    115.2707	   5.000	   6.165	-250.415	   4.595
    115.3041	   3.000	   6.162	-252.412	   4.595
    115.3376	   7.000	   6.160	-248.410	   4.595
    115.3710	   6.000	   6.157	-249.407	   4.595
    115.4044	   5.000	   6.155	-250.405	   4.595
    115.4378	   3.000	   6.153	-252.403	   4.595
    115.4713	   3.000	   6.151	-252.401	   4.595
    115.5047	   7.000	   6.149	-248.399	   4.595
    115.5381	  10.000	   6.147	-245.397	   4.595
    115.5715	   3.000	   6.146	-252.396	   4.595
    115.6049	   4.000	   6.144	-251.394	   4.595
    115.6384	   8.000	   6.143	-247.393	   4.595
    115.6718	   5.000	   6.103	-250.353	   4.595
    115.7052	   6.000	   6.103	-249.353	   4.595
    115.7386	   3.000	   6.102	-252.352	   4.595
    115.7721	   9.000	   6.102	-246.352	   4.595
    115.8055	   6.000	   6.102	-249.352	   4.595
    115.8389	   5.000	   6.101	-250.351	   4.595
    115.8723	   8.000	   6.101	-247.351	   4.595
    115.9058	   4.000	   6.102	-251.352	   4.595
    115.9392	   4.000	   6.102	-251.352	   4.595
    115.9726	   4.000	   6.102	-251.352	   4.595
    116.0060	   6.000	   6.102	-249.352	   4.595
    116.0394	   4.000	   6.103	-251.353	   4.595
    116.0729	   9.000	   6.103	-246.353	   4.595
    116.1063	   4.000	   6.085	-251.335	   4.595
    116.1397	   6.000	   6.086	-249.336	   4.595
    116.1731	   5.000	   6.087	-250.337	   4.595
    116.2066	   7.000	   6.088	-248.338	   4.595
    116.2400	   5.000	   6.089	-250.339	   4.595
    116.2734	  12.000	   6.091	-243.341	   4.595
    116.3068	   5.000	   6.092	-250.342	   4.595
    116.3402	   5.000	   6.094	-250.344	   4.595
    116.3737	   6.000	   6.096	-249.346	   4.595
    116.4071	   8.000	   6.097	-247.347	   4.595
    116.4405	   5.000	   6.099	-250.349	   4.595
    116.4739	   8.000	   6.101	-247.352	   4.595
    116.5074	   8.000	   6.104	-247.354	   4.595
    116.5408	   7.000	   6.106	-248.356	   4.595
    116.5742	   5.000	   6.108	-250.358	   4.595
    116.6076	  12.000	   6.111	-243.361	   4.595
    116.6410	   4.000	   6.114	-251.364	   4.595
    116.6745	   7.000	   6.117	-248.367	   4.595
    116.7079	   8.000	   6.120	-247.370	   4.595
    116.7413	  10.000	   6.123	-245.373	   4.595
    116.7747	  14.000	   6.126	-241.376	   4.595
    116.8082	   7.000	   6.130	-248.380	   4.595
    116.8416	   7.000	   6.134	-248.384	   4.595
    116.8750	   7.000	   6.138	-248.388	   4.595
    116.9084	   3.000	   6.142	-252.392	   4.595
    116.9418	   3.000	   6.146	-252.396	   4.595
    116.9753	   2.000	   6.151	-253.401	   4.595
    117.0087	   7.000	   6.156	-248.406	   4.595
    117.0421	   5.000	   6.161	-250.411	   4.595
    117.0755	   5.000	   6.167	-250.417	   4.595
    117.1090	   8.000	   6.172	-247.422	   4.595
    117.1424	   9.000	   6.179	-246.429	   4.595
    117.1758	   8.000	   6.185	-247.435	   4.595
    117.2092	  12.000	   6.192	-243.442	   4.595
    117.2427	   9.000	   6.199	-246.449	   4.595
    117.2761	  12.000	   6.207	-243.457	   4.595
    117.3095	   8.000	   6.215	-247.465	   4.595
    117.3429	   8.000	   6.224	-247.474	   4.595
    117.3763	   5.000	   6.233	-250.483	   4.595
    117.4098	   7.000	   6.243	-248.493	   4.595
    117.4432	   5.000	   6.254	-250.504	   4.595
    117.4766	   5.000	   6.265	-250.515	   4.595
    117.5100	   6.000	   6.277	-249.527	   4.595
    117.5435	   8.000	   6.290	-247.540	   4.595
    117.5769	   4.000	   6.304	-251.554	   4.595
    117.6103	   5.000	   6.319	-250.569	   4.595
    117.6437	   8.000	   6.487	-247.737	   4.595
    117.6771	   3.000	   6.506	-252.756	   4.595
    117.7106	   5.000	   6.527	-250.777	   4.595
    117.7440	   8.000	   6.549	-247.799	   4.595
    117.7774	   9.000	   6.573	-246.823	   4.595
    117.8108	   7.000	   6.599	-248.849	   4.595
    117.8443	   8.000	   6.627	-247.877	   4.595
    117.8777	   7.000	   6.657	-248.907	   4.595
    117.9111	   5.000	   6.690	-250.940	   4.595
    117.9445	   9.000	   6.725	-246.975	   4.595
    117.9780	   8.000	   6.764	-248.014	   4.595
    118.0114	   5.000	   6.806	-251.056	   4.595
    118.0448	   8.000	   6.852	-248.102	   4.595
    118.0782	   6.000	   6.903	-250.153	   4.595
    118.1116	   7.000	   7.035	-249.285	   4.595
    118.1451	   9.000	   7.097	-247.347	   4.595
    118.1785	   9.000	   7.166	-247.416	   4.595
    118.2119	  15.000	   7.241	-241.491	   4.595
    118.2453	   3.000	   7.325	-253.575	   4.595
    118.2788	   7.000	   7.416	-249.666	   4.595
    118.3122	   8.000	   7.518	-248.768	   4.595
    118.3456	   9.000	   7.629	-247.879	   4.595
    118.3790	  10.000	   7.752	-247.002	   4.595
    118.4124	  15.000	   7.886	-242.136	   4.595
    118.4459	   7.000	   8.033	-250.283	   4.595
    118.4793	  12.000	   8.192	-245.442	   4.595
    118.5127	   7.000	   8.364	-250.614	   4.595
    118.5461	  15.000	   8.547	-242.797	   4.595
    118.5796	  16.000	   8.739	-241.989	   4.595
    118.6130	   9.000	   8.937	-249.187	   4.595
    118.6464	  12.000	   9.136	-246.386	   4.595
    118.6798	   6.000	   9.330	-252.580	   4.595
    118.7132	  10.000	   9.511	-248.761	   4.595
    118.7467	   4.000	   9.669	-254.919	   4.595
    118.7801	   9.000	   9.799	-250.049	   4.595
    118.8135	   6.000	   9.893	-253.143	   4.595
    118.8469	   9.000	   9.948	-250.198	   4.595
    118.8804	  14.000	   9.966	-245.216	   4.595
    118.9138	   9.000	   9.949	-250.199	   4.595
    118.9472	   5.000	   9.905	-254.155	   4.595
    118.9806	  12.000	   9.839	-247.089	   4.595
    119.0140	  14.000	   9.766	-245.016	   4.595
    119.0475	  12.000	   9.689	-246.939	   4.595
    119.0809	   6.000	   9.613	-252.863	   4.595
    119.1143	   7.000	   9.542	-251.792	   4.595
    119.1477	   7.000	   9.474	-251.724	   4.595
    119.1812	   9.000	   9.410	-249.660	   4.595
    119.2146	   8.000	   9.345	-250.595	   4.595
    119.2480	   6.000	   9.275	-252.525	   4.595
    119.2814	  10.000	   9.198	-248.448	   4.595
    119.3148	   5.000	   9.111	-253.361	   4.595
    119.3483	   7.000	   9.013	-251.263	   4.595
    119.3817	   6.000	   8.903	-252.153	   4.595
    119.4151	   3.000	   8.785	-255.035	   4.595
    119.4485	   7.000	   8.660	-250.910	   4.595
    119.4820	   7.000	   8.535	-250.785	   4.595
    119.5154	  14.000	   8.411	-243.661	   4.595
    119.5488	   5.000	   8.292	-252.542	   4.595
    119.5822	   6.000	   8.179	-251.429	   4.595
    119.6157	   7.000	   8.075	-250.325	   4.595
    119.6491	  14.000	   7.978	-243.228	   4.595
    119.6825	   6.000	   7.891	-251.141	   4.595
    119.7159	   8.000	   7.813	-249.063	   4.595
    119.7493	  12.000	   7.744	-244.994	   4.595
    119.7828	   9.000	   7.683	-247.933	   4.595
    119.8162	   5.000	   7.630	-251.880	   4.595
    119.8496	   5.000	   7.585	-251.835	   4.595
    119.8830	   9.000	   7.546	-247.796	   4.595
    119.9165	   8.000	   7.513	-248.763	   4.595
    119.9499	  13.000	   7.486	-243.736	   4.595
    119.9833	   6.000	   7.652	-250.902	   4.595
     18.3311	        	        	        	        	       0	(  1  1  1)	  0  1 :  1
     18.3764	        	        	        	        	       0	(  1  1  1)	  0  2 :  1
     30.1252	        	        	        	        	       0	(  0  2  2)	  0  1 :  1
     30.2009	        	        	        	        	       0	(  0  2  2)	  0  2 :  1
     35.4755	        	        	        	        	       0	(  3  1  1)	  0  1 :  1
     35.5656	        	        	        	        	       0	(  3  1  1)	  0  2 :  1
     37.1070	        	        	        	        	       0	(  2  2  2)	  0  1 :  1
     37.2015	        	        	        	        	       0	(  2  2  2)	  0  2 :  1
     43.1047	        	        	        	        	       0	(  4  0  0)	  0  1 :  1
     43.2159	        	        	        	        	       0	(  4  0  0)	  0  2 :  1
     47.1906	        	        	        	        	       0	(  3  1  3)	  0  1 :  1
     47.3137	        	        	        	        	       0	(  3  1  3)	  0  2 :  1
     53.4637	        	        	        	        	       0	(  2  2  4)	  0  1 :  1
     53.6056	        	        	        	        	       0	(  2  2  4)	  0  2 :  1
     56.9890	        	        	        	        	       0	(  1  5  1)	  0  1 :  1
     56.9890	        	        	        	        	       0	(  3  3  3)	  0  1 :  1
     57.1420	        	        	        	        	       0	(  1  5  1)	  0  2 :  1
     57.1420	        	        	        	        	       0	(  3  3  3)	  0  2 :  1
     62.5750	        	        	        	        	       0	(  4  4  0)	  0  1 :  1
     62.7462	        	        	        	        	       0	(  4  4  0)	  0  2 :  1
     65.7912	        	        	        	        	       0	(  1  5  3)	  0  1 :  1
     65.9734	        	        	        	        	       0	(  1  5  3)	  0  2 :  1
     66.8448	        	        	        	        	       0	(  2  4  4)	  0  1 :  1
     67.0308	        	        	        	        	       0	(  2  4  4)	  0  2 :  1
     70.9820	        	        	        	        	       0	(  2  6  0)	  0  1 :  1
     71.1830	        	        	        	        	       0	(  2  6  0)	  0  2 :  1
     74.0172	        	        	        	        	       0	(  5  3  3)	  0  1 :  1
     74.2297	        	        	        	        	       0	(  5  3  3)	  0  2 :  1
     75.0183	        	        	        	        	       0	(  2  2  6)	  0  1 :  1
     75.2347	        	        	        	        	       0	(  2  2  6)	  0  2 :  1
     78.9796	        	        	        	        	       0	(  4  4  4)	  0  1 :  1
     79.2119	        	        	        	        	       0	(  4  4  4)	  0  2 :  1
     81.9146	        	        	        	        	       0	(  7  1  1)	  0  1 :  1
     81.9146	        	        	        	        	       0	(  1  5  5)	  0  1 :  1
     82.1594	        	        	        	        	       0	(  7  1  1)	  0  2 :  1
     82.1594	        	        	        	        	       0	(  1  5  5)	  0  2 :  1
     86.7629	        	        	        	        	       0	(  2  4  6)	  0  1 :  1
     87.0294	        	        	        	        	       0	(  2  4  6)	  0  2 :  1
     89.6584	        	        	        	        	       0	(  5  5  3)	  0  1 :  1
     89.6584	        	        	        	        	       0	(  7  1  3)	  0  1 :  1
     89.9388	        	        	        	        	       0	(  5  5  3)	  0  2 :  1
     89.9388	        	        	        	        	       0	(  7  1  3)	  0  2 :  1
     94.4857	        	        	        	        	       0	(  0  0  8)	  0  1 :  1
     94.7908	        	        	        	        	       0	(  0  0  8)	  0  2 :  1
     97.3952	        	        	        	        	       0	(  7  3  3)	  0  1 :  1
     97.7163	        	        	        	        	       0	(  7  3  3)	  0  2 :  1
     98.3689	        	        	        	        	       0	(  4  6  4)	  0  1 :  1
     98.6956	        	        	        	        	       0	(  4  6  4)	  0  2 :  1
    102.2911	        	        	        	        	       0	(  6  6  0)	  0  1 :  1
    102.2911	        	        	        	        	       0	(  2  2  8)	  0  1 :  1
    102.6414	        	        	        	        	       0	(  6  6  0)	  0  2 :  1
    102.6414	        	        	        	        	       0	(  2  2  8)	  0  2 :  1
    105.2705	        	        	        	        	       0	(  1  5  7)	  0  1 :  1
    105.2705	        	        	        	        	       0	(  5  5  5)	  0  1 :  1
    105.6402	        	        	        	        	       0	(  1  5  7)	  0  2 :  1
    105.6402	        	        	        	        	       0	(  5  5  5)	  0  2 :  1
    106.2727	        	        	        	        	       0	(  6  2  6)	  0  1 :  1
    106.6492	        	        	        	        	       0	(  6  2  6)	  0  2 :  1
    110.3367	        	        	        	        	       0	(  8  0  4)	  0  1 :  1
    110.7426	        	        	        	        	       0	(  8  0  4)	  0  2 :  1
    113.4551	        	        	        	        	       0	(  5  3  7)	  0  1 :  1
    113.4551	        	        	        	        	       0	(  9  1  1)	  0  1 :  1
    113.8857	        	        	        	        	       0	(  5  3  7)	  0  2 :  1
    113.8857	        	        	        	        	       0	(  9  1  1)	  0  2 :  1
    114.5106	        	        	        	        	       0	(  4  2  8)	  0  1 :  1
    114.9500	        	        	        	        	       0	(  4  2  8)	  0  2 :  1
    118.8282	        	        	        	        	       0	(  6  4  6)	  0  1 :  1
    119.3065	        	        	        	        	       0	(  6  4  6)	  0  2 :  1
    122.1865	        	        	        	        	       0	(  3  1  9)	  0  1 :  1
    122.6987	        	        	        	        	       0	(  3  1  9)	  0  2 :  1
    128.0847	        	        	        	        	       0	(  4  4  8)	  0  1 :  1
    128.6664	        	        	        	        	       0	(  4  4  8)	  0  2 :  1
    131.8601	        	        	        	        	       0	(  3  3  9)	  0  1 :  1
    131.8601	        	        	        	        	       0	(  7  1  7)	  0  1 :  1
    131.8601	        	        	        	        	       0	(  7  5  5)	  0  1 :  1
    132.4946	        	        	        	        	       0	(  3  3  9)	  0  2 :  1
    132.4946	        	        	        	        	       0	(  7  1  7)	  0  2 :  1
    132.4946	        	        	        	        	       0	(  7  5  5)	  0  2 :  1
    138.7169	        	        	        	        	       0	(  8  2  6)	  0  1 :  1
    138.7169	        	        	        	        	       0	( 10  2  0)	  0  1 :  1
    139.4712	        	        	        	        	       0	(  8  2  6)	  0  2 :  1
    139.4713	        	        	        	        	       0	( 10  2  0)	  0  2 :  1
