 Fe3O4   Chi2:  3.3403  CELL:    8.34680   8.34680   8.34680   90.0000   90.0000   90.0000   SPGR: 227:1                  TEMP:      0.00
  1   1695     1.54060     1.54439     0.00000    -0.04480     0.00000    0
    78     0     1
       0.00000      15.00000
 2Theta	Yobs	Ycal	Yobs-Ycal	Backg	Posr	(hkl)	K
     15.0483	 2300.00	 2137.67	 -439.91	 2058.69
     15.0984	 2261.00	 2137.68	 -478.93	 2058.69
     15.1485	 2136.00	 2137.70	 -603.94	 2058.69
     15.1987	 2169.00	 2139.29	 -572.53	 2060.27
     15.2488	 2195.00	 2126.79	 -534.03	 2047.76
     15.2989	 2192.00	 2114.29	 -524.53	 2035.24
     15.3491	 2185.00	 2101.79	 -519.04	 2022.73
     15.3992	 2283.00	 2089.30	 -408.54	 2010.22
     15.4493	 2112.00	 2076.80	 -567.04	 1997.70
     15.4995	 2115.00	 2064.30	 -551.55	 1985.19
     15.5496	 2038.00	 2051.81	 -616.05	 1972.67
     15.5997	 2052.00	 2039.32	 -589.56	 1960.16
     15.6499	 2001.00	 2026.82	 -628.06	 1947.65
     15.7000	 2086.00	 2014.33	 -530.57	 1935.13
     15.7501	 1914.00	 2001.84	 -690.08	 1922.62
     15.8003	 1949.00	 1987.75	 -640.99	 1908.50
     15.8504	 2058.00	 1971.69	 -515.93	 1892.41
     15.9005	 1935.00	 1955.62	 -622.86	 1876.32
     15.9507	 2020.00	 1939.56	 -521.80	 1860.23
     16.0008	 2124.00	 1923.50	 -401.75	 1844.14
     16.0509	 1897.00	 1907.45	 -612.69	 1828.05
     16.1011	 1960.00	 1891.39	 -533.63	 1811.95
     16.1512	 1948.00	 1880.31	 -534.55	 1800.83
     16.2013	 1906.00	 1870.60	 -566.84	 1791.08
     16.2515	 1951.00	 1860.89	 -512.14	 1781.33
     16.3016	 1930.00	 1851.19	 -523.43	 1771.58
     16.3517	 1914.00	 1841.49	 -529.73	 1761.83
     16.4019	 1884.00	 1831.79	 -550.03	 1752.07
     16.4520	 1879.00	 1822.10	 -545.34	 1742.32
     16.5021	 1892.00	 1812.41	 -522.65	 1732.57
     16.5523	 1885.00	 1802.73	 -519.97	 1722.82
     16.6024	 1920.00	 1793.05	 -475.30	 1713.06
     16.6525	 1949.00	 1783.38	 -436.63	 1703.31
     16.7027	 1836.00	 1773.72	 -539.97	 1693.56
     16.7528	 1922.00	 1764.07	 -444.31	 1683.81
     16.8029	 1854.00	 1754.66	 -502.90	 1674.29
     16.8531	 1859.00	 1745.54	 -488.79	 1665.06
     16.9032	 1903.00	 1736.44	 -435.68	 1655.82
     16.9534	 1873.00	 1727.35	 -456.59	 1646.58
     17.0035	 1885.00	 1718.27	 -435.51	 1637.35
     17.0536	 1836.00	 1709.21	 -475.46	 1628.11
     17.1038	 1842.00	 1700.18	 -460.42	 1618.88
     17.1539	 1790.00	 1691.16	 -503.41	 1609.64
     17.2040	 1760.00	 1682.18	 -524.42	 1600.41
     17.2542	 1843.00	 1673.23	 -432.47	 1591.17
     17.3043	 1744.00	 1664.32	 -522.56	 1581.93
     17.3544	 1790.00	 1655.45	 -467.69	 1572.70
     17.4046	 1647.00	 1646.64	 -601.88	 1563.46
     17.4547	 1593.00	 1637.90	 -647.14	 1554.23
     17.5048	 1670.00	 1629.24	 -561.48	 1544.99
     17.5550	 1706.00	 1620.68	 -516.92	 1535.76
     17.6051	 1727.00	 1612.54	 -487.79	 1526.81
     17.6552	 1690.00	 1605.35	 -517.60	 1518.66
     17.7054	 1641.00	 1598.37	 -559.61	 1510.51
     17.7555	 1639.00	 1591.64	 -554.89	 1502.35
     17.8056	 1665.00	 1585.28	 -522.52	 1494.20
     17.8558	 1601.00	 1579.38	 -580.63	 1486.05
     17.9059	 1555.00	 1574.15	 -621.39	 1477.90
     17.9560	 1621.00	 1569.83	 -551.07	 1469.74
     18.0062	 1592.00	 1566.77	 -577.01	 1461.59
     18.0563	 1568.00	 1565.41	 -599.65	 1453.44
     18.1064	 1524.00	 1566.28	 -644.52	 1445.28
     18.1566	 1550.00	 1569.89	 -622.13	 1437.13
     18.2067	 1500.00	 1576.35	 -678.59	 1428.98
     18.2568	 1536.00	 1584.58	 -650.82	 1420.82
     18.3070	 1493.00	 1591.14	 -700.39	 1412.67
     18.3571	 1498.00	 1590.60	 -694.84	 1404.52
     18.4072	 1465.00	 1579.23	 -716.47	 1396.37
     18.4574	 1544.00	 1558.99	 -617.23	 1388.47
     18.5075	 1460.00	 1536.58	 -678.83	 1382.24
     18.5576	 1484.00	 1514.78	 -633.02	 1376.02
     18.6078	 1527.00	 1495.55	 -570.79	 1369.80
     18.6579	 1472.00	 1479.17	 -609.41	 1363.57
     18.7080	 1514.00	 1465.25	 -553.49	 1357.35
     18.7582	 1487.00	 1453.25	 -568.49	 1351.12
     18.8083	 1410.00	 1442.70	 -634.94	 1344.90
     18.8584	 1411.00	 1433.19	 -624.43	 1338.68
     18.9086	 1442.00	 1424.44	 -584.69	 1332.45
     18.9587	 1433.00	 1416.25	 -585.49	 1326.23
     19.0088	 1323.00	 1408.45	 -687.69	 1320.00
     19.0590	 1419.00	 1400.95	 -584.20	 1313.78
     19.1091	 1403.00	 1393.68	 -592.93	 1307.56
     19.1592	 1438.00	 1386.59	 -550.83	 1301.33
     19.2094	 1421.00	 1379.64	 -560.88	 1295.11
     19.2595	 1356.00	 1372.80	 -619.04	 1288.88
     19.3096	 1354.00	 1365.83	 -614.08	 1282.45
     19.3598	 1381.00	 1358.93	 -580.17	 1276.00
     19.4099	 1329.00	 1352.09	 -625.33	 1269.55
     19.4600	 1360.00	 1345.30	 -587.54	 1263.11
     19.5102	 1296.00	 1338.55	 -644.79	 1256.66
     19.5603	 1318.00	 1331.84	 -616.08	 1250.21
     19.6104	 1350.00	 1325.16	 -577.40	 1243.76
     19.6606	 1371.00	 1318.50	 -549.74	 1237.32
     19.7107	 1313.00	 1311.87	 -601.11	 1230.87
     19.7608	 1311.00	 1305.25	 -596.49	 1224.42
     19.8110	 1331.00	 1298.65	 -569.90	 1217.98
     19.8611	 1308.00	 1292.07	 -586.31	 1211.53
     19.9112	 1339.00	 1285.50	 -548.74	 1205.08
     19.9614	 1317.00	 1278.94	 -564.18	 1198.63
     20.0115	 1316.00	 1272.39	 -558.63	 1192.19
     20.0616	 1280.00	 1265.85	 -588.09	 1185.74
     20.1118	 1236.00	 1259.32	 -625.56	 1179.29
     20.1619	 1291.00	 1254.91	 -566.15	 1174.96
     20.2120	 1347.00	 1251.00	 -506.24	 1171.12
     20.2622	 1203.00	 1247.09	 -646.33	 1167.28
     20.3123	 1319.00	 1243.19	 -526.43	 1163.44
     20.3624	 1291.00	 1239.29	 -550.53	 1159.60
     20.4126	 1259.00	 1235.40	 -578.64	 1155.76
     20.4627	 1294.00	 1231.51	 -539.75	 1151.92
     20.5129	 1297.00	 1227.62	 -532.87	 1148.08
     20.5630	 1235.00	 1223.74	 -590.98	 1144.25
     20.6131	 1241.00	 1219.86	 -581.10	 1140.41
     20.6633	 1201.00	 1215.98	 -617.23	 1136.57
     20.7134	 1259.00	 1212.11	 -555.35	 1132.73
     20.7635	 1230.00	 1208.24	 -580.48	 1128.89
     20.8137	 1221.00	 1204.37	 -585.61	 1125.05
     20.8638	 1186.00	 1200.50	 -616.74	 1121.21
     20.9139	 1213.00	 1196.63	 -585.87	 1117.37
     20.9641	 1198.00	 1192.76	 -597.01	 1113.53
     21.0142	 1233.00	 1188.90	 -558.14	 1109.69
     21.0643	 1185.00	 1185.04	 -602.28	 1105.85
     21.1145	 1236.00	 1181.18	 -547.42	 1102.01
     21.1646	 1279.00	 1177.32	 -500.56	 1098.17
     21.2147	 1166.00	 1173.46	 -609.70	 1094.33
     21.2649	 1202.00	 1169.60	 -569.84	 1090.49
     21.3150	 1219.00	 1166.66	 -549.90	 1087.57
     21.3651	 1123.00	 1163.77	 -643.01	 1084.69
     21.4153	 1159.00	 1160.87	 -604.11	 1081.82
     21.4654	 1218.00	 1157.97	 -542.22	 1078.94
     21.5155	 1142.00	 1155.08	 -615.32	 1076.06
     21.5657	 1157.00	 1152.19	 -597.43	 1073.18
     21.6158	 1158.00	 1149.29	 -593.54	 1070.30
     21.6659	 1164.00	 1146.40	 -584.64	 1067.42
     21.7161	 1146.00	 1143.51	 -599.75	 1064.54
     21.7662	 1143.00	 1140.62	 -599.86	 1061.66
     21.8163	 1134.00	 1137.73	 -605.97	 1058.78
     21.8665	 1204.00	 1134.84	 -533.08	 1055.90
     21.9166	 1120.00	 1131.95	 -614.19	 1053.02
     21.9667	 1181.00	 1129.06	 -550.30	 1050.14
     22.0169	 1084.00	 1126.17	 -644.41	 1047.26
     22.0670	 1147.00	 1123.28	 -578.52	 1044.38
     22.1171	 1087.00	 1120.39	 -635.63	 1041.50
     22.1673	 1102.00	 1117.50	 -617.74	 1038.62
     22.2174	 1079.00	 1114.61	 -637.85	 1035.74
     22.2675	 1155.00	 1111.72	 -558.97	 1032.86
     22.3177	 1106.00	 1108.84	 -605.08	 1029.98
     22.3678	 1144.00	 1105.95	 -564.19	 1027.10
     22.4179	 1126.00	 1103.06	 -579.31	 1024.22
     22.4681	 1051.00	 1100.18	 -651.42	 1021.34
     22.5182	 1154.00	 1097.29	 -545.53	 1018.46
     22.5683	 1138.00	 1094.40	 -558.65	 1015.58
     22.6185	 1168.00	 1091.52	 -525.76	 1012.70
     22.6686	 1130.00	 1088.63	 -560.88	 1009.82
     22.7187	 1076.00	 1085.75	 -611.99	 1006.94
     22.7689	 1065.00	 1082.86	 -620.10	 1004.06
     22.8190	 1078.00	 1080.50	 -604.74	 1001.70
     22.8691	 1100.00	 1078.67	 -580.91	  999.87
     22.9193	 1112.00	 1076.84	 -567.08	  998.05
     22.9694	 1079.00	 1075.01	 -598.25	  996.22
     23.0195	 1039.00	 1073.18	 -636.42	  994.40
     23.0697	 1100.00	 1071.35	 -573.59	  992.57
     23.1198	 1049.00	 1069.52	 -622.76	  990.75
     23.1699	 1051.00	 1067.69	 -618.93	  988.92
     23.2201	 1095.00	 1065.86	 -573.10	  987.10
     23.2702	 1076.00	 1064.03	 -590.27	  985.27
     23.3203	 1111.00	 1062.20	 -553.44	  983.44
     23.3705	 1153.00	 1060.37	 -509.61	  981.62
     23.4206	 1088.00	 1058.54	 -572.79	  979.79
     23.4707	 1107.00	 1056.71	 -551.96	  977.97
     23.5209	 1082.00	 1054.89	 -575.13	  976.14
     23.5710	 1039.00	 1053.06	 -616.30	  974.32
     23.6211	 1077.00	 1051.23	 -576.47	  972.49
     23.6713	 1010.00	 1049.40	 -641.64	  970.66
     23.7214	 1037.00	 1047.57	 -612.81	  968.84
     23.7715	 1022.00	 1045.74	 -625.98	  967.01
     23.8217	 1052.00	 1043.91	 -594.16	  965.19
     23.8718	 1004.00	 1042.09	 -640.33	  963.36
     23.9220	 1144.00	 1040.26	 -498.50	  961.54
     23.9721	 1073.00	 1038.43	 -567.67	  959.71
     24.0222	 1104.00	 1036.60	 -534.84	  957.89
     24.0724	 1066.00	 1035.12	 -571.36	  956.06
     24.1225	 1057.00	 1033.30	 -578.54	  954.23
     24.1726	 1048.00	 1031.65	 -585.89	  952.41
     24.2228	 1028.00	 1029.83	 -604.07	  950.58
     24.2729	 1054.00	 1028.01	 -576.25	  948.76
     24.3230	 1061.00	 1026.19	 -567.43	  946.93
     24.3732	 1082.00	 1024.37	 -544.61	  945.11
     24.4233	 1029.00	 1022.55	 -595.80	  943.28
     24.4734	 1040.00	 1020.62	 -582.86	  941.45
     24.5236	 1054.00	 1018.80	 -567.04	  939.63
     24.5737	 1009.00	 1016.99	 -610.23	  937.80
     24.6238	 1035.00	 1015.17	 -582.41	  935.98
     24.6740	 1072.00	 1013.36	 -543.60	  934.15
     24.7241	 1066.00	 1011.54	 -547.78	  932.33
     24.7742	 1021.00	 1009.73	 -590.97	  930.50
     24.8244	 1079.00	 1007.92	 -531.16	  928.68
     24.8745	 1004.00	 1007.39	 -605.64	  928.14
     24.9246	 1035.00	 1007.89	 -575.14	  928.63
     24.9748	 1042.00	 1008.39	 -568.64	  929.12
     25.0249	 1021.00	 1008.90	 -590.14	  929.60
     25.0750	  996.00	 1009.40	 -615.64	  930.09
     25.1252	 1017.00	 1009.90	 -595.14	  930.58
     25.1753	 1018.00	 1010.40	 -594.64	  931.07
     25.2254	  997.00	 1010.90	 -616.15	  931.55
     25.2756	 1062.00	 1011.41	 -551.65	  932.04
     25.3257	 1110.00	 1011.91	 -504.15	  932.53
     25.3758	 1024.00	 1012.42	 -590.66	  933.02
     25.4260	 1081.00	 1012.92	 -534.16	  933.50
     25.4761	 1010.00	 1013.43	 -605.67	  933.99
     25.5262	 1075.00	 1013.93	 -541.17	  934.48
     25.5764	 1054.00	 1014.44	 -562.68	  934.97
     25.6265	 1078.00	 1014.94	 -539.19	  935.45
     25.6766	 1087.00	 1015.45	 -530.69	  935.94
     25.7268	 1050.00	 1015.96	 -568.20	  936.43
     25.7769	 1069.00	 1016.47	 -549.71	  936.92
     25.8270	  959.00	 1016.98	 -660.22	  937.40
     25.8772	 1043.00	 1017.56	 -576.80	  937.96
     25.9273	 1019.00	 1018.19	 -601.43	  938.57
     25.9774	 1020.00	 1018.83	 -601.07	  939.18
     26.0276	 1060.00	 1019.46	 -561.70	  939.79
     26.0777	  954.00	 1020.10	 -668.34	  940.40
     26.1278	 1070.00	 1020.73	 -552.98	  941.01
     26.1780	 1017.00	 1021.37	 -606.61	  941.62
     26.2281	 1118.00	 1022.01	 -506.25	  942.23
     26.2782	 1048.00	 1022.65	 -576.89	  942.84
     26.3284	 1043.00	 1023.29	 -582.53	  943.45
     26.3785	 1056.00	 1023.93	 -570.18	  944.06
     26.4286	 1088.00	 1024.58	 -538.82	  944.67
     26.4788	 1126.00	 1025.22	 -501.47	  945.28
     26.5289	 1110.00	 1025.87	 -518.11	  945.88
     26.5790	 1061.00	 1026.52	 -567.76	  946.49
     26.6292	 1119.00	 1027.17	 -510.41	  947.10
     26.6793	 1134.00	 1027.82	 -496.06	  947.71
     26.7294	 1250.00	 1028.47	 -380.71	  948.32
     26.7796	 1135.00	 1029.13	 -496.37	  948.93
     26.8297	 1238.00	 1029.78	 -394.03	  949.54
     26.8798	 1303.00	 1030.44	 -329.69	  950.15
     26.9300	 1333.00	 1031.10	 -300.35	  950.76
     26.9801	 1344.00	 1031.77	 -290.01	  951.37
     27.0302	 1315.00	 1032.44	 -319.68	  951.98
     27.0804	 1353.00	 1033.10	 -282.35	  952.59
     27.1305	 1250.00	 1033.78	 -386.02	  953.20
     27.1806	 1184.00	 1034.45	 -452.69	  953.81
     27.2308	 1237.00	 1035.81	 -401.06	  955.10
     27.2809	 1202.00	 1037.25	 -437.49	  956.47
     27.3311	 1140.00	 1038.69	 -500.94	  957.83
     27.3812	 1141.00	 1040.14	 -501.38	  959.20
     27.4313	 1109.00	 1041.59	 -534.83	  960.56
     27.4815	 1119.00	 1043.04	 -526.28	  961.93
     27.5316	 1120.00	 1044.50	 -526.74	  963.29
     27.5817	 1086.00	 1045.96	 -562.21	  964.66
     27.6319	 1092.00	 1047.43	 -557.68	  966.02
     27.6820	 1054.00	 1048.91	 -597.15	  967.39
     27.7321	 1056.00	 1050.39	 -596.63	  968.76
     27.7823	 1016.00	 1051.88	 -638.12	  970.12
     27.8324	 1105.00	 1053.38	 -550.62	  971.49
     27.8825	 1155.00	 1054.88	 -502.13	  972.85
     27.9327	 1077.00	 1056.40	 -581.64	  974.22
     27.9828	 1046.00	 1057.92	 -614.17	  975.58
     28.0329	 1064.00	 1059.46	 -597.70	  976.95
     28.0831	 1051.00	 1061.01	 -612.25	  978.31
     28.1332	 1102.00	 1062.57	 -562.81	  979.68
     28.1833	 1084.00	 1064.14	 -582.38	  981.04
     28.2335	 1138.00	 1065.73	 -529.97	  982.41
     28.2836	 1097.00	 1067.34	 -572.58	  983.77
     28.3337	 1097.00	 1068.96	 -574.20	  985.14
     28.3839	 1094.00	 1070.61	 -578.85	  986.50
     28.4340	 1132.00	 1072.27	 -542.52	  987.87
     28.4841	 1132.00	 1073.97	 -544.21	  989.23
     28.5343	 1125.00	 1075.69	 -552.93	  990.60
     28.5844	 1065.00	 1077.44	 -614.69	  991.96
     28.6345	 1174.00	 1080.33	 -508.57	  994.42
     28.6847	 1075.00	 1085.34	 -612.59	  998.97
     28.7348	 1104.00	 1090.40	 -588.65	 1003.52
     28.7849	 1173.00	 1095.52	 -524.76	 1008.08
     28.8351	 1086.00	 1100.69	 -616.93	 1012.63
     28.8852	 1133.00	 1105.92	 -575.16	 1017.18
     28.9353	 1093.00	 1111.23	 -620.47	 1021.73
     28.9855	 1172.00	 1116.63	 -546.87	 1026.28
     29.0356	 1050.00	 1122.13	 -674.37	 1030.83
     29.0857	 1115.00	 1127.75	 -614.99	 1035.38
     29.1359	 1060.00	 1133.50	 -675.74	 1039.93
     29.1860	 1072.00	 1139.41	 -669.66	 1044.48
     29.2361	 1206.00	 1145.52	 -541.76	 1049.03
     29.2863	 1208.00	 1151.85	 -546.09	 1053.58
     29.3364	 1126.00	 1158.45	 -634.69	 1058.13
     29.3865	 1158.00	 1166.72	 -610.97	 1062.69
     29.4367	 1193.00	 1174.08	 -583.32	 1067.24
     29.4868	 1166.00	 1182.60	 -618.84	 1071.79
     29.5369	 1136.00	 1191.09	 -657.33	 1076.34
     29.5871	 1273.00	 1200.35	 -529.59	 1080.89
     29.6372	 1219.00	 1210.60	 -593.85	 1085.44
     29.6873	 1149.00	 1222.11	 -675.36	 1089.99
     29.7375	 1233.00	 1235.22	 -604.46	 1094.54
     29.7876	 1225.00	 1250.35	 -627.60	 1099.09
     29.8377	 1256.00	 1268.02	 -614.27	 1103.64
     29.8879	 1222.00	 1288.81	 -669.06	 1108.19
     29.9380	 1248.00	 1313.30	 -667.54	 1112.74
     29.9881	 1281.00	 1341.85	 -663.09	 1117.30
     30.0383	 1226.00	 1374.24	 -750.48	 1121.85
     30.0884	 1240.00	 1408.41	 -770.66	 1125.89
     30.1385	 1284.00	 1441.19	 -759.43	 1129.79
     30.1887	 1348.00	 1467.15	 -721.39	 1133.69
     30.2388	 1384.00	 1480.61	 -698.85	 1137.59
     30.2889	 1333.00	 1478.82	 -748.06	 1141.49
     30.3391	 1271.00	 1463.63	 -794.87	 1145.39
     30.3892	 1360.00	 1440.22	 -682.46	 1149.29
     30.4393	 1339.00	 1414.22	 -677.46	 1153.20
     30.4895	 1322.00	 1389.68	 -669.92	 1157.10
     30.5396	 1261.00	 1368.61	 -709.86	 1161.00
     30.5897	 1376.00	 1351.58	 -577.82	 1164.90
     30.6399	 1328.00	 1338.35	 -612.59	 1168.80
     30.6900	 1343.00	 1328.40	 -587.64	 1172.70
     30.7401	 1277.00	 1321.14	 -646.38	 1176.60
     30.7903	 1312.00	 1316.04	 -606.29	 1180.50
     30.8404	 1328.00	 1312.66	 -586.91	 1184.40
     30.8905	 1373.00	 1310.63	 -539.88	 1188.30
     30.9407	 1258.00	 1309.66	 -653.91	 1192.20
     30.9908	 1359.00	 1309.53	 -552.77	 1196.10
     31.0410	 1244.00	 1310.18	 -668.42	 1200.01
     31.0911	 1287.00	 1311.24	 -626.48	 1203.91
     31.1412	 1297.00	 1312.80	 -618.04	 1207.81
     31.1914	 1356.00	 1314.65	 -560.89	 1211.71
     31.2415	 1266.00	 1316.79	 -653.03	 1215.61
     31.2916	 1247.00	 1319.17	 -674.41	 1219.51
     31.3418	 1308.00	 1321.75	 -615.99	 1223.41
     31.3919	 1333.00	 1324.63	 -593.87	 1227.43
     31.4420	 1329.00	 1328.49	 -601.73	 1232.29
     31.4922	 1330.00	 1332.48	 -604.72	 1237.15
     31.5423	 1271.00	 1336.57	 -667.81	 1242.00
     31.5924	 1361.00	 1340.76	 -582.00	 1246.86
     31.6426	 1408.00	 1345.04	 -539.28	 1251.72
     31.6927	 1332.00	 1349.38	 -619.63	 1256.57
     31.7428	 1326.00	 1353.80	 -630.04	 1261.43
     31.7930	 1286.00	 1358.27	 -674.51	 1266.29
     31.8431	 1312.00	 1362.79	 -653.03	 1271.15
     31.8932	 1353.00	 1367.36	 -616.60	 1276.00
     31.9434	 1357.00	 1371.97	 -617.22	 1280.86
     31.9935	 1320.00	 1376.63	 -658.87	 1285.72
     32.0436	 1329.00	 1381.31	 -654.55	 1290.57
     32.0938	 1386.00	 1386.03	 -602.28	 1295.43
     32.1439	 1368.00	 1390.79	 -625.03	 1300.29
     32.1940	 1364.00	 1395.57	 -633.81	 1305.14
     32.2442	 1382.00	 1400.38	 -620.62	 1310.00
     32.2943	 1357.00	 1405.21	 -650.45	 1314.86
     32.3444	 1410.00	 1410.07	 -602.31	 1319.72
     32.3946	 1417.00	 1414.96	 -600.20	 1324.57
     32.4447	 1405.00	 1419.86	 -617.11	 1329.43
     32.4948	 1406.00	 1424.80	 -621.04	 1334.29
     32.5450	 1413.00	 1429.75	 -618.99	 1339.14
     32.5951	 1345.00	 1434.73	 -691.97	 1344.00
     32.6452	 1425.00	 1439.71	 -616.95	 1348.84
     32.6954	 1408.00	 1444.68	 -638.93	 1353.65
     32.7455	 1496.00	 1449.68	 -555.93	 1358.46
     32.7956	 1417.00	 1454.71	 -639.95	 1363.27
     32.8458	 1388.00	 1459.75	 -673.99	 1368.08
     32.8959	 1461.00	 1464.82	 -606.07	 1372.89
     32.9460	 1441.00	 1469.92	 -631.16	 1377.70
     32.9962	 1464.00	 1475.05	 -613.29	 1382.51
     33.0463	 1411.00	 1480.20	 -671.44	 1387.31
     33.0964	 1429.00	 1485.38	 -658.63	 1392.12
     33.1466	 1465.00	 1490.60	 -627.84	 1396.93
     33.1967	 1487.00	 1495.85	 -611.09	 1401.74
     33.2468	 1537.00	 1501.13	 -566.37	 1406.55
     33.2970	 1542.00	 1506.46	 -566.70	 1411.36
     33.3471	 1530.00	 1511.82	 -584.06	 1416.17
     33.3972	 1452.00	 1517.23	 -667.47	 1420.98
     33.4474	 1500.00	 1522.68	 -624.92	 1425.79
     33.4975	 1459.00	 1528.19	 -671.43	 1430.60
     33.5476	 1546.00	 1533.75	 -589.99	 1435.41
     33.5978	 1492.00	 1539.37	 -649.61	 1440.22
     33.6479	 1570.00	 1545.06	 -577.30	 1445.03
     33.6980	 1600.00	 1550.86	 -553.11	 1449.88
     33.7482	 1501.00	 1556.80	 -658.05	 1454.78
     33.7983	 1544.00	 1562.83	 -621.07	 1459.69
     33.8484	 1649.00	 1568.95	 -522.19	 1464.59
     33.8986	 1553.00	 1575.18	 -624.42	 1469.50
     33.9487	 1675.00	 1581.53	 -508.77	 1474.41
     33.9988	 1548.00	 1588.02	 -642.26	 1479.31
     34.0490	 1691.00	 1594.65	 -505.89	 1484.22
     34.0991	 1740.00	 1601.45	 -463.69	 1489.13
     34.1492	 1692.00	 1608.43	 -518.67	 1494.03
     34.1994	 1758.00	 1615.63	 -459.87	 1498.94
     34.2495	 1713.00	 1623.07	 -512.32	 1503.84
     34.2996	 1900.00	 1630.79	 -333.03	 1508.75
     34.3498	 1773.00	 1638.82	 -468.07	 1513.66
     34.3999	 1771.00	 1647.22	 -478.46	 1518.56
     34.4501	 1811.00	 1655.02	 -446.27	 1522.46
     34.5002	 1743.00	 1659.09	 -518.33	 1522.14
     34.5503	 1742.00	 1663.72	 -523.97	 1521.81
     34.6005	 1757.00	 1669.03	 -514.27	 1521.49
     34.6506	 1686.00	 1675.11	 -591.36	 1521.16
     34.7007	 1719.00	 1682.14	 -565.39	 1520.84
     34.7509	 1728.00	 1690.30	 -564.54	 1520.51
     34.8010	 1813.00	 1699.82	 -489.06	 1520.19
     34.8511	 1780.00	 1710.99	 -533.23	 1519.86
     34.9013	 1825.00	 1724.21	 -501.45	 1519.54
     34.9514	 1853.00	 1739.94	 -489.18	 1519.21
     35.0015	 1835.00	 1758.78	 -526.02	 1518.89
     35.0517	 1858.00	 1781.47	 -525.71	 1518.56
     35.1018	 1839.00	 1808.93	 -572.17	 1518.24
     35.1519	 2102.00	 1842.26	 -342.50	 1517.91
     35.2021	 2026.00	 1882.70	 -458.95	 1517.59
     35.2522	 2040.00	 1931.65	 -493.89	 1517.26
     35.3023	 2227.00	 1990.31	 -365.56	 1516.94
     35.3525	 2318.00	 2059.39	 -343.63	 1516.61
     35.4026	 2277.00	 2138.05	 -463.29	 1516.29
     35.4527	 2384.00	 2222.12	 -440.36	 1515.34
     35.5029	 2363.00	 2302.02	 -541.26	 1511.93
     35.5530	 2267.00	 2368.15	 -703.40	 1508.52
     35.6031	 2215.00	 2407.00	 -794.25	 1505.10
     35.6533	 2314.00	 2408.97	 -697.21	 1501.69
     35.7034	 2241.00	 2373.13	 -734.38	 1498.28
     35.7535	 2180.00	 2307.43	 -729.67	 1494.86
     35.8037	 2147.00	 2224.50	 -679.74	 1491.45
     35.8538	 2168.00	 2136.64	 -570.89	 1488.04
     35.9039	 2056.00	 2052.70	 -598.94	 1484.62
     35.9541	 2132.00	 1977.32	 -447.56	 1481.21
     36.0042	 2049.00	 1912.14	 -465.38	 1477.80
     36.0543	 1874.00	 1856.88	 -585.12	 1474.38
     36.1045	 1907.00	 1810.52	 -505.76	 1470.97
     36.1546	 1834.00	 1771.73	 -539.97	 1467.56
     36.2047	 1828.00	 1739.21	 -513.46	 1464.15
     36.2549	 1715.00	 1711.86	 -599.10	 1460.73
     36.3050	 1754.00	 1688.69	 -536.94	 1457.32
     36.3551	 1755.00	 1668.94	 -516.19	 1453.91
     36.4053	 1683.00	 1651.63	 -570.88	 1450.49
     36.4554	 1584.00	 1634.92	 -653.16	 1445.03
     36.5055	 1624.00	 1612.14	 -590.39	 1431.76
     36.5557	 1582.00	 1591.16	 -611.40	 1418.49
     36.6058	 1566.00	 1571.59	 -607.83	 1405.22
     36.6559	 1479.00	 1553.28	 -676.52	 1391.94
     36.7061	 1481.00	 1536.13	 -657.37	 1378.67
     36.7562	 1479.00	 1520.07	 -643.31	 1365.40
     36.8063	 1462.00	 1505.10	 -645.34	 1352.13
     36.8565	 1447.00	 1491.22	 -646.46	 1338.85
     36.9066	 1460.00	 1478.64	 -620.89	 1325.77
     36.9567	 1438.00	 1467.63	 -631.88	 1312.80
     37.0069	 1420.00	 1457.40	 -639.64	 1299.83
     37.0570	 1439.00	 1448.26	 -611.50	 1286.86
     37.1071	 1364.00	 1439.50	 -677.74	 1273.90
     37.1573	 1264.00	 1430.57	 -768.81	 1260.92
     37.2074	 1300.00	 1420.51	 -722.75	 1247.95
     37.2575	 1299.00	 1408.35	 -711.59	 1234.98
     37.3077	 1287.00	 1393.52	 -708.76	 1222.01
     37.3578	 1247.00	 1375.08	 -730.33	 1208.04
     37.4079	 1250.00	 1347.20	 -699.44	 1186.59
     37.4581	 1253.00	 1318.26	 -667.50	 1165.14
     37.5082	 1240.00	 1289.13	 -651.37	 1143.68
     37.5583	 1230.00	 1260.41	 -632.65	 1122.23
     37.6085	 1188.00	 1232.41	 -646.65	 1100.77
     37.6586	 1192.00	 1205.24	 -615.48	 1079.32
     37.7087	 1212.00	 1185.97	 -576.22	 1064.96
     37.7589	 1133.00	 1175.97	 -645.22	 1059.14
     37.8090	 1201.00	 1166.60	 -567.84	 1053.32
     37.8591	 1206.00	 1157.75	 -553.99	 1047.51
     37.9093	 1045.00	 1149.33	 -706.57	 1041.69
     37.9594	 1125.00	 1141.28	 -618.52	 1035.87
     38.0096	 1120.00	 1133.53	 -615.77	 1030.05
     38.0597	 1134.00	 1126.02	 -594.26	 1024.23
     38.1098	 1044.00	 1118.72	 -676.96	 1018.42
     38.1600	 1095.00	 1111.59	 -618.83	 1012.60
     38.2101	 1054.00	 1104.60	 -652.85	 1006.78
     38.2602	 1118.00	 1097.74	 -581.98	 1000.96
     38.3104	 1044.00	 1090.98	 -649.22	  995.15
     38.3605	 1067.00	 1084.31	 -619.55	  989.33
     38.4106	 1033.00	 1077.72	 -646.96	  983.51
     38.4608	 1056.00	 1071.19	 -617.43	  977.69
     38.5109	 1066.00	 1064.73	 -600.97	  971.88
     38.5610	 1042.00	 1058.31	 -618.56	  966.06
     38.6112	 1006.00	 1051.95	 -648.19	  960.24
     38.6613	 1035.00	 1045.62	 -612.87	  954.42
     38.7114	  974.00	 1039.34	 -667.58	  948.60
     38.7616	  983.00	 1033.09	 -652.33	  942.79
     38.8117	  985.00	 1026.86	 -644.11	  936.97
     38.8618	 1062.00	 1020.67	 -560.91	  931.15
     38.9120	  997.00	 1014.50	 -619.74	  925.33
     38.9621	  986.00	 1008.36	 -624.60	  919.52
     39.0122	  997.00	 1002.23	 -607.47	  913.70
     39.0624	 1017.00	  996.13	 -581.37	  907.88
     39.1125	  971.00	  990.04	 -621.28	  902.06
     39.1626	  963.00	  983.97	 -623.21	  896.25
     39.2128	 1000.00	  977.92	 -580.16	  890.43
     39.2629	  988.00	  971.88	 -586.12	  884.61
     39.3130	 1097.00	  965.85	 -471.09	  878.79
     39.3632	 1016.00	  959.84	 -546.08	  872.98
     39.4133	 1027.00	  953.84	 -529.08	  867.16
     39.4634	 1017.00	  947.85	 -533.09	  861.34
     39.5136	 1077.00	  941.87	 -467.11	  855.52
     39.5637	 1004.00	  935.90	 -534.15	  849.71
     39.6138	  987.00	  929.94	 -545.19	  843.89
     39.6640	 1033.00	  924.00	 -493.24	  838.07
     39.7141	 1039.00	  918.05	 -481.30	  832.25
     39.7642	  915.00	  912.12	 -599.37	  826.43
     39.8144	  920.00	  907.34	 -589.58	  821.75
     39.8645	  972.00	  903.45	 -533.69	  817.96
     39.9146	  987.00	  899.56	 -514.81	  814.17
     39.9648	  970.00	  895.69	 -527.93	  810.38
     40.0149	  918.00	  891.82	 -576.06	  806.58
     40.0650	  934.00	  887.96	 -556.20	  802.79
     40.1152	  862.00	  884.11	 -624.35	  799.00
     40.1653	  841.00	  880.26	 -641.50	  795.21
     40.2154	  912.00	  876.42	 -566.66	  791.41
     40.2656	  884.00	  872.59	 -590.83	  787.62
     40.3157	  789.00	  868.76	 -682.00	  783.83
     40.3658	  886.00	  864.94	 -581.18	  780.04
     40.4160	  953.00	  861.13	 -510.37	  776.24
     40.4661	  897.00	  857.32	 -562.57	  772.45
     40.5162	  871.00	  853.53	 -584.77	  768.66
     40.5664	  897.00	  849.74	 -554.98	  764.87
     40.6165	  859.00	  845.95	 -589.19	  761.07
     40.6666	  853.00	  842.72	 -591.96	  757.82
     40.7168	  809.00	  840.22	 -633.46	  755.30
     40.7669	  843.00	  837.73	 -596.97	  752.78
     40.8170	  830.00	  835.25	 -607.49	  750.25
     40.8672	  868.00	  832.78	 -567.02	  747.73
     40.9173	  847.00	  830.32	 -585.56	  745.21
     40.9674	  879.00	  827.87	 -551.11	  742.69
     41.0176	  854.00	  825.44	 -573.68	  740.16
     41.0677	  839.00	  823.01	 -586.25	  737.64
     41.1178	  814.00	  820.60	 -608.84	  735.12
     41.1680	  864.00	  818.19	 -556.43	  732.59
     41.2181	  787.00	  815.80	 -631.04	  730.07
     41.2682	  893.00	  813.43	 -522.67	  727.55
     41.3184	  859.00	  811.07	 -554.31	  725.03
     41.3685	  788.00	  808.73	 -622.97	  722.50
     41.4186	  857.00	  806.41	 -551.65	  719.98
     41.4688	  847.00	  804.11	 -559.35	  717.46
     41.5189	  839.00	  801.83	 -565.07	  714.94
     41.5690	  872.00	  799.58	 -529.82	  712.41
     41.6192	  864.00	  797.36	 -535.60	  709.89
     41.6693	  828.00	  795.16	 -569.41	  707.37
     41.7195	  838.00	  793.01	 -557.25	  704.84
     41.7696	  882.00	  791.46	 -511.70	  702.89
     41.8197	  768.00	  790.46	 -624.70	  701.44
     41.8699	  902.00	  788.18	 -488.43	  700.00
     41.9200	  841.00	  787.31	 -548.55	  698.55
     41.9701	  805.00	  785.84	 -583.08	  697.11
     42.0203	  831.00	  785.11	 -556.35	  695.66
     42.0704	  870.00	  784.45	 -516.70	  694.21
     42.1205	  841.00	  783.89	 -545.14	  692.77
     42.1707	  806.00	  783.44	 -579.68	  691.32
     42.2208	  825.00	  783.11	 -560.35	  689.87
     42.2709	  876.00	  782.92	 -509.17	  688.43
     42.3211	  820.00	  782.91	 -565.15	  686.98
     42.3712	  786.00	  783.09	 -599.33	  685.54
     42.4213	  844.00	  783.51	 -541.75	  684.09
     42.4715	  836.00	  784.21	 -550.46	  682.64
     42.5216	  803.00	  785.26	 -584.50	  681.20
     42.5717	  782.00	  786.70	 -606.94	  679.75
     42.6219	  832.00	  788.64	 -558.88	  678.30
     42.6720	  819.00	  791.16	 -574.40	  676.86
     42.7221	  864.00	  794.38	 -532.63	  675.41
     42.7723	  868.00	  798.45	 -532.69	  673.97
     42.8224	  844.00	  803.51	 -561.75	  672.52
     42.8725	  874.00	  809.72	 -537.96	  671.07
     42.9227	  879.00	  817.24	 -540.48	  669.63
     42.9728	  899.00	  826.17	 -529.41	  668.18
     43.0229	  847.00	  836.48	 -591.72	  666.73
     43.0731	  926.00	  847.93	 -524.18	  665.29
     43.1232	  911.00	  859.93	 -551.17	  663.84
     43.1733	  910.00	  871.40	 -563.65	  662.40
     43.2235	  893.00	  880.89	 -590.13	  660.95
     43.2736	  899.00	  886.78	 -590.02	  659.50
     43.3237	  906.00	  887.85	 -584.09	  658.06
     43.3739	 1003.00	  883.69	 -482.93	  656.61
     43.4240	  958.00	  874.85	 -519.09	  655.16
     43.4741	  878.00	  862.57	 -586.81	  653.72
     43.5243	  878.00	  848.25	 -572.50	  652.27
     43.5744	  872.00	  833.52	 -563.76	  650.83
     43.6245	  856.00	  819.22	 -565.46	  649.38
     43.6747	  866.00	  806.05	 -542.29	  647.93
     43.7248	  817.00	  794.24	 -579.48	  646.49
     43.7749	  884.00	  783.80	 -502.04	  645.04
     43.8251	  817.00	  774.66	 -559.90	  643.59
     43.8752	  835.00	  766.67	 -533.92	  642.15
     43.9253	  857.00	  759.68	 -504.92	  640.70
     43.9755	  840.00	  753.53	 -515.77	  639.26
     44.0256	  801.00	  748.09	 -549.33	  637.81
     44.0757	  839.00	  743.24	 -506.48	  636.36
     44.1259	  804.00	  738.88	 -537.12	  634.92
     44.1760	  803.00	  734.92	 -534.17	  633.47
     44.2261	  778.00	  731.31	 -555.55	  632.02
     44.2763	  805.00	  727.99	 -525.23	  630.58
     44.3264	  789.00	  724.90	 -538.14	  629.13
     44.3765	  822.00	  722.01	 -502.25	  627.69
     44.4267	  751.00	  719.29	 -570.54	  626.24
     44.4768	  762.00	  716.72	 -556.97	  624.79
     44.5269	  780.00	  714.28	 -536.52	  623.35
     44.5771	  743.00	  711.81	 -571.05	  621.78
     44.6272	  779.00	  709.22	 -532.46	  619.98
     44.6773	  716.00	  706.70	 -592.94	  618.18
     44.7275	  753.00	  704.25	 -553.49	  616.39
     44.7776	  732.00	  701.87	 -572.11	  614.59
     44.8277	  728.00	  699.54	 -573.78	  612.79
     44.8779	  707.00	  697.26	 -592.50	  611.00
     44.9280	  788.00	  695.02	 -509.26	  609.20
     44.9781	  701.00	  692.81	 -594.06	  607.41
     45.0283	  728.00	  690.65	 -564.89	  605.61
     45.0784	  688.00	  688.51	 -602.75	  603.81
     45.1286	  724.00	  686.40	 -564.64	  602.02
     45.1787	  746.00	  684.31	 -540.55	  600.22
     45.2288	  674.00	  682.25	 -610.49	  598.42
     45.2790	  756.00	  680.21	 -526.45	  596.63
     45.3291	  657.00	  678.18	 -623.42	  594.83
     45.3792	  712.00	  676.17	 -566.41	  593.04
     45.4294	  767.00	  674.18	 -509.42	  591.24
     45.4795	  672.00	  672.20	 -602.44	  589.44
     45.5296	  738.00	  670.23	 -534.48	  587.65
     45.5798	  684.00	  668.28	 -586.52	  585.85
     45.6299	  699.00	  666.34	 -569.58	  584.05
     45.6800	  707.00	  664.40	 -559.65	  582.26
     45.7302	  668.00	  662.48	 -596.72	  580.46
     45.7803	  737.00	  660.57	 -525.81	  578.66
     45.8304	  697.00	  658.66	 -563.90	  576.87
     45.8806	  670.00	  656.76	 -589.00	  575.07
     45.9307	  676.00	  654.87	 -581.11	  573.28
     45.9808	  666.00	  652.99	 -589.23	  571.48
     46.0310	  701.00	  651.11	 -552.35	  569.68
     46.0811	  668.00	  649.24	 -583.48	  567.89
     46.1312	  650.00	  647.38	 -599.62	  566.09
     46.1814	  709.00	  645.52	 -538.77	  564.29
     46.2315	  710.00	  643.68	 -535.92	  562.50
     46.2816	  673.00	  641.83	 -571.08	  560.70
     46.3318	  640.00	  640.00	 -602.24	  558.90
     46.3819	  692.00	  638.26	 -548.50	  557.20
     46.4320	  715.00	  636.93	 -524.17	  555.89
     46.4822	  732.00	  635.61	 -505.85	  554.59
     46.5323	  683.00	  634.30	 -553.55	  553.29
     46.5824	  763.00	  633.01	 -472.25	  551.98
     46.6326	  804.00	  631.72	 -429.96	  550.68
     46.6827	  758.00	  630.44	 -474.69	  549.38
     46.7328	  773.00	  629.19	 -458.43	  548.07
     46.7830	  756.00	  627.94	 -474.19	  546.77
     46.8331	  728.00	  626.72	 -500.96	  545.47
     46.8832	  738.00	  625.52	 -489.76	  544.16
     46.9334	  727.00	  624.35	 -499.59	  542.86
     46.9835	  708.00	  623.20	 -517.45	  541.56
     47.0336	  686.00	  622.09	 -538.33	  540.25
     47.0838	  647.00	  621.01	 -576.26	  538.95
     47.1339	  637.00	  619.96	 -585.21	  537.65
     47.1840	  631.00	  619.11	 -590.35	  536.34
     47.2342	  617.00	  618.09	 -603.33	  535.04
     47.2843	  651.00	  617.07	 -568.31	  533.74
     47.3344	  640.00	  616.08	 -578.32	  532.43
     47.3846	  615.00	  614.93	 -602.17	  531.13
     47.4347	  617.00	  613.67	 -598.91	  529.83
     47.4848	  619.00	  612.30	 -595.55	  528.53
     47.5350	  609.00	  610.83	 -604.07	  527.22
     47.5851	  642.00	  609.27	 -569.51	  525.92
     47.6352	  627.00	  607.66	 -582.90	  524.62
     47.6854	  619.00	  606.02	 -589.26	  523.31
     47.7355	  608.00	  604.39	 -598.63	  522.01
     47.7856	  632.00	  602.77	 -573.01	  520.71
     47.8358	  643.00	  601.18	 -560.43	  519.40
     47.8859	  685.00	  599.63	 -516.87	  518.10
     47.9360	  648.00	  598.10	 -552.34	  516.80
     47.9862	  630.00	  596.60	 -568.84	  515.49
     48.0363	  635.00	  595.13	 -562.37	  514.19
     48.0864	  597.00	  593.68	 -598.92	  512.89
     48.1366	  632.00	  592.25	 -562.50	  511.58
     48.1867	  595.00	  590.84	 -598.08	  510.28
     48.2368	  590.00	  589.44	 -601.68	  508.98
     48.2870	  623.00	  588.06	 -567.30	  507.67
     48.3371	  612.00	  586.68	 -576.92	  506.37
     48.3872	  596.00	  585.31	 -591.56	  505.07
     48.4374	  613.00	  583.95	 -573.20	  503.76
     48.4875	  650.00	  582.60	 -534.84	  502.46
     48.5377	  629.00	  581.25	 -554.50	  501.16
     48.5878	  585.00	  579.91	 -597.15	  499.85
     48.6379	  615.00	  578.57	 -565.82	  498.55
     48.6880	  634.00	  577.24	 -545.48	  497.25
     48.7382	  648.00	  575.91	 -530.15	  495.94
     48.7883	  595.00	  574.58	 -581.82	  494.64
     48.8385	  588.00	  573.25	 -587.50	  493.34
     48.8886	  558.00	  571.93	 -616.17	  492.03
     48.9387	  594.00	  570.61	 -578.85	  490.73
     48.9889	  587.00	  569.29	 -584.53	  489.43
     49.0390	  614.00	  569.14	 -557.39	  489.30
     49.0891	  575.00	  569.26	 -596.50	  489.43
     49.1393	  603.00	  569.38	 -568.63	  489.56
     49.1894	  600.00	  569.51	 -571.75	  489.69
     49.2395	  639.00	  569.63	 -532.87	  489.82
     49.2897	  628.00	  569.75	 -544.00	  489.95
     49.3398	  599.00	  569.88	 -573.12	  490.08
     49.3899	  628.00	  570.01	 -544.25	  490.21
     49.4401	  632.00	  570.14	 -540.38	  490.35
     49.4902	  594.00	  570.27	 -578.51	  490.48
     49.5403	  655.00	  570.40	 -517.64	  490.61
     49.5905	  611.00	  570.53	 -561.77	  490.74
     49.6406	  575.00	  570.66	 -597.90	  490.87
     49.6907	  595.00	  570.48	 -577.72	  491.00
     49.7409	  588.00	  570.62	 -584.86	  491.13
     49.7910	  579.00	  570.61	 -593.85	  491.26
     49.8411	  575.00	  570.75	 -597.99	  491.40
     49.8913	  636.00	  570.90	 -537.14	  491.53
     49.9414	  577.00	  571.04	 -596.28	  491.66
     49.9915	  677.00	  571.19	 -496.43	  491.79
     50.0417	  610.00	  571.34	 -563.58	  491.92
     50.0918	  590.00	  571.48	 -583.73	  492.05
     50.1419	  615.00	  571.63	 -558.88	  492.18
     50.1921	  559.00	  571.79	 -615.03	  492.31
     50.2422	  595.00	  571.94	 -579.18	  492.45
     50.2923	  606.00	  572.09	 -568.33	  492.58
     50.3425	  624.00	  572.24	 -550.49	  492.71
     50.3926	  552.00	  572.40	 -622.64	  492.84
     50.4427	  586.00	  572.56	 -588.80	  492.97
     50.4929	  660.00	  572.71	 -514.96	  493.10
     50.5430	  595.00	  572.87	 -580.12	  493.23
     50.5931	  613.00	  573.03	 -562.28	  493.36
     50.6433	  564.00	  573.77	 -612.02	  493.50
     50.6934	  624.00	  573.95	 -552.19	  493.63
     50.7435	  657.00	  574.12	 -519.36	  493.76
     50.7937	  578.00	  574.59	 -598.83	  493.89
     50.8438	  626.00	  574.77	 -551.01	  494.02
     50.8939	  596.00	  574.96	 -581.20	  494.15
     50.9441	  588.00	  575.14	 -589.39	  494.28
     50.9942	  583.00	  575.34	 -594.58	  494.41
     51.0443	  567.00	  575.53	 -610.77	  494.55
     51.0945	  648.00	  575.73	 -529.97	  494.68
     51.1446	  639.00	  575.93	 -539.17	  494.81
     51.1947	  619.00	  576.13	 -559.37	  494.94
     51.2449	  633.00	  576.34	 -545.58	  495.07
     51.2950	  648.00	  576.55	 -530.79	  495.20
     51.3451	  578.00	  576.77	 -601.01	  495.33
     51.3953	  591.00	  576.99	 -588.23	  495.46
     51.4454	  612.00	  577.22	 -567.46	  495.60
     51.4955	  590.00	  577.96	 -590.20	  496.24
     51.5457	  678.00	  579.87	 -504.11	  498.05
     51.5958	  610.00	  581.79	 -574.03	  499.85
     51.6459	  618.00	  583.71	 -567.95	  501.65
     51.6961	  616.00	  585.64	 -571.88	  503.46
     51.7462	  629.00	  587.58	 -560.82	  505.26
     51.7963	  582.00	  589.53	 -609.77	  507.06
     51.8465	  685.00	  591.48	 -508.73	  508.86
     51.8966	  622.00	  593.45	 -573.69	  510.67
     51.9467	  676.00	  595.43	 -521.67	  512.47
     51.9969	  644.00	  597.42	 -555.67	  514.27
     52.0470	  707.00	  599.43	 -494.67	  516.08
     52.0971	  689.00	  601.45	 -514.70	  517.88
     52.1473	  693.00	  603.49	 -512.74	  519.68
     52.1974	  680.00	  605.55	 -527.80	  521.49
     52.2476	  673.00	  607.64	 -536.88	  523.29
     52.2977	  693.00	  609.74	 -518.98	  525.09
     52.3478	  697.00	  611.88	 -517.12	  526.90
     52.3980	  711.00	  614.04	 -505.28	  528.70
     52.4481	  675.00	  616.24	 -543.48	  530.50
     52.4982	  712.00	  618.48	 -508.72	  532.31
     52.5484	  738.00	  620.76	 -485.01	  534.11
     52.5985	  666.00	  623.10	 -559.34	  535.91
     52.6486	  717.00	  625.49	 -510.74	  537.72
     52.6988	  701.00	  627.96	 -529.20	  539.52
     52.7489	  681.00	  630.50	 -551.74	  541.32
     52.7990	  682.00	  633.13	 -553.38	  543.12
     52.8492	  709.00	  635.87	 -529.12	  544.93
     52.8993	  677.00	  638.74	 -563.98	  546.73
     52.9494	  690.00	  641.74	 -553.98	  548.53
     52.9996	  670.00	  644.92	 -577.16	  550.34
     53.0497	  674.00	  648.28	 -576.53	  552.14
     53.0998	  672.00	  651.88	 -582.12	  553.94
     53.1500	  705.00	  655.73	 -552.97	  555.75
     53.2001	  669.00	  659.87	 -593.12	  557.55
     53.2502	  684.00	  664.35	 -582.59	  559.35
     53.3004	  699.00	  669.19	 -572.43	  561.16
     53.3505	  757.00	  674.40	 -519.64	  562.96
     53.4006	  666.00	  679.98	 -616.22	  564.76
     53.4508	  715.00	  685.87	 -573.11	  566.57
     53.5009	  728.00	  691.96	 -566.21	  568.37
     53.5510	  692.00	  698.06	 -608.30	  570.17
     53.6012	  695.00	  703.88	 -611.12	  571.98
     53.6513	  713.00	  709.07	 -598.32	  573.78
     53.7014	  719.00	  713.30	 -596.54	  575.58
     53.7516	  737.00	  716.28	 -581.53	  577.38
     53.8017	  710.00	  717.91	 -610.15	  579.19
     53.8518	  722.00	  718.20	 -598.45	  580.99
     53.9020	  699.00	  717.40	 -620.64	  582.79
     53.9521	  723.00	  715.78	 -595.02	  584.60
     54.0022	  693.00	  713.67	 -622.91	  586.40
     54.0524	  693.00	  710.95	 -620.19	  587.77
     54.1025	  663.00	  708.22	 -647.46	  589.06
     54.1526	  743.00	  705.71	 -564.95	  590.35
     54.2028	  717.00	  703.53	 -588.77	  591.64
     54.2529	  712.00	  701.72	 -591.96	  592.93
     54.3030	  745.00	  700.27	 -557.51	  594.21
     54.3532	  721.00	  699.18	 -580.42	  595.50
     54.4033	  722.00	  698.40	 -578.65	  596.79
     54.4534	  775.00	  697.92	 -525.16	  598.08
     54.5036	  681.00	  697.69	 -618.93	  599.37
     54.5537	  725.00	  697.68	 -574.92	  600.66
     54.6038	  725.00	  697.87	 -575.11	  601.95
     54.6540	  761.00	  698.22	 -539.47	  603.24
     54.7041	  728.00	  698.73	 -572.97	  604.53
     54.7542	  697.00	  699.36	 -604.60	  605.82
     54.8044	  727.00	  700.10	 -575.34	  607.11
     54.8545	  727.00	  700.94	 -576.18	  608.40
     54.9046	  716.00	  701.87	 -588.11	  609.69
     54.9548	  724.00	  702.88	 -581.12	  610.98
     55.0049	  749.00	  703.96	 -557.20	  612.27
     55.0550	  704.00	  705.11	 -603.35	  613.56
     55.1052	  676.00	  706.32	 -632.56	  614.84
     55.1553	  669.00	  707.59	 -640.83	  616.13
     55.2054	  713.00	  708.91	 -598.16	  617.42
     55.2556	  747.00	  710.29	 -565.53	  618.71
     55.3057	  746.00	  711.72	 -567.96	  620.00
     55.3558	  701.00	  713.21	 -614.45	  621.29
     55.4060	  786.00	  714.74	 -530.98	  622.58
     55.4561	  701.00	  716.33	 -617.57	  623.87
     55.5062	  741.00	  717.98	 -579.22	  625.16
     55.5564	  758.00	  719.68	 -563.92	  626.45
     55.6065	  766.00	  721.45	 -557.69	  627.74
     55.6567	  777.00	  723.28	 -548.52	  629.03
     55.7068	  812.00	  725.18	 -515.42	  630.32
     55.7569	  809.00	  727.15	 -520.40	  631.61
     55.8071	  800.00	  729.21	 -531.46	  632.90
     55.8572	  832.00	  731.36	 -501.61	  634.19
     55.9073	  839.00	  733.61	 -496.86	  635.47
     55.9575	  922.00	  735.98	 -416.22	  636.76
     56.0076	  840.00	  738.46	 -500.71	  638.05
     56.0577	  864.00	  741.09	 -479.34	  639.34
     56.1079	  890.00	  744.69	 -456.93	  640.63
     56.1580	  928.00	  747.67	 -421.91	  641.92
     56.2081	  928.00	  751.33	 -425.57	  643.69
     56.2583	  945.00	  755.63	 -412.87	  645.46
     56.3084	  985.00	  759.80	 -377.05	  647.23
     56.3585	  887.00	  764.29	 -479.53	  648.99
     56.4087	  920.00	  769.13	 -451.37	  650.76
     56.4588	  913.00	  774.39	 -463.63	  652.53
     56.5089	  876.00	  780.12	 -506.36	  654.30
     56.5591	  925.00	  786.39	 -463.63	  656.06
     56.6092	  892.00	  793.30	 -503.54	  657.83
     56.6593	  866.00	  800.92	 -537.16	  659.60
     56.7095	  891.00	  809.35	 -520.59	  661.37
     56.7596	  858.00	  818.69	 -562.93	  663.13
     56.8097	  888.00	  829.02	 -543.27	  664.90
     56.8599	  889.00	  840.41	 -553.65	  666.67
     56.9100	  890.00	  852.85	 -565.09	  668.44
     56.9601	  901.00	  866.26	 -567.51	  670.20
     57.0103	  908.00	  880.43	 -574.67	  671.97
     57.0604	  915.00	  894.96	 -582.20	  673.74
     57.1105	  903.00	  909.21	 -608.45	  675.51
     57.1607	  944.00	  922.38	 -580.62	  677.27
     57.2108	  964.00	  933.52	 -571.76	  679.04
     57.2609	  915.00	  941.74	 -628.98	  680.81
     57.3111	  904.00	  946.37	 -644.61	  682.58
     57.3612	  953.00	  947.14	 -596.39	  684.34
     57.4113	 1013.00	  944.21	 -533.45	  686.11
     57.4615	  962.00	  938.10	 -578.35	  687.88
     57.5116	  910.00	  929.60	 -621.84	  689.65
     57.5617	  955.00	  919.58	 -566.83	  691.41
     57.6119	  924.00	  908.87	 -587.12	  693.18
     57.6620	  975.00	  898.17	 -525.41	  694.95
     57.7121	  943.00	  887.96	 -547.20	  696.72
     57.7623	  921.00	  878.57	 -559.82	  698.48
     57.8124	  853.00	  870.17	 -619.41	  700.25
     57.8625	  929.00	  862.80	 -536.04	  702.02
     57.9127	  852.00	  856.44	 -606.68	  703.79
     57.9628	  898.00	  851.03	 -555.27	  705.55
     58.0129	  874.00	  846.48	 -574.72	  707.32
     58.0631	  881.00	  842.69	 -563.94	  709.09
     58.1132	  893.00	  839.59	 -548.83	  710.86
     58.1633	  879.00	  837.08	 -560.32	  712.62
     58.2135	  809.00	  835.08	 -628.32	  714.39
     58.2636	  844.00	  833.53	 -591.77	  716.16
     58.3137	  828.00	  832.37	 -606.61	  717.93
     58.3639	  854.00	  831.55	 -579.79	  719.69
     58.4140	  845.00	  831.02	 -588.26	  721.46
     58.4641	  825.00	  830.74	 -607.98	  723.23
     58.5143	  854.00	  830.68	 -578.93	  725.00
     58.5644	  824.00	  830.82	 -609.06	  726.76
     58.6145	  852.00	  831.13	 -581.37	  728.53
     58.6647	  826.00	  831.58	 -607.82	  730.30
     58.7148	  806.00	  832.17	 -628.41	  732.07
     58.7649	  829.00	  832.87	 -606.11	  733.83
     58.8151	  849.00	  833.67	 -586.92	  735.60
     58.8652	  821.00	  834.81	 -616.05	  737.61
     58.9153	  844.00	  836.13	 -594.38	  739.72
     58.9655	  849.00	  837.53	 -590.78	  741.83
     59.0156	  832.00	  839.00	 -609.24	  743.95
     59.0658	  852.00	  840.53	 -590.77	  746.06
     59.1159	  826.00	  842.11	 -618.35	  748.17
     59.1660	  870.00	  843.74	 -575.98	  750.28
     59.2161	  835.00	  845.41	 -612.66	  752.40
     59.2663	  821.00	  847.16	 -628.40	  754.51
     59.3164	  820.00	  848.91	 -631.16	  756.62
     59.3666	  899.00	  850.71	 -553.95	  758.74
     59.4167	  863.00	  852.55	 -591.79	  760.85
     59.4668	  872.00	  854.41	 -584.65	  762.96
     59.5170	  857.00	  856.29	 -601.54	  765.07
     59.5671	  886.00	  858.21	 -574.45	  767.19
     59.6172	  840.00	  860.15	 -622.40	  769.30
     59.6674	  934.00	  862.12	 -530.36	  771.41
     59.7175	  862.00	  864.11	 -604.36	  773.53
     59.7676	  910.00	  866.13	 -558.37	  775.64
     59.8178	  861.00	  868.17	 -609.41	  777.75
     59.8679	  925.00	  870.23	 -547.47	  779.86
     59.9180	  909.00	  872.30	 -565.55	  781.98
     59.9682	  825.00	  874.41	 -651.65	  784.09
     60.0183	  857.00	  876.53	 -621.77	  786.20
     60.0684	  863.00	  878.67	 -617.91	  788.32
     60.1186	  823.00	  880.83	 -660.07	  790.43
     60.1687	  866.00	  883.01	 -619.26	  792.54
     60.2188	  863.00	  885.22	 -624.46	  794.65
     60.2690	  871.00	  887.44	 -618.69	  796.77
     60.3191	  944.00	  889.53	 -547.77	  798.88
     60.3692	  933.00	  891.80	 -561.04	  800.99
     60.4194	  896.00	  894.09	 -600.34	  803.11
     60.4695	  956.00	  896.33	 -542.57	  805.22
     60.5196	  929.00	  898.68	 -571.92	  807.33
     60.5698	  885.00	  901.05	 -618.29	  809.44
     60.6199	  977.00	  903.44	 -528.69	  811.56
     60.6700	  963.00	  905.87	 -545.11	  813.67
     60.7202	  980.00	  908.33	 -530.57	  815.78
     60.7703	 1002.00	  910.82	 -511.06	  817.90
     60.8204	  924.00	  913.35	 -591.59	  820.01
     60.8706	  924.00	  914.88	 -593.12	  821.09
     60.9207	  941.00	  916.02	 -577.26	  821.74
     60.9708	  981.00	  917.21	 -538.45	  822.39
     61.0210	  962.00	  918.44	 -558.68	  823.04
     61.0711	  963.00	  919.73	 -558.97	  823.69
     61.1212	  957.00	  921.07	 -566.31	  824.34
     61.1714	  945.00	  922.47	 -579.71	  824.99
     61.2215	 1008.00	  923.94	 -518.18	  825.64
     61.2716	  986.00	  925.48	 -541.73	  826.29
     61.3218	 1025.00	  927.11	 -504.35	  826.94
     61.3719	 1008.00	  928.83	 -523.07	  827.59
     61.4220	 1019.00	  930.64	 -513.89	  828.24
     61.4722	 1003.00	  932.57	 -531.82	  828.89
     61.5223	 1015.00	  934.63	 -521.87	  829.54
     61.5724	 1033.00	  936.82	 -506.06	  830.20
     61.6226	 1018.00	  939.18	 -523.42	  830.85
     61.6727	 1001.00	  941.70	 -542.95	  831.50
     61.7228	  990.00	  944.43	 -556.68	  832.15
     61.7730	 1022.00	  947.39	 -527.63	  832.80
     61.8231	 1008.00	  950.60	 -544.85	  833.45
     61.8732	 1000.00	  953.26	 -555.51	  833.25
     61.9234	 1032.00	  955.91	 -526.16	  832.71
     61.9735	 1041.00	  958.94	 -520.19	  832.17
     62.0236	 1081.00	  962.40	 -483.65	  831.63
     62.0738	 1108.00	  966.36	 -460.60	  831.10
     62.1239	 1038.00	  970.87	 -535.11	  830.56
     62.1740	 1030.00	  976.02	 -548.26	  830.02
     62.2242	 1086.00	  981.89	 -498.13	  829.48
     62.2743	 1087.00	  988.57	 -503.81	  828.94
     62.3244	 1008.00	  996.14	 -590.38	  828.40
     62.3746	 1091.00	 1004.69	 -515.93	  827.86
     62.4247	 1100.00	 1014.28	 -516.52	  827.32
     62.4748	 1111.00	 1024.95	 -516.19	  826.78
     62.5250	 1105.00	 1036.67	 -533.91	  826.25
     62.5751	 1166.00	 1049.33	 -485.57	  825.71
     62.6252	 1137.00	 1062.67	 -527.91	  825.17
     62.6754	 1223.00	 1076.29	 -455.53	  824.63
     62.7255	 1183.00	 1089.59	 -508.83	  824.09
     62.7757	 1200.00	 1100.77	 -503.02	  822.51
     62.8258	 1179.00	 1109.38	 -532.62	  820.30
     62.8759	 1161.00	 1115.19	 -556.43	  818.10
     62.9261	 1201.00	 1117.53	 -518.78	  815.89
     62.9762	 1224.00	 1116.02	 -494.27	  813.68
     63.0263	 1139.00	 1110.64	 -573.88	  811.47
     63.0765	 1161.00	 1101.70	 -542.95	  809.26
     63.1266	 1204.00	 1089.82	 -488.06	  807.05
     63.1767	 1213.00	 1075.74	 -464.98	  804.84
     63.2269	 1150.00	 1060.28	 -512.52	  802.64
     63.2770	 1154.00	 1044.18	 -492.42	  800.43
     63.3271	 1092.00	 1028.08	 -538.32	  798.22
     63.3773	 1099.00	 1012.44	 -515.68	  796.01
     63.4274	 1066.00	  997.58	 -533.82	  793.80
     63.4775	 1066.00	  983.69	 -519.93	  791.59
     63.5277	 1020.00	  970.83	 -553.07	  789.39
     63.5778	  987.00	  957.99	 -573.23	  786.15
     63.6279	  951.00	  944.83	 -596.08	  781.60
     63.6781	  972.00	  932.60	 -562.84	  777.05
     63.7282	  948.00	  921.21	 -575.45	  772.50
     63.7783	  920.00	  910.58	 -592.82	  767.95
     63.8285	  959.00	  900.62	 -543.87	  763.40
     63.8786	  934.00	  891.26	 -559.51	  758.85
     63.9287	  907.00	  882.43	 -577.67	  754.30
     63.9789	  913.00	  873.49	 -562.73	  749.75
     64.0290	  893.00	  865.53	 -574.77	  745.20
     64.0791	  859.00	  857.93	 -601.17	  740.65
     64.1293	  952.00	  850.35	 -500.60	  736.10
     64.1794	  893.00	  843.34	 -552.58	  731.55
     64.2295	  882.00	  836.57	 -556.81	  727.00
     64.2797	  833.00	  829.69	 -598.93	  722.05
     64.3298	  915.00	  820.76	 -508.00	  714.94
     64.3799	  896.00	  812.00	 -518.24	  707.83
     64.4301	  808.00	  803.38	 -597.63	  700.72
     64.4802	  863.00	  794.94	 -534.18	  693.61
     64.5303	  854.00	  786.58	 -534.82	  686.50
     64.5805	  853.00	  778.33	 -527.57	  679.38
     64.6306	  870.00	  770.17	 -502.41	  672.27
     64.6807	  847.00	  762.10	 -517.34	  665.16
     64.7309	  813.00	  754.10	 -543.35	  658.05
     64.7810	  799.00	  746.18	 -549.42	  650.94
     64.8311	  822.00	  738.33	 -518.57	  643.83
     64.8813	  794.00	  730.53	 -538.78	  636.72
     64.9314	  751.00	  722.80	 -574.04	  629.61
     64.9815	  782.00	  715.11	 -535.35	  622.50
     65.0317	  773.00	  707.47	 -536.71	  615.39
     65.0818	  734.00	  699.88	 -568.12	  608.28
     65.1319	  692.00	  692.33	 -602.57	  601.16
     65.1821	  634.00	  684.82	 -653.06	  594.06
     65.2322	  705.00	  677.35	 -574.59	  586.94
     65.2823	  741.00	  669.92	 -531.17	  579.83
     65.3325	  681.00	  662.53	 -583.77	  572.72
     65.3826	  708.00	  655.18	 -549.42	  565.61
     65.4327	  673.00	  648.38	 -577.62	  559.02
     65.4829	  660.00	  642.78	 -585.02	  553.58
     65.5330	  675.00	  637.22	 -564.47	  548.16
     65.5831	  628.00	  631.70	 -605.95	  542.73
     65.6333	  679.00	  626.22	 -549.47	  537.30
     65.6834	  651.00	  620.78	 -572.02	  531.87
     65.7335	  645.00	  615.38	 -572.62	  526.44
     65.7837	  613.00	  610.01	 -599.25	  521.01
     65.8338	  704.00	  604.67	 -502.91	  515.58
     65.8839	  629.00	  599.35	 -572.59	  510.15
     65.9341	  576.00	  594.04	 -620.28	  504.72
     65.9842	  606.00	  588.73	 -584.97	  499.29
     66.0343	  622.00	  583.39	 -563.63	  493.86
     66.0845	  618.00	  578.01	 -562.26	  488.43
     66.1346	  609.00	  572.58	 -565.82	  483.00
     66.1848	  582.00	  567.07	 -587.31	  477.57
     66.2349	  562.00	  561.48	 -601.72	  472.14
     66.2850	  555.00	  555.81	 -603.05	  466.71
     66.3352	  566.00	  550.08	 -586.32	  461.28
     66.3853	  570.00	  544.28	 -576.53	  455.85
     66.4354	  557.00	  538.45	 -583.69	  450.42
     66.4855	  557.00	  533.93	 -579.17	  446.33
     66.5357	  584.00	  531.79	 -550.03	  444.62
     66.5858	  607.00	  529.65	 -524.89	  442.92
     66.6360	  538.00	  527.52	 -591.76	  441.21
     66.6861	  554.00	  525.41	 -573.65	  439.50
     66.7362	  563.00	  523.33	 -562.57	  437.80
     66.7864	  512.00	  521.27	 -611.51	  436.09
     66.8365	  582.00	  519.24	 -539.49	  434.38
     66.8866	  543.00	  517.24	 -576.48	  432.68
     66.9368	  513.00	  515.26	 -604.51	  430.97
     66.9869	  548.00	  513.31	 -567.55	  429.26
     67.0370	  590.00	  511.38	 -523.62	  427.56
     67.0872	  528.00	  509.46	 -583.70	  425.85
     67.1373	  519.00	  507.56	 -590.81	  424.14
     67.1874	  542.00	  505.68	 -565.92	  422.44
     67.2376	  506.00	  504.00	 -600.24	  420.73
     67.2877	  519.00	  502.14	 -585.39	  419.02
     67.3378	  512.00	  500.30	 -590.54	  417.32
     67.3880	  580.00	  498.47	 -520.71	  415.61
     67.4381	  578.00	  496.74	 -520.98	  413.90
     67.4882	  531.00	  494.93	 -566.17	  412.20
     67.5384	  506.00	  493.12	 -589.36	  410.49
     67.5885	  514.00	  491.32	 -579.56	  408.79
     67.6386	  543.00	  489.53	 -548.77	  407.08
     67.6888	  524.00	  487.74	 -565.99	  405.37
     67.7389	  518.00	  485.96	 -570.21	  403.67
     67.7890	  529.00	  484.19	 -557.43	  401.96
     67.8392	  561.00	  482.42	 -523.66	  400.25
     67.8893	  536.00	  480.65	 -546.89	  398.55
     67.9394	  532.00	  478.89	 -549.13	  396.84
     67.9896	  536.00	  477.13	 -543.37	  395.13
     68.0397	  573.00	  475.38	 -504.62	  393.43
     68.0898	  585.00	  473.63	 -490.87	  391.72
     68.1400	  565.00	  471.93	 -509.17	  390.06
     68.1901	  536.00	  470.32	 -536.57	  388.41
     68.2402	  506.00	  468.64	 -564.88	  386.75
     68.2904	  542.00	  466.95	 -527.19	  385.10
     68.3405	  517.00	  465.27	 -550.51	  383.44
     68.3906	  541.00	  463.63	 -524.88	  381.79
     68.4408	  497.00	  461.96	 -567.20	  380.14
     68.4909	  496.00	  460.28	 -566.53	  378.48
     68.5410	  497.00	  458.61	 -563.86	  376.83
     68.5912	  506.00	  456.95	 -553.19	  375.17
     68.6413	  489.00	  455.28	 -568.52	  373.52
     68.6914	  480.00	  453.62	 -575.86	  371.86
     68.7416	  471.00	  451.96	 -583.20	  370.21
     68.7917	  437.00	  450.30	 -615.55	  368.55
     68.8418	  457.00	  448.65	 -593.89	  366.90
     68.8920	  466.00	  447.00	 -583.24	  365.24
     68.9421	  537.00	  445.35	 -510.59	  363.59
     68.9922	  486.00	  443.71	 -559.95	  361.93
     69.0424	  521.00	  442.06	 -523.31	  360.28
     69.0925	  508.00	  440.43	 -534.67	  358.62
     69.1426	  433.00	  438.79	 -608.03	  356.97
     69.1928	  447.00	  437.16	 -592.40	  355.31
     69.2429	  509.00	  435.53	 -528.77	  353.66
     69.2930	  486.00	  433.91	 -550.15	  352.00
     69.3432	  454.00	  432.29	 -580.53	  350.35
     69.3933	  466.00	  430.67	 -566.91	  348.69
     69.4435	  483.00	  429.06	 -548.30	  347.04
     69.4936	  472.00	  427.45	 -557.70	  345.38
     69.5437	  502.00	  425.85	 -526.09	  343.73
     69.5938	  492.00	  424.26	 -534.50	  342.07
     69.6440	  477.00	  422.67	 -547.91	  340.42
     69.6941	  469.00	  422.03	 -555.28	  339.71
     69.7442	  446.00	  422.11	 -578.36	  339.71
     69.7944	  416.00	  421.42	 -607.66	  339.71
     69.8445	  426.00	  421.52	 -597.77	  339.71
     69.8947	  427.00	  421.64	 -596.88	  339.71
     69.9448	  469.00	  421.37	 -554.61	  339.71
     69.9949	  467.00	  421.52	 -556.76	  339.71
     70.0451	  469.00	  421.67	 -554.91	  339.71
     70.0952	  415.00	  421.84	 -609.08	  339.71
     70.1453	  464.00	  422.02	 -560.27	  339.71
     70.1954	  438.00	  422.22	 -586.47	  339.71
     70.2456	  433.00	  422.44	 -591.69	  339.71
     70.2957	  455.00	  422.68	 -569.93	  339.71
     70.3459	  447.00	  422.95	 -578.19	  339.71
     70.3960	  440.00	  423.24	 -585.48	  339.71
     70.4461	  480.00	  423.56	 -545.80	  339.71
     70.4963	  459.00	  423.91	 -567.15	  339.71
     70.5464	  450.00	  424.30	 -576.54	  339.71
     70.5965	  481.00	  424.73	 -545.97	  339.71
     70.6467	  426.00	  425.20	 -601.44	  339.71
     70.6968	  453.00	  425.72	 -574.96	  339.71
     70.7469	  481.00	  426.30	 -547.54	  339.71
     70.7971	  462.00	  426.93	 -567.17	  339.71
     70.8472	  449.00	  427.62	 -580.87	  339.71
     70.8973	  461.00	  428.38	 -569.62	  339.71
     70.9475	  480.00	  429.19	 -551.44	  339.71
     70.9976	  460.00	  430.06	 -572.30	  339.71
     71.0477	  431.00	  430.97	 -602.22	  339.71
     71.0979	  442.00	  431.91	 -592.15	  339.71
     71.1480	  481.00	  432.85	 -554.09	  339.71
     71.1981	  424.00	  433.76	 -612.00	  339.71
     71.2483	  472.00	  434.59	 -564.83	  339.71
     71.2984	  480.00	  435.31	 -557.55	  339.71
     71.3485	  472.00	  435.88	 -566.12	  339.71
     71.3987	  487.00	  436.25	 -551.50	  339.71
     71.4488	  470.00	  436.42	 -568.67	  339.71
     71.4989	  481.00	  436.38	 -557.62	  339.71
     71.5491	  494.00	  436.13	 -544.37	  339.71
     71.5992	  459.00	  435.70	 -578.94	  339.71
     71.6493	  473.00	  435.12	 -564.36	  339.71
     71.6995	  485.00	  434.43	 -551.67	  339.71
     71.7496	  472.00	  433.67	 -563.91	  339.71
     71.7997	  443.00	  432.87	 -592.11	  339.71
     71.8499	  471.00	  431.68	 -562.92	  339.33
     71.9000	  457.00	  430.37	 -575.61	  338.80
     71.9501	  466.00	  429.10	 -565.34	  338.28
     72.0003	  488.00	  427.94	 -542.19	  337.75
     72.0504	  464.00	  426.79	 -565.03	  337.23
     72.1005	  497.00	  425.70	 -530.94	  336.70
     72.1507	  482.00	  424.67	 -544.91	  336.18
     72.2008	  432.00	  423.70	 -593.95	  335.65
     72.2509	  489.00	  422.83	 -536.07	  335.13
     72.3011	  489.00	  421.98	 -535.22	  334.60
     72.3512	  465.00	  421.18	 -558.42	  334.08
     72.4013	  471.00	  420.43	 -551.67	  333.55
     72.4515	  434.00	  419.73	 -587.97	  333.03
     72.5016	  450.00	  419.07	 -571.31	  332.50
     72.5517	  408.00	  418.45	 -612.69	  331.98
     72.6019	  410.00	  417.87	 -610.11	  331.45
     72.6520	  451.00	  417.32	 -568.57	  330.93
     72.7021	  481.00	  416.81	 -538.06	  330.40
     72.7523	  484.00	  416.34	 -534.58	  329.88
     72.8024	  444.00	  415.90	 -574.14	  329.35
     72.8525	  423.00	  415.49	 -594.73	  328.83
     72.9027	  445.00	  415.12	 -572.36	  328.30
     72.9528	  415.00	  414.78	 -602.02	  327.78
     73.0029	  447.00	  414.48	 -569.72	  327.25
     73.0531	  394.00	  414.21	 -622.46	  326.73
     73.1032	  423.00	  413.99	 -593.23	  326.20
     73.1534	  456.00	  413.79	 -560.03	  325.68
     73.2035	  445.00	  413.65	 -570.90	  325.15
     73.2536	  462.00	  413.57	 -553.81	  324.63
     73.3037	  445.00	  413.53	 -570.77	  324.10
     73.3539	  444.00	  413.55	 -571.79	  323.58
     73.4040	  453.00	  413.64	 -562.89	  323.05
     73.4541	  440.00	  413.80	 -576.05	  322.53
     73.5043	  451.00	  414.04	 -565.29	  322.00
     73.5544	  430.00	  414.37	 -586.61	  321.48
     73.6046	  436.00	  414.78	 -581.03	  320.95
     73.6547	  412.00	  415.31	 -605.55	  320.43
     73.7048	  418.00	  415.94	 -600.18	  319.90
     73.7550	  435.00	  416.69	 -583.94	  319.38
     73.8051	  419.00	  417.58	 -600.82	  318.85
     73.8552	  442.00	  418.60	 -578.85	  318.32
     73.9053	  412.00	  419.77	 -610.01	  317.80
     73.9555	  464.00	  421.09	 -559.33	  317.27
     74.0056	  452.00	  422.54	 -572.78	  316.75
     74.0558	  459.00	  424.12	 -567.36	  316.22
     74.1059	  477.00	  425.80	 -551.04	  315.70
     74.1560	  439.00	  427.53	 -590.78	  315.17
     74.2062	  414.00	  429.28	 -617.52	  314.65
     74.2563	  455.00	  430.96	 -578.20	  314.12
     74.3064	  460.00	  432.49	 -574.73	  313.60
     74.3566	  446.00	  433.78	 -590.02	  313.07
     74.4067	  461.00	  434.76	 -576.00	  312.55
     74.4568	  407.00	  435.35	 -630.59	  312.02
     74.5070	  426.00	  435.50	 -611.74	  311.50
     74.5571	  453.00	  435.21	 -584.46	  310.97
     74.6072	  456.00	  434.50	 -580.74	  310.45
     74.6574	  457.00	  433.40	 -578.64	  309.92
     74.7075	  444.00	  431.99	 -590.23	  309.40
     74.7576	  437.00	  430.34	 -595.58	  308.87
     74.8078	  442.00	  428.54	 -588.78	  308.35
     74.8579	  419.00	  426.69	 -609.93	  307.82
     74.9080	  435.00	  424.84	 -592.08	  307.30
     74.9582	  448.00	  422.37	 -576.61	  306.09
     75.0083	  479.00	  419.89	 -543.13	  304.76
     75.0584	  408.00	  417.56	 -611.80	  303.43
     75.1086	  449.00	  415.38	 -568.62	  302.10
     75.1587	  416.00	  413.34	 -599.58	  300.76
     75.2088	  487.00	  411.43	 -526.67	  299.43
     75.2590	  405.00	  409.61	 -606.85	  298.10
     75.3091	  449.00	  407.84	 -561.08	  296.77
     75.3592	  430.00	  406.08	 -578.32	  295.44
     75.4094	  396.00	  404.27	 -610.51	  294.10
     75.4595	  426.00	  402.37	 -578.61	  292.77
     75.5096	  452.00	  400.36	 -550.60	  291.44
     75.5598	  393.00	  398.21	 -607.45	  290.11
     75.6099	  394.00	  395.92	 -604.16	  288.78
     75.6600	  412.00	  393.50	 -583.74	  287.44
     75.7102	  450.00	  390.96	 -543.20	  286.11
     75.7603	  375.00	  388.34	 -615.58	  284.78
     75.8104	  401.00	  385.67	 -586.91	  283.45
     75.8606	  363.00	  382.97	 -622.21	  282.12
     75.9107	  418.00	  380.28	 -564.52	  280.78
     75.9608	  384.00	  377.62	 -595.86	  279.45
     76.0110	  432.00	  375.01	 -545.25	  278.12
     76.0611	  391.00	  372.46	 -583.70	  276.79
     76.1112	  397.00	  369.99	 -575.23	  275.46
     76.1614	  407.00	  367.60	 -562.84	  274.12
     76.2115	  375.00	  365.29	 -592.53	  272.79
     76.2616	  405.00	  363.05	 -560.29	  271.46
     76.3118	  390.00	  360.89	 -573.13	  270.13
     76.3619	  366.00	  358.80	 -595.05	  268.80
     76.4120	  412.00	  356.78	 -547.02	  267.46
     76.4622	  403.00	  354.82	 -554.06	  266.13
     76.5123	  377.00	  352.91	 -578.15	  264.80
     76.5624	  383.00	  351.05	 -570.29	  263.47
     76.6126	  333.00	  349.24	 -618.48	  262.14
     76.6627	  352.00	  347.47	 -597.71	  260.80
     76.7128	  361.00	  345.74	 -586.98	  259.47
     76.7630	  366.00	  344.04	 -580.28	  258.14
     76.8131	  365.00	  342.38	 -579.62	  256.81
     76.8633	  378.00	  340.74	 -564.98	  255.48
     76.9134	  358.00	  340.10	 -584.35	  255.12
     76.9635	  346.00	  339.72	 -595.96	  254.99
     77.0137	  377.00	  339.36	 -564.60	  254.86
     77.0638	  391.00	  339.02	 -550.26	  254.73
     77.1139	  377.00	  338.69	 -563.93	  254.61
     77.1640	  377.00	  338.39	 -563.63	  254.48
     77.2142	  378.00	  338.09	 -562.34	  254.35
     77.2643	  361.00	  337.82	 -579.06	  254.22
     77.3145	  378.00	  337.56	 -561.80	  254.09
     77.3646	  377.00	  337.31	 -562.55	  253.96
     77.4147	  332.00	  337.07	 -607.31	  253.83
     77.4649	  362.00	  336.84	 -577.09	  253.70
     77.5150	  371.00	  336.63	 -567.87	  253.57
     77.5651	  350.00	  336.43	 -588.67	  253.45
     77.6153	  373.00	  336.24	 -565.48	  253.32
     77.6654	  352.00	  336.05	 -586.30	  253.19
     77.7155	  373.00	  335.88	 -565.12	  253.06
     77.7657	  378.00	  335.72	 -559.96	  252.93
     77.8158	  410.00	  335.57	 -527.81	  252.80
     77.8659	  373.00	  335.43	 -564.67	  252.67
     77.9161	  344.00	  335.30	 -593.54	  252.54
     77.9662	  306.00	  335.18	 -631.42	  252.42
     78.0163	  346.00	  335.07	 -591.32	  252.29
     78.0665	  353.00	  334.98	 -584.22	  252.16
     78.1166	  347.00	  334.90	 -590.14	  252.03
     78.1667	  387.00	  334.83	 -550.07	  251.90
     78.2169	  355.00	  334.77	 -582.01	  251.77
     78.2670	  339.00	  334.73	 -597.97	  251.64
     78.3171	  353.00	  334.70	 -583.95	  251.51
     78.3673	  381.00	  334.70	 -555.94	  251.39
     78.4174	  401.00	  334.71	 -535.95	  251.26
     78.4675	  372.00	  334.74	 -564.98	  251.13
     78.5177	  358.00	  334.80	 -579.04	  251.00
     78.5678	  337.00	  334.80	 -600.05	  250.87
     78.6179	  337.00	  334.91	 -600.15	  250.74
     78.6681	  323.00	  335.04	 -614.29	  250.61
     78.7182	  339.00	  335.21	 -598.45	  250.48
     78.7683	  345.00	  335.37	 -592.61	  250.35
     78.8185	  322.00	  335.60	 -615.84	  250.23
     78.8686	  316.00	  335.86	 -622.10	  250.10
     78.9187	  318.00	  336.16	 -620.40	  249.97
     78.9689	  353.00	  336.49	 -585.73	  249.84
     79.0190	  357.00	  336.85	 -582.09	  249.71
     79.0691	  362.00	  337.23	 -577.47	  249.58
     79.1193	  321.00	  337.63	 -618.87	  249.45
     79.1694	  349.00	  338.04	 -591.28	  249.32
     79.2195	  369.00	  338.43	 -571.68	  249.20
     79.2697	  398.00	  338.80	 -543.05	  249.07
     79.3198	  337.00	  339.12	 -604.37	  248.94
     79.3699	  328.00	  339.38	 -613.62	  248.81
     79.4201	  354.00	  339.51	 -587.75	  248.65
     79.4702	  354.00	  339.57	 -587.81	  248.43
     79.5203	  341.00	  339.43	 -600.67	  248.22
     79.5705	  348.00	  339.17	 -593.42	  248.00
     79.6206	  355.00	  338.80	 -586.04	  247.78
     79.6707	  355.00	  338.32	 -585.57	  247.57
     79.7209	  379.00	  337.80	 -561.04	  247.35
     79.7710	  326.00	  337.15	 -613.39	  247.13
     79.8212	  348.00	  336.44	 -590.68	  246.92
     79.8713	  329.00	  335.69	 -608.94	  246.70
     79.9214	  333.00	  334.92	 -604.17	  246.48
     79.9715	  341.00	  334.15	 -595.39	  246.27
     80.0217	  353.00	  333.38	 -582.62	  246.05
     80.0718	  329.00	  332.62	 -605.87	  245.83
     80.1219	  348.00	  331.89	 -586.14	  245.62
     80.1721	  369.00	  331.19	 -564.43	  245.40
     80.2222	  325.00	  330.52	 -607.76	  245.18
     80.2724	  307.00	  329.88	 -625.13	  244.97
     80.3225	  380.00	  329.28	 -551.52	  244.75
     80.3726	  378.00	  328.71	 -552.95	  244.53
     80.4227	  330.00	  328.16	 -600.40	  244.32
     80.4729	  370.00	  327.65	 -559.89	  244.10
     80.5230	  351.00	  327.16	 -578.40	  243.88
     80.5732	  357.00	  326.70	 -571.94	  243.67
     80.6233	  358.00	  326.26	 -570.50	  243.45
     80.6734	  346.00	  325.84	 -582.08	  243.23
     80.7236	  341.00	  325.43	 -586.68	  243.02
     80.7737	  346.00	  325.05	 -581.29	  242.80
     80.8238	  366.00	  324.68	 -560.93	  242.58
     80.8739	  338.00	  324.33	 -588.57	  242.36
     80.9241	  338.00	  323.99	 -588.23	  242.15
     80.9742	  324.00	  323.67	 -601.91	  241.93
     81.0244	  337.00	  323.35	 -588.59	  241.71
     81.0745	  339.00	  323.05	 -586.29	  241.50
     81.1246	  341.00	  322.76	 -584.00	  241.28
     81.1748	  349.00	  322.47	 -575.71	  241.06
     81.2249	  348.00	  322.20	 -576.44	  240.85
     81.2750	  349.00	  321.93	 -575.17	  240.63
     81.3252	  300.00	  321.68	 -623.92	  240.41
     81.3753	  334.00	  321.43	 -589.67	  240.20
     81.4254	  358.00	  321.19	 -565.43	  239.98
     81.4756	  359.00	  320.96	 -564.20	  239.76
     81.5257	  363.00	  320.73	 -559.98	  239.55
     81.5758	  311.00	  320.52	 -611.76	  239.33
     81.6260	  333.00	  320.31	 -589.56	  239.11
     81.6761	  323.00	  320.12	 -599.36	  238.90
     81.7262	  307.00	  319.93	 -615.17	  238.68
     81.7764	  312.00	  319.57	 -609.81	  238.46
     81.8265	  342.00	  319.40	 -579.64	  238.25
     81.8766	  330.00	  319.24	 -591.48	  238.03
     81.9268	  320.00	  319.09	 -601.33	  237.81
     81.9769	  355.00	  318.85	 -566.09	  237.60
     82.0270	  338.00	  318.71	 -582.95	  237.38
     82.0772	  344.00	  318.58	 -576.82	  237.16
     82.1273	  350.00	  318.44	 -570.68	  236.95
     82.1774	  297.00	  318.31	 -623.55	  236.73
     82.2276	  315.00	  318.49	 -605.73	  236.51
     82.2777	  323.00	  318.35	 -597.59	  236.30
     82.3278	  315.00	  318.20	 -605.44	  236.08
     82.3780	  314.00	  318.03	 -606.27	  235.86
     82.4281	  318.00	  317.93	 -602.17	  235.73
     82.4782	  323.00	  318.10	 -597.34	  235.73
     82.5284	  335.00	  318.09	 -585.34	  235.73
     82.5785	  311.00	  318.07	 -609.31	  235.73
     82.6286	  336.00	  318.02	 -584.26	  235.73
     82.6788	  330.00	  317.96	 -590.20	  235.73
     82.7289	  338.00	  317.88	 -582.13	  235.73
     82.7790	  316.00	  317.80	 -604.04	  235.73
     82.8292	  318.00	  317.62	 -601.86	  235.73
     82.8793	  332.00	  317.52	 -587.76	  235.73
     82.9294	  354.00	  317.41	 -565.66	  235.73
     82.9796	  353.00	  317.31	 -566.56	  235.73
     83.0297	  314.00	  317.17	 -605.41	  235.73
     83.0798	  315.00	  317.08	 -604.32	  235.73
     83.1300	  305.00	  316.99	 -614.23	  235.73
     83.1801	  378.00	  316.91	 -541.15	  235.73
     83.2302	  335.00	  316.83	 -584.07	  235.73
     83.2804	  333.00	  316.76	 -586.00	  235.73
     83.3305	  347.00	  316.70	 -571.94	  235.73
     83.3806	  321.00	  316.64	 -597.89	  235.73
     83.4308	  337.00	  316.59	 -581.84	  235.73
     83.4809	  351.00	  316.55	 -567.79	  235.73
     83.5311	  368.00	  316.51	 -550.75	  235.73
     83.5812	  353.00	  316.48	 -565.72	  235.73
     83.6313	  337.00	  316.45	 -581.69	  235.73
     83.6814	  330.00	  316.43	 -588.67	  235.73
     83.7316	  313.00	  316.41	 -605.65	  235.73
     83.7817	  375.00	  316.40	 -543.64	  235.73
     83.8318	  321.00	  316.38	 -597.63	  235.73
     83.8820	  338.00	  316.38	 -580.62	  235.73
     83.9321	  334.00	  316.37	 -584.62	  235.73
     83.9823	  328.00	  316.37	 -590.61	  235.73
     84.0324	  319.00	  316.37	 -599.62	  235.73
     84.0825	  333.00	  316.38	 -585.62	  235.73
     84.1326	  340.00	  316.39	 -578.63	  235.73
     84.1828	  325.00	  316.40	 -593.64	  235.73
     84.2329	  342.00	  316.41	 -576.66	  235.73
     84.2831	  334.00	  316.43	 -584.67	  235.73
     84.3332	  331.00	  316.45	 -587.69	  235.73
     84.3833	  362.00	  316.47	 -556.71	  235.73
     84.4335	  346.00	  316.49	 -572.74	  235.73
     84.4836	  341.00	  316.52	 -577.76	  235.73
     84.5337	  335.00	  316.79	 -584.03	  235.97
     84.5839	  355.00	  317.33	 -564.57	  236.47
     84.6340	  336.00	  317.86	 -584.10	  236.97
     84.6841	  346.00	  318.40	 -574.64	  237.48
     84.7343	  351.00	  318.94	 -570.19	  237.98
     84.7844	  340.00	  319.49	 -581.73	  238.48
     84.8345	  345.00	  320.04	 -577.28	  238.98
     84.8847	  361.00	  320.59	 -561.83	  239.48
     84.9348	  369.00	  321.14	 -554.38	  239.98
     84.9849	  348.00	  321.70	 -575.94	  240.49
     85.0351	  308.00	  322.26	 -616.50	  240.99
     85.0852	  341.00	  322.83	 -584.07	  241.49
     85.1353	  350.00	  323.40	 -575.64	  241.99
     85.1855	  338.00	  323.97	 -588.21	  242.49
     85.2356	  366.00	  324.55	 -560.79	  243.00
     85.2857	  337.00	  325.13	 -590.37	  243.50
     85.3359	  300.00	  325.72	 -627.96	  244.00
     85.3860	  350.00	  326.31	 -578.55	  244.50
     85.4361	  326.00	  326.91	 -603.15	  245.00
     85.4863	  340.00	  327.51	 -589.76	  245.51
     85.5364	  323.00	  328.13	 -607.37	  246.01
     85.5865	  324.00	  328.74	 -606.99	  246.51
     85.6367	  342.00	  329.37	 -589.61	  247.01
     85.6868	  334.00	  330.01	 -598.25	  247.51
     85.7369	  344.00	  330.65	 -588.89	  248.02
     85.7871	  333.00	  331.30	 -600.55	  248.52
     85.8372	  355.00	  331.97	 -579.21	  249.02
     85.8873	  363.00	  332.65	 -571.89	  249.52
     85.9375	  316.00	  333.34	 -619.58	  250.02
     85.9876	  366.00	  334.04	 -570.28	  250.53
     86.0377	  338.00	  334.76	 -599.00	  251.03
     86.0879	  296.00	  335.49	 -641.73	  251.53
     86.1380	  365.00	  336.24	 -573.48	  252.03
     86.1881	  320.00	  337.00	 -619.25	  252.53
     86.2383	  347.00	  337.79	 -593.03	  253.02
     86.2884	  358.00	  338.60	 -582.84	  253.52
     86.3385	  321.00	  339.43	 -620.67	  254.01
     86.3887	  349.00	  340.29	 -593.53	  254.51
     86.4388	  352.00	  341.18	 -591.42	  255.00
     86.4889	  377.00	  342.09	 -567.34	  255.50
     86.5391	  356.00	  343.04	 -589.29	  255.99
     86.5892	  339.00	  344.03	 -607.27	  256.49
     86.6393	  324.00	  345.04	 -623.29	  256.99
     86.6895	  347.00	  346.10	 -601.34	  257.48
     86.7396	  361.00	  347.19	 -588.43	  257.98
     86.7897	  354.00	  348.43	 -596.67	  258.47
     86.8399	  335.00	  349.58	 -616.82	  258.97
     86.8900	  356.00	  350.76	 -597.00	  259.46
     86.9401	  380.00	  351.95	 -574.19	  259.96
     86.9903	  358.00	  353.10	 -597.34	  260.45
     87.0404	  375.00	  354.30	 -581.54	  260.95
     87.0905	  357.00	  355.54	 -600.78	  261.44
     87.1407	  354.00	  356.68	 -604.92	  261.94
     87.1908	  391.00	  357.77	 -569.01	  262.44
     87.2410	  355.00	  358.75	 -605.99	  262.93
     87.2911	  366.00	  359.68	 -595.92	  263.43
     87.3412	  387.00	  360.50	 -575.75	  263.92
     87.3913	  372.00	  361.22	 -591.46	  264.42
     87.4415	  378.00	  361.82	 -586.07	  264.91
     87.4916	  369.00	  362.31	 -595.56	  265.41
     87.5417	  370.00	  362.70	 -594.94	  265.90
     87.5919	  390.00	  362.99	 -575.24	  266.40
     87.6420	  370.00	  363.20	 -595.45	  266.89
     87.6922	  371.00	  363.35	 -594.59	  267.39
     87.7423	  384.00	  363.45	 -581.69	  267.89
     87.7924	  382.00	  363.51	 -583.75	  268.38
     87.8426	  377.00	  363.56	 -588.80	  268.88
     87.8927	  377.00	  363.61	 -588.85	  269.37
     87.9428	  389.00	  363.67	 -576.91	  269.87
     87.9930	  400.00	  363.75	 -565.99	  270.36
     88.0431	  387.00	  363.86	 -579.11	  270.86
     88.0932	  418.00	  364.01	 -548.26	  271.35
     88.1434	  381.00	  364.20	 -585.45	  271.85
     88.1935	  377.00	  364.44	 -589.68	  272.34
     88.2436	  398.00	  364.72	 -568.96	  272.84
     88.2938	  413.00	  365.05	 -554.29	  273.34
     88.3439	  379.00	  365.43	 -588.67	  273.83
     88.3940	  372.00	  365.86	 -596.10	  274.33
     88.4442	  353.00	  366.34	 -615.58	  274.82
     88.4943	  373.00	  366.86	 -596.10	  275.32
     88.5444	  365.00	  367.43	 -604.68	  275.81
     88.5946	  385.00	  368.06	 -585.30	  276.31
     88.6447	  373.00	  368.73	 -597.97	  276.80
     88.6948	  357.00	  369.46	 -614.70	  277.30
     88.7450	  390.00	  370.23	 -582.47	  277.79
     88.7951	  372.00	  371.06	 -601.30	  278.29
     88.8452	  372.00	  371.94	 -602.19	  278.78
     88.8954	  334.00	  372.89	 -641.13	  279.28
     88.9455	  333.00	  373.89	 -643.13	  279.78
     88.9956	  374.00	  374.95	 -603.19	  280.27
     89.0458	  363.00	  376.08	 -615.32	  280.77
     89.0959	  386.00	  377.24	 -593.49	  281.22
     89.1460	  387.00	  378.03	 -593.27	  281.22
     89.1962	  371.00	  378.89	 -610.13	  281.22
     89.2463	  373.00	  379.83	 -609.08	  281.22
     89.2964	  407.00	  380.87	 -576.11	  281.22
     89.3466	  412.00	  382.00	 -572.24	  281.22
     89.3967	  366.00	  383.23	 -619.48	  281.22
     89.4468	  405.00	  384.57	 -581.81	  281.22
     89.4970	  408.00	  386.02	 -580.26	  281.22
     89.5471	  394.00	  387.57	 -595.81	  281.22
     89.5972	  430.00	  389.24	 -561.48	  281.22
     89.6474	  419.00	  391.01	 -574.26	  281.22
     89.6975	  378.00	  392.89	 -617.14	  281.22
     89.7476	  401.00	  394.86	 -596.11	  281.22
     89.7978	  405.00	  396.91	 -594.15	  281.22
     89.8479	  391.00	  399.01	 -610.25	  281.22
     89.8980	  410.00	  401.12	 -593.37	  281.22
     89.9482	  401.00	  403.22	 -604.46	  281.22
     89.9983	  443.00	  405.26	 -564.50	  281.22
     90.0484	  407.00	  407.17	 -602.42	  281.22
     90.0986	  418.00	  408.91	 -593.15	  281.22
     90.1487	  418.00	  410.42	 -594.66	  281.22
     90.1988	  455.00	  411.66	 -558.90	  281.22
     90.2490	  410.00	  412.56	 -604.81	  281.22
     90.2991	  419.00	  413.11	 -596.35	  281.22
     90.3492	  462.00	  413.28	 -553.52	  281.22
     90.3994	  478.00	  413.07	 -537.31	  281.22
     90.4495	  402.00	  412.49	 -612.73	  281.22
     90.4996	  432.00	  411.56	 -581.81	  281.22
     90.5498	  468.00	  410.33	 -544.57	  281.22
     90.5999	  395.00	  408.82	 -616.06	  281.22
     90.6500	  443.00	  407.10	 -566.34	  281.22
     90.7002	  430.00	  405.20	 -577.45	  281.22
     90.7503	  448.00	  403.19	 -557.43	  281.22
     90.8004	  400.00	  401.10	 -603.35	  281.22
     90.8506	  401.00	  398.99	 -600.23	  281.22
     90.9007	  413.00	  396.88	 -586.12	  281.22
     90.9509	  395.00	  394.81	 -602.05	  281.22
     91.0010	  419.00	  392.80	 -576.05	  281.22
     91.0511	  436.00	  390.88	 -557.12	  281.22
     91.1013	  385.00	  389.04	 -606.28	  281.22
     91.1514	  391.00	  387.30	 -598.55	  281.22
     91.2015	  421.00	  385.67	 -566.91	  281.22
     91.2516	  410.00	  384.14	 -576.39	  281.22
     91.3018	  382.00	  382.72	 -602.96	  281.22
     91.3519	  416.00	  381.39	 -567.63	  281.22
     91.4021	  400.00	  380.16	 -582.40	  281.22
     91.4522	  386.00	  379.17	 -595.42	  281.37
     91.5023	  413.00	  378.47	 -567.71	  281.73
     91.5525	  413.00	  377.85	 -567.09	  282.08
     91.6026	  384.00	  377.30	 -595.54	  282.43
     91.6527	  379.00	  376.82	 -600.06	  282.79
     91.7029	  393.00	  376.40	 -585.64	  283.14
     91.7530	  389.00	  376.04	 -589.28	  283.49
     91.8031	  406.00	  375.74	 -571.98	  283.85
     91.8533	  399.00	  375.48	 -578.72	  284.20
     91.9034	  389.00	  375.27	 -588.51	  284.55
     91.9535	  414.00	  375.10	 -563.35	  284.90
     92.0037	  429.00	  374.98	 -548.22	  285.26
     92.0538	  393.00	  374.88	 -584.13	  285.61
     92.1039	  427.00	  374.83	 -550.07	  285.96
     92.1541	  383.00	  374.80	 -594.04	  286.32
     92.2042	  371.00	  374.80	 -606.04	  286.67
     92.2543	  420.00	  374.83	 -557.07	  287.02
     92.3045	  418.00	  374.88	 -559.12	  287.38
     92.3546	  388.00	  374.96	 -589.20	  287.73
     92.4047	  375.00	  375.06	 -602.30	  288.08
     92.4549	  375.00	  375.18	 -602.42	  288.44
     92.5050	  415.00	  375.31	 -562.55	  288.79
     92.5551	  393.00	  375.47	 -584.71	  289.14
     92.6053	  390.00	  375.64	 -587.88	  289.49
     92.6554	  383.00	  375.83	 -595.07	  289.85
     92.7055	  397.00	  376.03	 -581.28	  290.20
     92.7557	  388.00	  376.25	 -590.50	  290.55
     92.8058	  406.00	  376.49	 -572.73	  290.91
     92.8559	  368.00	  376.37	 -610.61	  290.90
     92.9061	  400.00	  376.19	 -578.43	  290.81
     92.9562	  391.00	  376.02	 -587.26	  290.72
     93.0063	  388.00	  375.86	 -590.11	  290.63
     93.0565	  421.00	  375.72	 -556.96	  290.54
     93.1066	  412.00	  375.59	 -565.83	  290.45
     93.1567	  366.00	  375.47	 -611.71	  290.36
     93.2069	  414.00	  375.37	 -563.61	  290.27
     93.2570	  443.00	  375.27	 -534.51	  290.18
     93.3071	  393.00	  375.19	 -584.43	  290.09
     93.3573	  408.00	  375.13	 -569.37	  290.00
     93.4074	  382.00	  375.07	 -595.31	  289.91
     93.4575	  434.00	  375.03	 -543.28	  289.82
     93.5077	  363.00	  375.01	 -614.25	  289.73
     93.5578	  371.00	  375.00	 -606.24	  289.64
     93.6079	  406.00	  375.01	 -571.25	  289.55
     93.6581	  375.00	  375.03	 -602.27	  289.46
     93.7082	  423.00	  375.07	 -554.31	  289.37
     93.7583	  388.00	  375.13	 -589.37	  289.28
     93.8085	  387.00	  375.20	 -590.45	  289.19
     93.8586	  380.00	  375.30	 -597.54	  289.10
     93.9087	  428.00	  375.42	 -549.66	  289.01
     93.9589	  450.00	  375.57	 -527.81	  288.92
     94.0090	  385.00	  375.73	 -592.98	  288.83
     94.0591	  405.00	  375.97	 -573.22	  288.74
     94.1093	  393.00	  376.20	 -585.44	  288.65
     94.1594	  386.00	  376.45	 -592.69	  288.56
     94.2095	  387.00	  376.73	 -591.97	  288.47
     94.2597	  401.00	  377.04	 -578.28	  288.38
     94.3098	  434.00	  377.38	 -545.63	  288.29
     94.3600	  403.00	  377.79	 -577.03	  288.20
     94.4101	  386.00	  378.20	 -594.44	  288.11
     94.4602	  359.00	  378.65	 -621.89	  288.02
     94.5103	  398.00	  379.13	 -583.37	  287.93
     94.5605	  374.00	  379.64	 -607.88	  287.84
     94.6106	  412.00	  380.17	 -570.41	  287.75
     94.6608	  393.00	  380.68	 -589.92	  287.61
     94.7109	  395.00	  381.17	 -588.41	  287.44
     94.7610	  400.00	  381.66	 -583.91	  287.27
     94.8112	  380.00	  382.15	 -604.40	  287.10
     94.8613	  369.00	  382.62	 -615.87	  286.93
     94.9114	  400.00	  383.06	 -585.30	  286.76
     94.9615	  432.00	  383.45	 -553.69	  286.59
     95.0117	  389.00	  383.77	 -597.02	  286.42
     95.0618	  389.00	  384.02	 -597.26	  286.24
     95.1120	  395.00	  384.17	 -591.41	  286.07
     95.1621	  430.00	  384.22	 -556.46	  285.90
     95.2122	  394.00	  384.15	 -592.40	  285.73
     95.2624	  417.00	  383.89	 -569.13	  285.56
     95.3125	  433.00	  383.60	 -552.84	  285.39
     95.3626	  412.00	  383.20	 -573.44	  285.22
     95.4128	  410.00	  382.70	 -574.94	  285.05
     95.4629	  424.00	  382.10	 -560.35	  284.88
     95.5130	  382.00	  381.43	 -601.67	  284.71
     95.5632	  395.00	  380.64	 -587.89	  284.54
     95.6133	  355.00	  379.85	 -627.09	  284.37
     95.6634	  418.00	  379.02	 -563.26	  284.20
     95.7136	  408.00	  378.16	 -572.40	  284.03
     95.7637	  371.00	  377.28	 -608.53	  283.86
     95.8138	  372.00	  376.41	 -606.65	  283.68
     95.8640	  389.00	  375.54	 -588.78	  283.51
     95.9141	  347.00	  374.69	 -629.93	  283.34
     95.9642	  411.00	  373.85	 -565.09	  283.17
     96.0144	  363.00	  373.04	 -612.29	  283.00
     96.0645	  358.00	  372.27	 -616.51	  282.83
     96.1146	  354.00	  371.52	 -619.76	  282.66
     96.1648	  385.00	  370.80	 -588.04	  282.49
     96.2149	  370.00	  370.11	 -602.35	  282.32
     96.2650	  374.00	  369.46	 -597.70	  282.15
     96.3152	  411.00	  368.83	 -560.07	  281.98
     96.3653	  374.00	  368.24	 -596.48	  281.81
     96.4154	  368.00	  367.67	 -601.91	  281.64
     96.4656	  407.00	  367.13	 -562.37	  281.47
     96.5157	  332.00	  366.61	 -636.85	  281.30
     96.5658	  401.00	  366.07	 -567.31	  281.08
     96.6160	  334.00	  365.52	 -633.76	  280.83
     96.6661	  341.00	  364.99	 -626.23	  280.58
     96.7162	  377.00	  364.48	 -589.72	  280.33
     96.7664	  369.00	  364.18	 -597.43	  280.08
     96.8165	  332.00	  363.71	 -633.95	  279.83
     96.8666	  363.00	  363.25	 -602.49	  279.58
     96.9168	  403.00	  362.80	 -562.04	  279.33
     96.9669	  357.00	  362.37	 -607.61	  279.08
     97.0170	  384.00	  361.94	 -580.19	  278.83
     97.0672	  357.00	  361.53	 -606.77	  278.58
     97.1173	  380.00	  361.23	 -583.47	  278.33
     97.1674	  361.00	  360.84	 -602.08	  278.08
     97.2176	  401.00	  360.46	 -561.70	  277.83
     97.2677	  346.00	  360.09	 -616.33	  277.58
     97.3178	  350.00	  359.72	 -611.96	  277.33
     97.3680	  369.00	  359.36	 -592.61	  277.08
     97.4181	  381.00	  359.01	 -580.25	  276.83
     97.4682	  353.00	  358.67	 -607.91	  276.58
     97.5184	  349.00	  358.33	 -611.57	  276.34
     97.5685	  390.00	  357.99	 -570.24	  276.09
     97.6187	  359.00	  357.66	 -600.91	  275.84
     97.6688	  388.00	  357.34	 -571.58	  275.59
     97.7189	  352.00	  357.07	 -607.31	  275.34
     97.7690	  382.00	  356.76	 -577.00	  275.09
     97.8192	  366.00	  356.44	 -592.69	  274.84
     97.8693	  359.00	  356.14	 -599.38	  274.59
     97.9194	  348.00	  355.83	 -610.07	  274.34
     97.9696	  335.00	  355.53	 -622.77	  274.09
     98.0197	  400.00	  355.23	 -557.47	  273.84
     98.0699	  388.00	  354.96	 -569.20	  273.59
     98.1200	  377.00	  354.66	 -579.91	  273.34
     98.1701	  365.00	  354.37	 -591.61	  273.09
     98.2202	  398.00	  354.08	 -558.32	  272.84
     98.2704	  346.00	  353.79	 -610.04	  272.59
     98.3205	  357.00	  353.51	 -598.75	  272.34
     98.3707	  369.00	  352.91	 -586.15	  272.09
     98.4208	  349.00	  352.63	 -605.87	  271.84
     98.4709	  351.00	  352.35	 -603.60	  271.59
     98.5211	  359.00	  352.15	 -595.39	  271.41
     98.5712	  368.00	  352.01	 -586.25	  271.30
     98.6213	  355.00	  351.87	 -599.12	  271.18
     98.6714	  373.00	  351.58	 -580.82	  271.07
     98.7216	  380.00	  351.45	 -573.69	  270.96
     98.7717	  339.00	  351.32	 -614.56	  270.84
     98.8219	  358.00	  351.19	 -595.43	  270.73
     98.8720	  375.00	  351.06	 -578.31	  270.62
     98.9221	  391.00	  350.94	 -562.18	  270.50
     98.9723	  362.00	  350.81	 -591.05	  270.39
     99.0224	  338.00	  350.69	 -614.93	  270.27
     99.0725	  333.00	  350.57	 -619.81	  270.16
     99.1227	  354.00	  350.45	 -598.69	  270.05
     99.1728	  377.00	  350.33	 -575.57	  269.93
     99.2229	  383.00	  350.21	 -569.45	  269.82
     99.2731	  326.00	  350.09	 -626.33	  269.71
     99.3232	  323.00	  349.97	 -629.22	  269.59
     99.3733	  339.00	  349.86	 -613.10	  269.48
     99.4235	  367.00	  349.75	 -584.99	  269.36
     99.4736	  375.00	  349.64	 -576.88	  269.25
     99.5237	  329.00	  349.52	 -622.77	  269.14
     99.5739	  363.00	  349.41	 -588.66	  269.02
     99.6240	  364.00	  349.31	 -587.55	  268.91
     99.6741	  374.00	  349.20	 -577.44	  268.80
     99.7243	  341.00	  349.09	 -610.34	  268.68
     99.7744	  358.00	  348.99	 -593.23	  268.57
     99.8245	  349.00	  348.89	 -602.13	  268.45
     99.8747	  388.00	  348.78	 -563.03	  268.34
     99.9248	  375.00	  348.68	 -575.92	  268.23
     99.9749	  320.00	  348.97	 -631.21	  268.23
     18.3528	        	        	        	        	       0	(  1  1  1)	  0  1 :  1
     18.3985	        	        	        	        	       0	(  1  1  1)	  0  2 :  1
     30.2207	        	        	        	        	       0	(  2  0  2)	  0  1 :  1
     30.2970	        	        	        	        	       0	(  2  0  2)	  0  2 :  1
     35.6061	        	        	        	        	       0	(  1  1  3)	  0  1 :  1
     35.6968	        	        	        	        	       0	(  1  1  3)	  0  2 :  1
     37.2485	        	        	        	        	       0	(  2  2  2)	  0  1 :  1
     37.3437	        	        	        	        	       0	(  2  2  2)	  0  2 :  1
     43.2874	        	        	        	        	       0	(  4  0  0)	  0  1 :  1
     43.3994	        	        	        	        	       0	(  4  0  0)	  0  2 :  1
     47.4024	        	        	        	        	       0	(  3  3  1)	  0  1 :  1
     47.5263	        	        	        	        	       0	(  3  3  1)	  0  2 :  1
     53.7222	        	        	        	        	       0	(  2  4  2)	  0  1 :  1
     53.8652	        	        	        	        	       0	(  2  4  2)	  0  2 :  1
     57.2750	        	        	        	        	       0	(  5  1  1)	  0  1 :  1
     57.2750	        	        	        	        	       0	(  3  3  3)	  0  1 :  1
     57.4291	        	        	        	        	       0	(  5  1  1)	  0  2 :  1
     57.4291	        	        	        	        	       0	(  3  3  3)	  0  2 :  1
     62.9064	        	        	        	        	       0	(  0  4  4)	  0  1 :  1
     63.0791	        	        	        	        	       0	(  0  4  4)	  0  2 :  1
     66.1501	        	        	        	        	       0	(  3  5  1)	  0  1 :  1
     66.3339	        	        	        	        	       0	(  3  5  1)	  0  2 :  1
     67.2129	        	        	        	        	       0	(  4  4  2)	  0  1 :  1
     67.4005	        	        	        	        	       0	(  4  4  2)	  0  2 :  1
     71.3875	        	        	        	        	       0	(  2  6  0)	  0  1 :  1
     71.5904	        	        	        	        	       0	(  2  6  0)	  0  2 :  1
     74.4514	        	        	        	        	       0	(  5  3  3)	  0  1 :  1
     74.6659	        	        	        	        	       0	(  5  3  3)	  0  2 :  1
     75.4622	        	        	        	        	       0	(  2  2  6)	  0  1 :  1
     75.6807	        	        	        	        	       0	(  2  2  6)	  0  2 :  1
     79.4632	        	        	        	        	       0	(  4  4  4)	  0  1 :  1
     79.6979	        	        	        	        	       0	(  4  4  4)	  0  2 :  1
     82.4292	        	        	        	        	       0	(  1  5  5)	  0  1 :  1
     82.4292	        	        	        	        	       0	(  7  1  1)	  0  1 :  1
     82.6765	        	        	        	        	       0	(  1  5  5)	  0  2 :  1
     82.6765	        	        	        	        	       0	(  7  1  1)	  0  2 :  1
     87.3317	        	        	        	        	       0	(  2  4  6)	  0  1 :  1
     87.6013	        	        	        	        	       0	(  2  4  6)	  0  2 :  1
     90.2617	        	        	        	        	       0	(  3  5  5)	  0  1 :  1
     90.2617	        	        	        	        	       0	(  3  1  7)	  0  1 :  1
     90.5455	        	        	        	        	       0	(  3  1  7)	  0  2 :  1
     90.5455	        	        	        	        	       0	(  3  5  5)	  0  2 :  1
     95.1505	        	        	        	        	       0	(  0  0  8)	  0  1 :  1
     95.4597	        	        	        	        	       0	(  0  0  8)	  0  2 :  1
     98.0998	        	        	        	        	       0	(  7  3  3)	  0  1 :  1
     98.4255	        	        	        	        	       0	(  7  3  3)	  0  2 :  1
     99.0874	        	        	        	        	       0	(  6  4  4)	  0  1 :  1
     99.4188	        	        	        	        	       0	(  6  4  4)	  0  2 :  1
    103.0683	        	        	        	        	       0	(  2  8  2)	  0  1 :  1
    103.0683	        	        	        	        	       0	(  6  0  6)	  0  1 :  1
    103.4241	        	        	        	        	       0	(  2  8  2)	  0  2 :  1
    103.4241	        	        	        	        	       0	(  6  0  6)	  0  2 :  1
    106.0956	        	        	        	        	       0	(  5  5  5)	  0  1 :  1
    106.0956	        	        	        	        	       0	(  5  7  1)	  0  1 :  1
    106.4715	        	        	        	        	       0	(  5  5  5)	  0  2 :  1
    106.4715	        	        	        	        	       0	(  5  7  1)	  0  2 :  1
    107.1147	        	        	        	        	       0	(  6  6  2)	  0  1 :  1
    107.4976	        	        	        	        	       0	(  6  6  2)	  0  2 :  1
    111.2514	        	        	        	        	       0	(  4  8  0)	  0  1 :  1
    111.6650	        	        	        	        	       0	(  4  8  0)	  0  2 :  1
    114.4309	        	        	        	        	       0	(  3  7  5)	  0  1 :  1
    114.4309	        	        	        	        	       0	(  9  1  1)	  0  1 :  1
    114.8702	        	        	        	        	       0	(  3  7  5)	  0  2 :  1
    114.8702	        	        	        	        	       0	(  9  1  1)	  0  2 :  1
    115.5082	        	        	        	        	       0	(  4  2  8)	  0  1 :  1
    115.9568	        	        	        	        	       0	(  4  2  8)	  0  2 :  1
    119.9220	        	        	        	        	       0	(  6  6  4)	  0  1 :  1
    120.4117	        	        	        	        	       0	(  6  6  4)	  0  2 :  1
    123.3641	        	        	        	        	       0	(  1  3  9)	  0  1 :  1
    123.8900	        	        	        	        	       0	(  1  3  9)	  0  2 :  1
    129.4340	        	        	        	        	       0	(  4  4  8)	  0  1 :  1
    130.0347	        	        	        	        	       0	(  4  4  8)	  0  2 :  1
    133.3403	        	        	        	        	       0	(  7  1  7)	  0  1 :  1
    133.3403	        	        	        	        	       0	(  9  3  3)	  0  1 :  1
    133.3403	        	        	        	        	       0	(  7  5  5)	  0  1 :  1
    133.9988	        	        	        	        	       0	(  7  1  7)	  0  2 :  1
    133.9988	        	        	        	        	       0	(  9  3  3)	  0  2 :  1
    133.9988	        	        	        	        	       0	(  7  5  5)	  0  2 :  1
