! XYN file created by WinPLOTR
! Initial file:   C:\!Dane\XRD_Lukasz\2021\LFCS\Grupa03\Raw\Magnetyt_raw.xrdml
! Initial format:  13
! WAVE (A):      1.54060     1.54060     1.00000
! X_data : 2 Theta (deg.)                                                                                                                                                                                                                                                  
! Y_data : Intensity (arb. units)                                                                                                                                                                                                                                          
!--------------------------------------------------------------------------------
!            X_1 Magnetyt_raw.xr
        10.01671       203.00000
        10.05013       209.00000
        10.08356       210.00000
        10.11698       202.00000
        10.15040       199.00000
        10.18382       208.00000
        10.21725       206.00000
        10.25067       211.00000
        10.28409       199.00000
        10.31751       194.00000
        10.35094       190.00000
        10.38436       199.00000
        10.41778       199.00000
        10.45120       190.00000
        10.48463       182.00000
        10.51805       167.00000
        10.55147       186.00000
        10.58489       180.00000
        10.61832       186.00000
        10.65174       177.00000
        10.68516       176.00000
        10.71858       176.00000
        10.75201       186.00000
        10.78543       189.00000
        10.81885       199.00000
        10.85227       181.00000
        10.88570       162.00000
        10.91912       184.00000
        10.95254       163.00000
        10.98596       180.00000
        11.01939       159.00000
        11.05281       173.00000
        11.08623       184.00000
        11.11965       176.00000
        11.15308       188.00000
        11.18650       140.00000
        11.21992       169.00000
        11.25335       180.00000
        11.28677       148.00000
        11.32019       156.00000
        11.35361       184.00000
        11.38704       171.00000
        11.42046       178.00000
        11.45388       162.00000
        11.48730       155.00000
        11.52073       157.00000
        11.55415       130.00000
        11.58757       142.00000
        11.62099       170.00000
        11.65442       157.00000
        11.68784       153.00000
        11.72126       169.00000
        11.75468       146.00000
        11.78811       145.00000
        11.82153       161.00000
        11.85495       153.00000
        11.88837       146.00000
        11.92180       145.00000
        11.95522       148.00000
        11.98864       156.00000
        12.02206       161.00000
        12.05549       140.00000
        12.08891       172.00000
        12.12233       154.00000
        12.15575       142.00000
        12.18918       125.00000
        12.22260       140.00000
        12.25602       133.00000
        12.28944       153.00000
        12.32287       168.00000
        12.35629       144.00000
        12.38971       138.00000
        12.42313       132.00000
        12.45656       151.00000
        12.48998       115.00000
        12.52340       117.00000
        12.55682       124.00000
        12.59025       148.00000
        12.62367       138.00000
        12.65709       137.00000
        12.69051       151.00000
        12.72394       129.00000
        12.75736       144.00000
        12.79078       148.00000
        12.82420       124.00000
        12.85763       138.00000
        12.89105       119.00000
        12.92447       118.00000
        12.95789       115.00000
        12.99132       136.00000
        13.02474       133.00000
        13.05816       136.00000
        13.09158       128.00000
        13.12501       141.00000
        13.15843       132.00000
        13.19185       143.00000
        13.22528       110.00000
        13.25870       102.00000
        13.29212       143.00000
        13.32554       123.00000
        13.35896       127.00000
        13.39239       108.00000
        13.42581       123.00000
        13.45923       138.00000
        13.49265       112.00000
        13.52608       137.00000
        13.55950       115.00000
        13.59292       108.00000
        13.62635       123.00000
        13.65977       105.00000
        13.69319       119.00000
        13.72661       117.00000
        13.76004       114.00000
        13.79346       126.00000
        13.82688       126.00000
        13.86030       114.00000
        13.89373       136.00000
        13.92715       128.00000
        13.96057       101.00000
        13.99399       136.00000
        14.02742       129.00000
        14.06084       101.00000
        14.09426       117.00000
        14.12768       125.00000
        14.16111       106.00000
        14.19453       108.00000
        14.22795       109.00000
        14.26137        90.00000
        14.29480       119.00000
        14.32822       115.00000
        14.36164       122.00000
        14.39506       121.00000
        14.42849       103.00000
        14.46191       125.00000
        14.49533       111.00000
        14.52875       121.00000
        14.56218       112.00000
        14.59560       132.00000
        14.62902        87.00000
        14.66244       113.00000
        14.69587       118.00000
        14.72929       124.00000
        14.76271       154.00000
        14.79613       102.00000
        14.82956        90.00000
        14.86298       106.00000
        14.89640       110.00000
        14.92982       121.00000
        14.96325       115.00000
        14.99667       108.00000
        15.03009       137.00000
        15.06351       108.00000
        15.09694       115.00000
        15.13036       110.00000
        15.16378       109.00000
        15.19720        98.00000
        15.23063       113.00000
        15.26405       109.00000
        15.29747        95.00000
        15.33089       110.00000
        15.36432       112.00000
        15.39774       119.00000
        15.43116       130.00000
        15.46458       100.00000
        15.49801       117.00000
        15.53143        91.00000
        15.56485        99.00000
        15.59828       103.00000
        15.63170        91.00000
        15.66512        84.00000
        15.69854       104.00000
        15.73197        82.00000
        15.76539        91.00000
        15.79881        95.00000
        15.83223       111.00000
        15.86565       113.00000
        15.89908        92.00000
        15.93250        99.00000
        15.96592        85.00000
        15.99935        81.00000
        16.03277        79.00000
        16.06619       100.00000
        16.09961        92.00000
        16.13304        91.00000
        16.16646        75.00000
        16.19988        95.00000
        16.23330       118.00000
        16.26673       111.00000
        16.30015       100.00000
        16.33357        96.00000
        16.36699        99.00000
        16.40042        92.00000
        16.43384        91.00000
        16.46726       103.00000
        16.50068        88.00000
        16.53411        76.00000
        16.56753        99.00000
        16.60095        85.00000
        16.63437        88.00000
        16.66780        78.00000
        16.70122        94.00000
        16.73464        88.00000
        16.76806        84.00000
        16.80149        78.00000
        16.83491        83.00000
        16.86833        94.00000
        16.90175        97.00000
        16.93518        76.00000
        16.96860        79.00000
        17.00202        69.00000
        17.03544       102.00000
        17.06887        82.00000
        17.10229        82.00000
        17.13571        86.00000
        17.16913       100.00000
        17.20256        85.00000
        17.23598        96.00000
        17.26940        84.00000
        17.30282        73.00000
        17.33625        87.00000
        17.36967        94.00000
        17.40309        96.00000
        17.43651       105.00000
        17.46994        85.00000
        17.50336        85.00000
        17.53678        99.00000
        17.57020       111.00000
        17.60363        91.00000
        17.63705       100.00000
        17.67047        89.00000
        17.70390        83.00000
        17.73732        88.00000
        17.77074        92.00000
        17.80416        85.00000
        17.83759        87.00000
        17.87101        87.00000
        17.90443        77.00000
        17.93785       105.00000
        17.97128        90.00000
        18.00470        84.00000
        18.03812       100.00000
        18.07154        85.00000
        18.10497        96.00000
        18.13839        94.00000
        18.17181       108.00000
        18.20523       127.00000
        18.23866       170.00000
        18.27208       208.00000
        18.30550       222.00000
        18.33892       156.00000
        18.37234       132.00000
        18.40577        92.00000
        18.43919        90.00000
        18.47261        91.00000
        18.50603        91.00000
        18.53946        77.00000
        18.57288        84.00000
        18.60630        75.00000
        18.63973        74.00000
        18.67315        82.00000
        18.70657        77.00000
        18.73999        91.00000
        18.77342        68.00000
        18.80684        77.00000
        18.84026        87.00000
        18.87368        69.00000
        18.90711        76.00000
        18.94053        69.00000
        18.97395        92.00000
        19.00737        84.00000
        19.04080        73.00000
        19.07422        84.00000
        19.10764        73.00000
        19.14106        77.00000
        19.17449        79.00000
        19.20791        78.00000
        19.24133        88.00000
        19.27475        77.00000
        19.30818        65.00000
        19.34160        70.00000
        19.37502        86.00000
        19.40844        70.00000
        19.44187        73.00000
        19.47529        65.00000
        19.50871        64.00000
        19.54214        55.00000
        19.57556        71.00000
        19.60898        73.00000
        19.64240        72.00000
        19.67583        59.00000
        19.70925        60.00000
        19.74267        79.00000
        19.77609        76.00000
        19.80951        87.00000
        19.84294        60.00000
        19.87636        65.00000
        19.90978        90.00000
        19.94320        63.00000
        19.97663        65.00000
        20.01005        81.00000
        20.04347        65.00000
        20.07689        59.00000
        20.11032        68.00000
        20.14374        60.00000
        20.17716        64.00000
        20.21058        63.00000
        20.24401        72.00000
        20.27743        69.00000
        20.31085        57.00000
        20.34427        78.00000
        20.37770        59.00000
        20.41112        62.00000
        20.44454        47.00000
        20.47797        62.00000
        20.51139        76.00000
        20.54481        51.00000
        20.57823        52.00000
        20.61166        71.00000
        20.64508        65.00000
        20.67850        62.00000
        20.71192        59.00000
        20.74535        71.00000
        20.77877        59.00000
        20.81219        54.00000
        20.84561        58.00000
        20.87904        72.00000
        20.91246        48.00000
        20.94588        60.00000
        20.97930        76.00000
        21.01273        73.00000
        21.04615        47.00000
        21.07957        66.00000
        21.11299        52.00000
        21.14642        60.00000
        21.17984        61.00000
        21.21326        62.00000
        21.24668        64.00000
        21.28011        56.00000
        21.31353        65.00000
        21.34695        47.00000
        21.38037        71.00000
        21.41380        57.00000
        21.44722        58.00000
        21.48064        56.00000
        21.51406        62.00000
        21.54749        63.00000
        21.58091        63.00000
        21.61433        68.00000
        21.64775        61.00000
        21.68118        51.00000
        21.71460        54.00000
        21.74802        60.00000
        21.78144        50.00000
        21.81487        46.00000
        21.84829        64.00000
        21.88171        74.00000
        21.91513        45.00000
        21.94856        64.00000
        21.98198        54.00000
        22.01540        56.00000
        22.04882        47.00000
        22.08225        52.00000
        22.11567        49.00000
        22.14909        51.00000
        22.18251        50.00000
        22.21594        52.00000
        22.24936        52.00000
        22.28278        31.00000
        22.31620        55.00000
        22.34963        56.00000
        22.38305        55.00000
        22.41647        61.00000
        22.44990        50.00000
        22.48332        54.00000
        22.51674        48.00000
        22.55016        59.00000
        22.58359        61.00000
        22.61701        51.00000
        22.65043        59.00000
        22.68385        44.00000
        22.71728        55.00000
        22.75070        52.00000
        22.78412        46.00000
        22.81754        49.00000
        22.85097        56.00000
        22.88439        60.00000
        22.91781        50.00000
        22.95123        64.00000
        22.98466        51.00000
        23.01808        55.00000
        23.05150        39.00000
        23.08492        42.00000
        23.11835        37.00000
        23.15177        49.00000
        23.18519        51.00000
        23.21861        52.00000
        23.25204        50.00000
        23.28546        51.00000
        23.31888        52.00000
        23.35230        56.00000
        23.38573        55.00000
        23.41915        57.00000
        23.45257        52.00000
        23.48599        43.00000
        23.51942        36.00000
        23.55284        66.00000
        23.58626        59.00000
        23.61968        56.00000
        23.65311        43.00000
        23.68653        46.00000
        23.71995        49.00000
        23.75337        37.00000
        23.78680        41.00000
        23.82022        51.00000
        23.85364        42.00000
        23.88706        50.00000
        23.92049        52.00000
        23.95391        46.00000
        23.98733        39.00000
        24.02075        54.00000
        24.05418        42.00000
        24.08760        55.00000
        24.12102        44.00000
        24.15444        50.00000
        24.18787        44.00000
        24.22129        47.00000
        24.25471        50.00000
        24.28814        41.00000
        24.32156        42.00000
        24.35498        36.00000
        24.38840        45.00000
        24.42183        52.00000
        24.45525        54.00000
        24.48867        46.00000
        24.52209        49.00000
        24.55552        48.00000
        24.58894        48.00000
        24.62236        50.00000
        24.65578        47.00000
        24.68921        57.00000
        24.72263        50.00000
        24.75605        36.00000
        24.78947        52.00000
        24.82290        42.00000
        24.85632        44.00000
        24.88974        45.00000
        24.92316        42.00000
        24.95658        38.00000
        24.99001        48.00000
        25.02343        51.00000
        25.05685        46.00000
        25.09027        44.00000
        25.12370        37.00000
        25.15712        47.00000
        25.19054        38.00000
        25.22396        47.00000
        25.25739        55.00000
        25.29081        51.00000
        25.32423        43.00000
        25.35766        59.00000
        25.39108        45.00000
        25.42450        52.00000
        25.45792        43.00000
        25.49135        39.00000
        25.52477        38.00000
        25.55819        39.00000
        25.59161        43.00000
        25.62504        48.00000
        25.65846        41.00000
        25.69188        41.00000
        25.72530        32.00000
        25.75873        55.00000
        25.79215        35.00000
        25.82557        49.00000
        25.85899        47.00000
        25.89242        57.00000
        25.92584        45.00000
        25.95926        41.00000
        25.99268        35.00000
        26.02611        49.00000
        26.05953        42.00000
        26.09295        36.00000
        26.12637        45.00000
        26.15980        41.00000
        26.19322        44.00000
        26.22664        45.00000
        26.26007        39.00000
        26.29349        34.00000
        26.32691        57.00000
        26.36033        61.00000
        26.39375        39.00000
        26.42718        44.00000
        26.46060        47.00000
        26.49402        44.00000
        26.52744        32.00000
        26.56087        34.00000
        26.59429        41.00000
        26.62771        29.00000
        26.66113        35.00000
        26.69456        35.00000
        26.72798        44.00000
        26.76140        44.00000
        26.79482        34.00000
        26.82825        45.00000
        26.86167        44.00000
        26.89509        39.00000
        26.92851        38.00000
        26.96194        39.00000
        26.99536        43.00000
        27.02878        45.00000
        27.06220        32.00000
        27.09563        59.00000
        27.12905        47.00000
        27.16247        43.00000
        27.19590        37.00000
        27.22932        35.00000
        27.26274        39.00000
        27.29616        27.00000
        27.32959        46.00000
        27.36301        43.00000
        27.39643        45.00000
        27.42985        41.00000
        27.46328        44.00000
        27.49670        39.00000
        27.53012        32.00000
        27.56354        49.00000
        27.59697        36.00000
        27.63039        36.00000
        27.66381        41.00000
        27.69723        36.00000
        27.73066        42.00000
        27.76408        32.00000
        27.79750        42.00000
        27.83092        37.00000
        27.86435        46.00000
        27.89777        35.00000
        27.93119        38.00000
        27.96461        47.00000
        27.99804        51.00000
        28.03146        38.00000
        28.06488        37.00000
        28.09830        35.00000
        28.13173        39.00000
        28.16515        34.00000
        28.19857        36.00000
        28.23199        42.00000
        28.26542        38.00000
        28.29884        42.00000
        28.33226        28.00000
        28.36568        36.00000
        28.39911        34.00000
        28.43253        37.00000
        28.46595        36.00000
        28.49937        35.00000
        28.53280        44.00000
        28.56622        37.00000
        28.59964        47.00000
        28.63306        43.00000
        28.66649        38.00000
        28.69991        48.00000
        28.73333        65.00000
        28.76675        60.00000
        28.80018        57.00000
        28.83360        45.00000
        28.86702        46.00000
        28.90044        43.00000
        28.93387        36.00000
        28.96729        38.00000
        29.00071        46.00000
        29.03414        42.00000
        29.06756        48.00000
        29.10098        44.00000
        29.13440        31.00000
        29.16783        42.00000
        29.20125        35.00000
        29.23467        37.00000
        29.26809        47.00000
        29.30152        30.00000
        29.33494        35.00000
        29.36836        39.00000
        29.40178        45.00000
        29.43521        36.00000
        29.46863        41.00000
        29.50205        39.00000
        29.53547        32.00000
        29.56890        44.00000
        29.60232        34.00000
        29.63574        38.00000
        29.66916        37.00000
        29.70259        45.00000
        29.73601        37.00000
        29.76943        42.00000
        29.80285        39.00000
        29.83628        59.00000
        29.86970        56.00000
        29.90312        68.00000
        29.93654       102.00000
        29.96996       145.00000
        30.00339       288.00000
        30.03681       451.00000
        30.07023       658.00000
        30.10366       561.00000
        30.13708       460.00000
        30.17050       360.00000
        30.20392       222.00000
        30.23735       125.00000
        30.27077        77.00000
        30.30419        63.00000
        30.33761        52.00000
        30.37104        60.00000
        30.40446        64.00000
        30.43788        50.00000
        30.47130        32.00000
        30.50473        51.00000
        30.53815        32.00000
        30.57157        48.00000
        30.60499        34.00000
        30.63842        29.00000
        30.67184        45.00000
        30.70526        46.00000
        30.73868        43.00000
        30.77211        37.00000
        30.80553        31.00000
        30.83895        35.00000
        30.87237        28.00000
        30.90580        37.00000
        30.93922        38.00000
        30.97264        33.00000
        31.00607        24.00000
        31.03949        35.00000
        31.07291        29.00000
        31.10633        42.00000
        31.13976        28.00000
        31.17318        34.00000
        31.20660        34.00000
        31.24002        36.00000
        31.27345        35.00000
        31.30687        31.00000
        31.34029        21.00000
        31.37371        33.00000
        31.40714        31.00000
        31.44056        29.00000
        31.47398        30.00000
        31.50740        35.00000
        31.54082        31.00000
        31.57425        33.00000
        31.60767        27.00000
        31.64109        32.00000
        31.67451        33.00000
        31.70794        24.00000
        31.74136        36.00000
        31.77478        31.00000
        31.80820        18.00000
        31.84163        22.00000
        31.87505        42.00000
        31.90847        48.00000
        31.94190        38.00000
        31.97532        33.00000
        32.00874        23.00000
        32.04216        31.00000
        32.07558        30.00000
        32.10901        36.00000
        32.14243        30.00000
        32.17585        21.00000
        32.20927        27.00000
        32.24270        23.00000
        32.27612        35.00000
        32.30954        31.00000
        32.34296        30.00000
        32.37639        29.00000
        32.40981        29.00000
        32.44323        25.00000
        32.47666        23.00000
        32.51008        43.00000
        32.54350        30.00000
        32.57692        24.00000
        32.61035        24.00000
        32.64377        34.00000
        32.67719        34.00000
        32.71061        25.00000
        32.74404        24.00000
        32.77746        33.00000
        32.81088        23.00000
        32.84430        28.00000
        32.87773        20.00000
        32.91115        28.00000
        32.94457        23.00000
        32.97799        30.00000
        33.01142        32.00000
        33.04484        34.00000
        33.07826        32.00000
        33.11168        57.00000
        33.14511        55.00000
        33.17853        51.00000
        33.21195        32.00000
        33.24537        41.00000
        33.27880        45.00000
        33.31222        29.00000
        33.34564        32.00000
        33.37907        38.00000
        33.41249        41.00000
        33.44591        29.00000
        33.47933        38.00000
        33.51276        37.00000
        33.54618        38.00000
        33.57960        31.00000
        33.61302        30.00000
        33.64645        31.00000
        33.67987        31.00000
        33.71329        39.00000
        33.74671        43.00000
        33.78014        45.00000
        33.81356        65.00000
        33.84698       113.00000
        33.88040       114.00000
        33.91383       112.00000
        33.94725        74.00000
        33.98067        39.00000
        34.01409        37.00000
        34.04752        45.00000
        34.08094        39.00000
        34.11436        48.00000
        34.14778        55.00000
        34.18121        46.00000
        34.21463        30.00000
        34.24805        28.00000
        34.28148        44.00000
        34.31490        37.00000
        34.34832        25.00000
        34.38174        31.00000
        34.41516        27.00000
        34.44859        28.00000
        34.48201        41.00000
        34.51543        25.00000
        34.54885        28.00000
        34.58228        22.00000
        34.61570        28.00000
        34.64912        32.00000
        34.68254        34.00000
        34.71597        24.00000
        34.74939        45.00000
        34.78281        31.00000
        34.81623        28.00000
        34.84966        38.00000
        34.88308        37.00000
        34.91650        41.00000
        34.94992        39.00000
        34.98335        32.00000
        35.01677        38.00000
        35.05019        41.00000
        35.08361        50.00000
        35.11703        74.00000
        35.15046        66.00000
        35.18388        87.00000
        35.21730       110.00000
        35.25073       152.00000
        35.28415       232.00000
        35.31757       411.00000
        35.35099       780.00000
        35.38442      1454.00000
        35.41784      1880.00000
        35.45126      1625.00000
        35.48468      1360.00000
        35.51811      1095.00000
        35.55153       736.00000
        35.58495       452.00000
        35.61837       278.00000
        35.65180       161.00000
        35.68522       116.00000
        35.71864       100.00000
        35.75206       105.00000
        35.78549        78.00000
        35.81891        75.00000
        35.85233        50.00000
        35.88575        46.00000
        35.91918        64.00000
        35.95260        43.00000
        35.98602        48.00000
        36.01944        38.00000
        36.05287        36.00000
        36.08629        27.00000
        36.11971        38.00000
        36.15313        47.00000
        36.18656        38.00000
        36.21998        24.00000
        36.25340        39.00000
        36.28683        24.00000
        36.32025        17.00000
        36.35367        32.00000
        36.38709        39.00000
        36.42052        24.00000
        36.45394        22.00000
        36.48736        25.00000
        36.52078        28.00000
        36.55421        38.00000
        36.58763        38.00000
        36.62105        25.00000
        36.65447        44.00000
        36.68790        30.00000
        36.72132        27.00000
        36.75474        20.00000
        36.78816        34.00000
        36.82159        29.00000
        36.85501        34.00000
        36.88843        30.00000
        36.92185        43.00000
        36.95528        42.00000
        36.98870        68.00000
        37.02212       159.00000
        37.05554       178.00000
        37.08897       137.00000
        37.12239       126.00000
        37.15581       121.00000
        37.18924        72.00000
        37.22266        49.00000
        37.25608        37.00000
        37.28950        28.00000
        37.32293        29.00000
        37.35635        28.00000
        37.38977        30.00000
        37.42319        24.00000
        37.45662        23.00000
        37.49004        24.00000
        37.52346        23.00000
        37.55688        24.00000
        37.59031        22.00000
        37.62373        32.00000
        37.65715        24.00000
        37.69057        23.00000
        37.72400        23.00000
        37.75742        18.00000
        37.79084        24.00000
        37.82426        27.00000
        37.85769        27.00000
        37.89111        24.00000
        37.92453        22.00000
        37.95795        22.00000
        37.99137        19.00000
        38.02480        21.00000
        38.05822        17.00000
        38.09164        31.00000
        38.12506        17.00000
        38.15849        11.00000
        38.19191        24.00000
        38.22533        20.00000
        38.25875        23.00000
        38.29218        17.00000
        38.32560        24.00000
        38.35902        17.00000
        38.39244        23.00000
        38.42587        23.00000
        38.45929        15.00000
        38.49271        16.00000
        38.52613        23.00000
        38.55956        17.00000
        38.59298        24.00000
        38.62640        29.00000
        38.65982        14.00000
        38.69325        18.00000
        38.72667        27.00000
        38.76009        34.00000
        38.79351        28.00000
        38.82694        23.00000
        38.86036        18.00000
        38.89378        28.00000
        38.92720        23.00000
        38.96063        17.00000
        38.99405        16.00000
        39.02747        15.00000
        39.06090        18.00000
        39.09432        17.00000
        39.12774        25.00000
        39.16116        17.00000
        39.19459        12.00000
        39.22801        23.00000
        39.26143        24.00000
        39.29485        14.00000
        39.32828        24.00000
        39.36170        17.00000
        39.39512        18.00000
        39.42854        20.00000
        39.46197         9.00000
        39.49539        20.00000
        39.52881        16.00000
        39.56223        24.00000
        39.59566        18.00000
        39.62908        18.00000
        39.66250        29.00000
        39.69592        18.00000
        39.72935        33.00000
        39.76277        12.00000
        39.79619        21.00000
        39.82961        16.00000
        39.86304        19.00000
        39.89646        21.00000
        39.92988        17.00000
        39.96330        18.00000
        39.99673        20.00000
        40.03015        22.00000
        40.06357        15.00000
        40.09700        25.00000
        40.13042        20.00000
        40.16384        15.00000
        40.19726        16.00000
        40.23069        11.00000
        40.26411        25.00000
        40.29753        16.00000
        40.33095        16.00000
        40.36438        27.00000
        40.39780        19.00000
        40.43122        20.00000
        40.46464        11.00000
        40.49807        19.00000
        40.53149        20.00000
        40.56491        14.00000
        40.59833        18.00000
        40.63176        10.00000
        40.66518        21.00000
        40.69860        16.00000
        40.73202        12.00000
        40.76545        20.00000
        40.79887        28.00000
        40.83229        28.00000
        40.86571        16.00000
        40.89914        16.00000
        40.93256        21.00000
        40.96598        22.00000
        40.99940        29.00000
        41.03283        23.00000
        41.06625        29.00000
        41.09967        30.00000
        41.13309        37.00000
        41.16652        48.00000
        41.19994        29.00000
        41.23336        29.00000
        41.26678        35.00000
        41.30021        20.00000
        41.33363        23.00000
        41.36705        25.00000
        41.40047        10.00000
        41.43390        23.00000
        41.46732        19.00000
        41.50074        29.00000
        41.53416        27.00000
        41.56758        30.00000
        41.60101        28.00000
        41.63443        24.00000
        41.66785        17.00000
        41.70127        22.00000
        41.73470        25.00000
        41.76812        21.00000
        41.80154        21.00000
        41.83496        19.00000
        41.86839        17.00000
        41.90181        21.00000
        41.93523        22.00000
        41.96866        17.00000
        42.00208        18.00000
        42.03550        20.00000
        42.06892        20.00000
        42.10235        23.00000
        42.13577        24.00000
        42.16919        19.00000
        42.20261        25.00000
        42.23604        17.00000
        42.26946        20.00000
        42.30288        12.00000
        42.33630        15.00000
        42.36973        19.00000
        42.40315        23.00000
        42.43657        16.00000
        42.46999        22.00000
        42.50342        22.00000
        42.53684        20.00000
        42.57026        10.00000
        42.60368        19.00000
        42.63711        19.00000
        42.67053        28.00000
        42.70395        28.00000
        42.73737        34.00000
        42.77080        41.00000
        42.80422        38.00000
        42.83764        37.00000
        42.87107        60.00000
        42.90449        74.00000
        42.93791        90.00000
        42.97133       156.00000
        43.00476       248.00000
        43.03818       365.00000
        43.07160       364.00000
        43.10502       303.00000
        43.13845       267.00000
        43.17187       252.00000
        43.20529       170.00000
        43.23871       108.00000
        43.27214        82.00000
        43.30556        64.00000
        43.33898        33.00000
        43.37240        37.00000
        43.40583        28.00000
        43.43925        24.00000
        43.47267        32.00000
        43.50609        21.00000
        43.53952        15.00000
        43.57294        20.00000
        43.60636        24.00000
        43.63978        29.00000
        43.67321        23.00000
        43.70663        25.00000
        43.74005        21.00000
        43.77348        23.00000
        43.80690        22.00000
        43.84032        21.00000
        43.87374        20.00000
        43.90717        18.00000
        43.94059        19.00000
        43.97401        24.00000
        44.00743        20.00000
        44.04086        16.00000
        44.07428        15.00000
        44.10770        21.00000
        44.14112        21.00000
        44.17455        20.00000
        44.20797        14.00000
        44.24139        19.00000
        44.27481        25.00000
        44.30824        18.00000
        44.34166        14.00000
        44.37508        23.00000
        44.40850        15.00000
        44.44193        18.00000
        44.47535        11.00000
        44.50877        30.00000
        44.54219        19.00000
        44.57561        19.00000
        44.60904        24.00000
        44.64246        19.00000
        44.67588        18.00000
        44.70930        17.00000
        44.74273         9.00000
        44.77615        16.00000
        44.80957        14.00000
        44.84299        22.00000
        44.87642        14.00000
        44.90984        11.00000
        44.94326        19.00000
        44.97668        18.00000
        45.01011        14.00000
        45.04353        12.00000
        45.07695        14.00000
        45.11037        16.00000
        45.14380        14.00000
        45.17722        20.00000
        45.21064         9.00000
        45.24406        16.00000
        45.27749         9.00000
        45.31091        17.00000
        45.34433        21.00000
        45.37775        12.00000
        45.41118        20.00000
        45.44460        19.00000
        45.47802        20.00000
        45.51144        19.00000
        45.54487        10.00000
        45.57829        15.00000
        45.61171        16.00000
        45.64513        15.00000
        45.67856        11.00000
        45.71198         9.00000
        45.74540        19.00000
        45.77883        11.00000
        45.81225        11.00000
        45.84567        15.00000
        45.87909        18.00000
        45.91252        18.00000
        45.94594        18.00000
        45.97936        10.00000
        46.01278        18.00000
        46.04621        10.00000
        46.07963        17.00000
        46.11305        16.00000
        46.14647        15.00000
        46.17990         9.00000
        46.21332        18.00000
        46.24674        21.00000
        46.28016         5.00000
        46.31359        17.00000
        46.34701        16.00000
        46.38043        19.00000
        46.41385        14.00000
        46.44728        14.00000
        46.48070        16.00000
        46.51412        20.00000
        46.54754        15.00000
        46.58097        22.00000
        46.61439        15.00000
        46.64781        20.00000
        46.68124        17.00000
        46.71466        15.00000
        46.74808        15.00000
        46.78150        15.00000
        46.81493        11.00000
        46.84835        12.00000
        46.88177         9.00000
        46.91519        16.00000
        46.94862        14.00000
        46.98204        17.00000
        47.01546        28.00000
        47.04888        27.00000
        47.08231        20.00000
        47.11573        28.00000
        47.14915        27.00000
        47.18257        15.00000
        47.21600        15.00000
        47.24942        29.00000
        47.28284        22.00000
        47.31626        16.00000
        47.34969        12.00000
        47.38311        18.00000
        47.41653        18.00000
        47.44995        15.00000
        47.48338        14.00000
        47.51680        12.00000
        47.55022         9.00000
        47.58364        19.00000
        47.61707        15.00000
        47.65049        17.00000
        47.68391        15.00000
        47.71733        19.00000
        47.75076        15.00000
        47.78418        16.00000
        47.81760        11.00000
        47.85102        14.00000
        47.88445        14.00000
        47.91787        10.00000
        47.95129        17.00000
        47.98471        12.00000
        48.01814        14.00000
        48.05156        17.00000
        48.08498        14.00000
        48.11840         9.00000
        48.15182         8.00000
        48.18525        14.00000
        48.21867        12.00000
        48.25209        15.00000
        48.28551         9.00000
        48.31894        10.00000
        48.35236        16.00000
        48.38578        15.00000
        48.41920        15.00000
        48.45263        12.00000
        48.48605        14.00000
        48.51947         8.00000
        48.55290        10.00000
        48.58632        14.00000
        48.61974        12.00000
        48.65316        16.00000
        48.68659        15.00000
        48.72001        12.00000
        48.75343        20.00000
        48.78685        18.00000
        48.82028        20.00000
        48.85370        14.00000
        48.88712        14.00000
        48.92054        17.00000
        48.95397        14.00000
        48.98739        12.00000
        49.02081        11.00000
        49.05423        15.00000
        49.08766        15.00000
        49.12108         8.00000
        49.15450        23.00000
        49.18792        12.00000
        49.22135        16.00000
        49.25477         9.00000
        49.28819        16.00000
        49.32161        21.00000
        49.35504         8.00000
        49.38846        12.00000
        49.42188        16.00000
        49.45530        17.00000
        49.48873        15.00000
        49.52215        23.00000
        49.55557        23.00000
        49.58900         8.00000
        49.62242        15.00000
        49.65584        12.00000
        49.68926        15.00000
        49.72269        16.00000
        49.75611        14.00000
        49.78953        20.00000
        49.82295         8.00000
        49.85638        18.00000
        49.88980        14.00000
        49.92322        15.00000
        49.95664        17.00000
        49.99007        16.00000
        50.02349        16.00000
        50.05691        14.00000
        50.09033        18.00000
        50.12376        18.00000
        50.15718        18.00000
        50.19060        18.00000
        50.22402         8.00000
        50.25745        23.00000
        50.29087         6.00000
        50.32429        11.00000
        50.35771        16.00000
        50.39114        21.00000
        50.42456        20.00000
        50.45798         7.00000
        50.49141        11.00000
        50.52483        14.00000
        50.55825        11.00000
        50.59167        10.00000
        50.62510        11.00000
        50.65852        15.00000
        50.69194        27.00000
        50.72536        11.00000
        50.75879        20.00000
        50.79221        17.00000
        50.82563        21.00000
        50.85905        12.00000
        50.89248         8.00000
        50.92590        17.00000
        50.95932        23.00000
        50.99274        18.00000
        51.02617        31.00000
        51.05959        23.00000
        51.09301        24.00000
        51.12643        23.00000
        51.15985        11.00000
        51.19328         6.00000
        51.22670        25.00000
        51.26012        11.00000
        51.29354        12.00000
        51.32697        17.00000
        51.36039        21.00000
        51.39381        16.00000
        51.42723        23.00000
        51.46066        17.00000
        51.49408        15.00000
        51.52750        11.00000
        51.56092         8.00000
        51.59435        17.00000
        51.62777        10.00000
        51.66119        18.00000
        51.69461         7.00000
        51.72804        12.00000
        51.76146        16.00000
        51.79488        15.00000
        51.82830        15.00000
        51.86173        17.00000
        51.89515        11.00000
        51.92857        12.00000
        51.96199        19.00000
        51.99542         8.00000
        52.02884        18.00000
        52.06226        16.00000
        52.09568        12.00000
        52.12911        10.00000
        52.16253        12.00000
        52.19595        11.00000
        52.22937        17.00000
        52.26280        17.00000
        52.29622         8.00000
        52.32964        14.00000
        52.36307        12.00000
        52.39649        16.00000
        52.42991        21.00000
        52.46333        10.00000
        52.49676        16.00000
        52.53018        17.00000
        52.56360        22.00000
        52.59702        20.00000
        52.63045        12.00000
        52.66387        18.00000
        52.69729        16.00000
        52.73071        14.00000
        52.76414        20.00000
        52.79756        10.00000
        52.83098        14.00000
        52.86440        22.00000
        52.89783        17.00000
        52.93125        18.00000
        52.96467        15.00000
        52.99809         9.00000
        53.03152        22.00000
        53.06494        25.00000
        53.09836        18.00000
        53.13178        25.00000
        53.16521        23.00000
        53.19863        18.00000
        53.23205        32.00000
        53.26547        39.00000
        53.29890        63.00000
        53.33232        78.00000
        53.36574       162.00000
        53.39917       166.00000
        53.43259       127.00000
        53.46601       109.00000
        53.49943       122.00000
        53.53286        96.00000
        53.56628        88.00000
        53.59970        66.00000
        53.63312        55.00000
        53.66655        34.00000
        53.69997        49.00000
        53.73339        28.00000
        53.76681        23.00000
        53.80024        21.00000
        53.83366        21.00000
        53.86708        21.00000
        53.90050        18.00000
        53.93393        19.00000
        53.96735        25.00000
        54.00077        20.00000
        54.03419         9.00000
        54.06762        14.00000
        54.10104        25.00000
        54.13446        22.00000
        54.16788        14.00000
        54.20131        21.00000
        54.23473        14.00000
        54.26815        29.00000
        54.30157        42.00000
        54.33500        41.00000
        54.36842        41.00000
        54.40184        35.00000
        54.43526        35.00000
        54.46869        23.00000
        54.50211        19.00000
        54.53553        18.00000
        54.56895        16.00000
        54.60238        14.00000
        54.63580        22.00000
        54.66922        28.00000
        54.70264        18.00000
        54.73606        22.00000
        54.76949        21.00000
        54.80291        16.00000
        54.83633        20.00000
        54.86975        16.00000
        54.90318        12.00000
        54.93660        14.00000
        54.97002        23.00000
        55.00344        17.00000
        55.03687        24.00000
        55.07029        11.00000
        55.10371        19.00000
        55.13713        10.00000
        55.17056         9.00000
        55.20398        14.00000
        55.23740        19.00000
        55.27083        21.00000
        55.30425        16.00000
        55.33767        11.00000
        55.37109        20.00000
        55.40452        15.00000
        55.43794        15.00000
        55.47136        10.00000
        55.50478        14.00000
        55.53821        12.00000
        55.57163        14.00000
        55.60505        21.00000
        55.63847        15.00000
        55.67190        19.00000
        55.70532        12.00000
        55.73874        14.00000
        55.77216        12.00000
        55.80559        21.00000
        55.83901        15.00000
        55.87243        23.00000
        55.90585        21.00000
        55.93928        15.00000
        55.97270        21.00000
        56.00612        17.00000
        56.03954        16.00000
        56.07297        21.00000
        56.10639        10.00000
        56.13981        24.00000
        56.17324        19.00000
        56.20666        11.00000
        56.24008        16.00000
        56.27350        15.00000
        56.30693        25.00000
        56.34035        21.00000
        56.37377        11.00000
        56.40719        21.00000
        56.44062        20.00000
        56.47404        28.00000
        56.50746        16.00000
        56.54088        19.00000
        56.57431        24.00000
        56.60773        30.00000
        56.64115        38.00000
        56.67457        45.00000
        56.70800        49.00000
        56.74142        55.00000
        56.77484        84.00000
        56.80826       136.00000
        56.84169       206.00000
        56.87511       369.00000
        56.90853       604.00000
        56.94195       608.00000
        56.97538       445.00000
        57.00880       392.00000
        57.04222       361.00000
        57.07565       372.00000
        57.10907       292.00000
        57.14249       205.00000
        57.17591       141.00000
        57.20934       105.00000
        57.24276        69.00000
        57.27618        56.00000
        57.30960        37.00000
        57.34303        30.00000
        57.37645        39.00000
        57.40987        36.00000
        57.44329        22.00000
        57.47672        30.00000
        57.51014        21.00000
        57.54356        24.00000
        57.57698        21.00000
        57.61040        16.00000
        57.64383        21.00000
        57.67725        24.00000
        57.71067        27.00000
        57.74409        18.00000
        57.77752        11.00000
        57.81094        18.00000
        57.84436        16.00000
        57.87778        21.00000
        57.91121        19.00000
        57.94463        10.00000
        57.97805        17.00000
        58.01147        15.00000
        58.04490        22.00000
        58.07832        10.00000
        58.11174        20.00000
        58.14516        18.00000
        58.17859        22.00000
        58.21201        11.00000
        58.24543        16.00000
        58.27885        14.00000
        58.31228        11.00000
        58.34570         8.00000
        58.37912        17.00000
        58.41254        12.00000
        58.44597        12.00000
        58.47939        14.00000
        58.51281        19.00000
        58.54623        19.00000
        58.57966        12.00000
        58.61308        20.00000
        58.64650         8.00000
        58.67992        24.00000
        58.71335        10.00000
        58.74677        20.00000
        58.78019         8.00000
        58.81361        19.00000
        58.84704        17.00000
        58.88046        15.00000
        58.91388        20.00000
        58.94730        23.00000
        58.98073        16.00000
        59.01415        11.00000
        59.04757        20.00000
        59.08100        14.00000
        59.11442        17.00000
        59.14784        22.00000
        59.18126        12.00000
        59.21469        15.00000
        59.24811        15.00000
        59.28153        17.00000
        59.31495        18.00000
        59.34838        17.00000
        59.38180        16.00000
        59.41522        18.00000
        59.44864        29.00000
        59.48207        22.00000
        59.51549        28.00000
        59.54891        24.00000
        59.58233        36.00000
        59.61576        32.00000
        59.64918        46.00000
        59.68260        43.00000
        59.71602        36.00000
        59.74945        23.00000
        59.78287        19.00000
        59.81629        24.00000
        59.84971        18.00000
        59.88314        20.00000
        59.91656        17.00000
        59.94998        17.00000
        59.98341        15.00000
        60.01683        11.00000
        60.05025        20.00000
        60.08367        19.00000
        60.11710        20.00000
        60.15052        19.00000
        60.18394        28.00000
        60.21736        10.00000
        60.25079         9.00000
        60.28421        20.00000
        60.31763        14.00000
        60.35105        22.00000
        60.38448        18.00000
        60.41790        14.00000
        60.45132        14.00000
        60.48474        14.00000
        60.51817         9.00000
        60.55159        21.00000
        60.58501        18.00000
        60.61843        19.00000
        60.65186        15.00000
        60.68528        25.00000
        60.71870        11.00000
        60.75212        19.00000
        60.78555        15.00000
        60.81897        20.00000
        60.85239        22.00000
        60.88581        21.00000
        60.91924        14.00000
        60.95266         9.00000
        60.98608        16.00000
        61.01950        18.00000
        61.05293        12.00000
        61.08635        11.00000
        61.11977        19.00000
        61.15319        16.00000
        61.18661        11.00000
        61.22004        19.00000
        61.25346        24.00000
        61.28688        16.00000
        61.32030        17.00000
        61.35373        17.00000
        61.38715        24.00000
        61.42057        19.00000
        61.45399        17.00000
        61.48742         9.00000
        61.52084         8.00000
        61.55426        18.00000
        61.58768        17.00000
        61.62111        15.00000
        61.65453        12.00000
        61.68795        17.00000
        61.72137        25.00000
        61.75480        19.00000
        61.78822        22.00000
        61.82164        19.00000
        61.85507        15.00000
        61.88849        20.00000
        61.92191        25.00000
        61.95533        25.00000
        61.98876        22.00000
        62.02218        22.00000
        62.05560        22.00000
        62.08902        32.00000
        62.12245        32.00000
        62.15587        35.00000
        62.18929        44.00000
        62.22271        46.00000
        62.25614        43.00000
        62.28956        49.00000
        62.32298        69.00000
        62.35640        96.00000
        62.38983       142.00000
        62.42325       225.00000
        62.45667       387.00000
        62.49009       597.00000
        62.52352       785.00000
        62.55694       629.00000
        62.59036       475.00000
        62.62378       366.00000
        62.65721       418.00000
        62.69063       422.00000
        62.72405       368.00000
        62.75747       280.00000
        62.79090       177.00000
        62.82432        99.00000
        62.85774        83.00000
        62.89117        69.00000
        62.92459        52.00000
        62.95801        41.00000
        62.99143        29.00000
        63.02486        47.00000
        63.05828        39.00000
        63.09170        31.00000
        63.12512        32.00000
        63.15855        25.00000
        63.19197        28.00000
        63.22539        23.00000
        63.25881        38.00000
        63.29224        21.00000
        63.32566        20.00000
        63.35908        23.00000
        63.39250        20.00000
        63.42593        27.00000
        63.45935        21.00000
        63.49277        22.00000
        63.52619        16.00000
        63.55962        19.00000
        63.59304        16.00000
        63.62646        25.00000
        63.65988        15.00000
        63.69331        12.00000
        63.72673        22.00000
        63.76015        14.00000
        63.79358        21.00000
        63.82700        11.00000
        63.86042        25.00000
        63.89384        16.00000
        63.92727        15.00000
        63.96069        15.00000
        63.99411        14.00000
        64.02753        14.00000
        64.06095        18.00000
        64.09438        10.00000
        64.12780        12.00000
        64.16122        18.00000
        64.19464         8.00000
        64.22807        16.00000
        64.26149        16.00000
        64.29491        17.00000
        64.32833        22.00000
        64.36176        17.00000
        64.39518        21.00000
        64.42860        17.00000
        64.46202        11.00000
        64.49545        12.00000
        64.52887        15.00000
        64.56229        16.00000
        64.59571        18.00000
        64.62914        24.00000
        64.66256        17.00000
        64.69598        18.00000
        64.72941        15.00000
        64.76283         8.00000
        64.79625        11.00000
        64.82967        14.00000
        64.86310        16.00000
        64.89651        14.00000
        64.92994         6.00000
        64.96336        17.00000
        64.99679        18.00000
        65.03020        16.00000
        65.06363        12.00000
        65.09705        17.00000
        65.13048        12.00000
        65.16389        21.00000
        65.19732        19.00000
        65.23074        18.00000
        65.26417        15.00000
        65.29758        15.00000
        65.33101        21.00000
        65.36443         6.00000
        65.39786        11.00000
        65.43127        17.00000
        65.46470        11.00000
        65.49812        12.00000
        65.53155        15.00000
        65.56496        12.00000
        65.59839        20.00000
        65.63181        12.00000
        65.66524        24.00000
        65.69866        17.00000
        65.73208        22.00000
        65.76550        31.00000
        65.79893        16.00000
        65.83235        17.00000
        65.86577        22.00000
        65.89919        22.00000
        65.93262        30.00000
        65.96604        20.00000
        65.99946        12.00000
        66.03288        17.00000
        66.06631        14.00000
        66.09973        14.00000
        66.13315         8.00000
        66.16657        14.00000
        66.20000        21.00000
        66.23342        14.00000
        66.26684         9.00000
        66.30026        21.00000
        66.33369        19.00000
        66.36711        11.00000
        66.40053        15.00000
        66.43395        12.00000
        66.46738         7.00000
        66.50080        10.00000
        66.53422        11.00000
        66.56764        14.00000
        66.60107        15.00000
        66.63449        11.00000
        66.66792        12.00000
        66.70133        11.00000
        66.73476        15.00000
        66.76818         5.00000
        66.80161        14.00000
        66.83502         6.00000
        66.86845        19.00000
        66.90187        16.00000
        66.93530         7.00000
        66.96871        12.00000
        67.00214        12.00000
        67.03556        15.00000
        67.06898        17.00000
        67.10240        16.00000
        67.13583        14.00000
        67.16925        15.00000
        67.20267        17.00000
        67.23609        10.00000
        67.26952         8.00000
        67.30294        12.00000
        67.33636        11.00000
        67.36978        17.00000
        67.40321         6.00000
        67.43663        14.00000
        67.47005        17.00000
        67.50347        18.00000
        67.53690        23.00000
        67.57032        17.00000
        67.60374        10.00000
        67.63717        12.00000
        67.67059        11.00000
        67.70401         5.00000
        67.73743        11.00000
        67.77086        16.00000
        67.80428        17.00000
        67.83770        16.00000
        67.87112        18.00000
        67.90455        12.00000
        67.93797        15.00000
        67.97139        11.00000
        68.00481         7.00000
        68.03824        12.00000
        68.07166        15.00000
        68.10508        12.00000
        68.13850        16.00000
        68.17193        17.00000
        68.20535        12.00000
        68.23877        16.00000
        68.27219        17.00000
        68.30562         8.00000
        68.33904        22.00000
        68.37246        11.00000
        68.40588        10.00000
        68.43931         7.00000
        68.47272        15.00000
        68.50615         9.00000
        68.53957        19.00000
        68.57300         8.00000
        68.60642        17.00000
        68.63984        14.00000
        68.67326        10.00000
        68.70669        10.00000
        68.74011        16.00000
        68.77353        12.00000
        68.80695        11.00000
        68.84038        15.00000
        68.87380        18.00000
        68.90722         9.00000
        68.94064        15.00000
        68.97407         9.00000
        69.00749        15.00000
        69.04091         6.00000
        69.07433        19.00000
        69.10776        15.00000
        69.14118        11.00000
        69.17460        15.00000
        69.20802        11.00000
        69.24145        12.00000
        69.27487         7.00000
        69.30829         6.00000
        69.34171        14.00000
        69.37514        12.00000
        69.40856        20.00000
        69.44199         7.00000
        69.47540         7.00000
        69.50883        17.00000
        69.54225        12.00000
        69.57568        12.00000
        69.60909         9.00000
        69.64252        19.00000
        69.67594        15.00000
        69.70937        10.00000
        69.74278        15.00000
        69.77621        11.00000
        69.80963        14.00000
        69.84306        15.00000
        69.87647        19.00000
        69.90990        19.00000
        69.94332        15.00000
        69.97675        17.00000
        70.01016        20.00000
        70.04359        12.00000
        70.07701        17.00000
        70.11044        15.00000
        70.14385        15.00000
        70.17728         9.00000
        70.21070        17.00000
        70.24413        17.00000
        70.27754        17.00000
        70.31097        15.00000
        70.34439        12.00000
        70.37782        20.00000
        70.41124        23.00000
        70.44466        23.00000
        70.47808        15.00000
        70.51151        10.00000
        70.54493        19.00000
        70.57835        19.00000
        70.61177         8.00000
        70.64520        14.00000
        70.67862        15.00000
        70.71204        14.00000
        70.74546        25.00000
        70.77888        22.00000
        70.81231        31.00000
        70.84573        52.00000
        70.87915        65.00000
        70.91257        72.00000
        70.94600        82.00000
        70.97942        64.00000
        71.01284        56.00000
        71.04626        45.00000
        71.07969        36.00000
        71.11311        54.00000
        71.14653        46.00000
        71.17995        33.00000
        71.21338        32.00000
        71.24680        18.00000
        71.28022        22.00000
        71.31364        24.00000
        71.34707        12.00000
        71.38049        18.00000
        71.41391        20.00000
        71.44733        12.00000
        71.48076        24.00000
        71.51418        15.00000
        71.54760        11.00000
        71.58102        16.00000
        71.61445        10.00000
        71.64787        19.00000
        71.68129        17.00000
        71.71471        15.00000
        71.74814        10.00000
        71.78156        16.00000
        71.81498         6.00000
        71.84840        14.00000
        71.88183        17.00000
        71.91525         6.00000
        71.94867        20.00000
        71.98209        17.00000
        72.01552        23.00000
        72.04894        10.00000
        72.08236        12.00000
        72.11578        15.00000
        72.14921        11.00000
        72.18263        10.00000
        72.21605        14.00000
        72.24947        15.00000
        72.28290        12.00000
        72.31632        10.00000
        72.34975        14.00000
        72.38316        10.00000
        72.41659        14.00000
        72.45001        19.00000
        72.48344         5.00000
        72.51685        15.00000
        72.55028        19.00000
        72.58370         5.00000
        72.61713        11.00000
        72.65054        12.00000
        72.68397        12.00000
        72.71739         9.00000
        72.75082        16.00000
        72.78423        11.00000
        72.81766        18.00000
        72.85108        11.00000
        72.88451         9.00000
        72.91792         9.00000
        72.95135        17.00000
        72.98477        10.00000
        73.01820         6.00000
        73.05161        16.00000
        73.08504         9.00000
        73.11846        12.00000
        73.15189        10.00000
        73.18530         7.00000
        73.21873        16.00000
        73.25215        15.00000
        73.28558        12.00000
        73.31900        15.00000
        73.35242        12.00000
        73.38584        17.00000
        73.41927         8.00000
        73.45269        15.00000
        73.48611        18.00000
        73.51953        20.00000
        73.55296        18.00000
        73.58638        14.00000
        73.61980        19.00000
        73.65322        20.00000
        73.68665        25.00000
        73.72007        22.00000
        73.75349        21.00000
        73.78691        18.00000
        73.82034        28.00000
        73.85376        46.00000
        73.88718        91.00000
        73.92060       109.00000
        73.95403       135.00000
        73.98745       111.00000
        74.02087        96.00000
        74.05429        61.00000
        74.08772        61.00000
        74.12114        63.00000
        74.15456        88.00000
        74.18798        76.00000
        74.22141        74.00000
        74.25483        47.00000
        74.28825        36.00000
        74.32167        33.00000
        74.35509        21.00000
        74.38852        16.00000
        74.42194        18.00000
        74.45536        24.00000
        74.48878        18.00000
        74.52221        16.00000
        74.55563        17.00000
        74.58905        11.00000
        74.62247        18.00000
        74.65590        11.00000
        74.68932        21.00000
        74.72274        17.00000
        74.75616        17.00000
        74.78959        16.00000
        74.82301        23.00000
        74.85643        34.00000
        74.88985        50.00000
        74.92328        65.00000
        74.95670        64.00000
        74.99012        70.00000
        75.02354        47.00000
        75.05697        36.00000
        75.09039        32.00000
        75.12381        46.00000
        75.15723        48.00000
        75.19066        49.00000
        75.22408        31.00000
        75.25751        24.00000
        75.29092        16.00000
        75.32435        22.00000
        75.35777        14.00000
        75.39120        15.00000
        75.42461        18.00000
        75.45804        22.00000
        75.49146        19.00000
        75.52489         7.00000
        75.55830        15.00000
        75.59173        15.00000
        75.62515        10.00000
        75.65858        14.00000
        75.69199        24.00000
        75.72542        15.00000
        75.75884         9.00000
        75.79227        14.00000
        75.82568        12.00000
        75.85911         8.00000
        75.89253         8.00000
        75.92596        16.00000
        75.95937        16.00000
        75.99280         6.00000
        76.02622        17.00000
        76.05965        17.00000
        76.09307        14.00000
        76.12649        10.00000
        76.15991        11.00000
        76.19334        10.00000
        76.22676         9.00000
        76.26018        16.00000
        76.29360        10.00000
        76.32703        17.00000
        76.36045         8.00000
        76.39387        17.00000
        76.42729        15.00000
        76.46072        14.00000
        76.49414         4.00000
        76.52756         9.00000
        76.56098         9.00000
        76.59441         8.00000
        76.62783        11.00000
        76.66125        12.00000
        76.69467        12.00000
        76.72810        16.00000
        76.76152        11.00000
        76.79494        17.00000
        76.82836        12.00000
        76.86179        17.00000
        76.89521        10.00000
        76.92863         8.00000
        76.96205        14.00000
        76.99548        14.00000
        77.02890         8.00000
        77.06232        11.00000
        77.09574        11.00000
        77.12917         9.00000
        77.16259        12.00000
        77.19601        14.00000
        77.22943         9.00000
        77.26286        11.00000
        77.29628        11.00000
        77.32970        18.00000
        77.36312         5.00000
        77.39655        14.00000
        77.42997        20.00000
        77.46339        10.00000
        77.49681        12.00000
        77.53024        12.00000
        77.56366        10.00000
        77.59708         6.00000
        77.63050        10.00000
        77.66393        19.00000
        77.69735        12.00000
        77.73077        11.00000
        77.76419         9.00000
        77.79762         7.00000
        77.83104        19.00000
        77.86446        19.00000
        77.89788        15.00000
        77.93130        16.00000
        77.96473        10.00000
        77.99815        10.00000
        78.03158        16.00000
        78.06499        12.00000
        78.09842        20.00000
        78.13184         7.00000
        78.16527         8.00000
        78.19868        11.00000
        78.23211        14.00000
        78.26553        20.00000
        78.29896        10.00000
        78.33237        10.00000
        78.36580        12.00000
        78.39922         9.00000
        78.43265        23.00000
        78.46606        16.00000
        78.49949         8.00000
        78.53291        14.00000
        78.56634        12.00000
        78.59975        19.00000
        78.63318        15.00000
        78.66660        14.00000
        78.70003        14.00000
        78.73344        27.00000
        78.76687        22.00000
        78.80029        18.00000
        78.83372        43.00000
        78.86713        55.00000
        78.90056       115.00000
        78.93398       115.00000
        78.96741        75.00000
        79.00083        51.00000
        79.03425        48.00000
        79.06767        31.00000
        79.10110        45.00000
        79.13452        65.00000
        79.16794        68.00000
        79.20136        41.00000
        79.23479        27.00000
        79.26821        39.00000
        79.30163        18.00000
        79.33505        14.00000
        79.36848        14.00000
        79.40190        17.00000
        79.43532         8.00000
        79.46874         9.00000
        79.50217        16.00000
        79.53559        16.00000
        79.56901        15.00000
        79.60243        20.00000
        79.63586        10.00000
        79.66928         4.00000
        79.70270        11.00000
        79.73612        14.00000
        79.76955        16.00000
        79.80297         8.00000
        79.83639        11.00000
        79.86981         3.00000
        79.90324         6.00000
        79.93666        10.00000
        79.97009        12.00000
        80.00350        14.00000
        80.03693         9.00000
        80.07035         9.00000
        80.10378         8.00000
        80.13719        20.00000
        80.17062         8.00000
        80.20404        20.00000
        80.23746        14.00000
        80.27088        10.00000
        80.30431        15.00000
        80.33773         9.00000
        80.37115         9.00000
        80.40457        12.00000
        80.43800        10.00000
        80.47142        18.00000
        80.50484        15.00000
        80.53826        11.00000
        80.57169        10.00000
        80.60511        12.00000
        80.63853        12.00000
        80.67195         5.00000
        80.70538        17.00000
        80.73880        11.00000
        80.77222        17.00000
        80.80564        14.00000
        80.83907        10.00000
        80.87249         7.00000
        80.90591        14.00000
        80.93934        14.00000
        80.97276        11.00000
        81.00618         7.00000
        81.03960        15.00000
        81.07303        14.00000
        81.10645         8.00000
        81.13987        15.00000
        81.17329        16.00000
        81.20672         8.00000
        81.24014         7.00000
        81.27356         8.00000
        81.30698         7.00000
        81.34041         6.00000
        81.37383         6.00000
        81.40725        10.00000
        81.44067        11.00000
        81.47410         9.00000
        81.50751         9.00000
        81.54094         8.00000
        81.57436        11.00000
        81.60779         9.00000
        81.64120         9.00000
        81.67463         9.00000
        81.70805        24.00000
        81.74148        17.00000
        81.77489        21.00000
        81.80832        28.00000
        81.84174        21.00000
        81.87517        22.00000
        81.90859        16.00000
        81.94201         6.00000
        81.97543        11.00000
        82.00886        14.00000
        82.04228        24.00000
        82.07570        18.00000
        82.10912        17.00000
        82.14255        18.00000
        82.17597        20.00000
        82.20939        14.00000
        82.24281        17.00000
        82.27624        14.00000
        82.30966        14.00000
        82.34308        15.00000
        82.37650        12.00000
        82.40993         7.00000
        82.44335         7.00000
        82.47677        10.00000
        82.51019        15.00000
        82.54362        16.00000
        82.57704         7.00000
        82.61046         8.00000
        82.64388        20.00000
        82.67731        14.00000
        82.71073        11.00000
        82.74416         8.00000
        82.77757         7.00000
        82.81100        14.00000
        82.84442        12.00000
        82.87785        11.00000
        82.91126        16.00000
        82.94469         8.00000
        82.97811        10.00000
        83.01154        11.00000
        83.04495        11.00000
        83.07838         8.00000
        83.11180        14.00000
        83.14523        17.00000
        83.17864        16.00000
        83.21207        16.00000
        83.24549        10.00000
        83.27892        11.00000
        83.31233        12.00000
        83.34576        16.00000
        83.37918        10.00000
        83.41261        12.00000
        83.44602        12.00000
        83.47945         7.00000
        83.51287         8.00000
        83.54630        17.00000
        83.57971        16.00000
        83.61314        10.00000
        83.64656        12.00000
        83.67999         9.00000
        83.71341         8.00000
        83.74683        16.00000
        83.78025         6.00000
        83.81367         8.00000
        83.84710        16.00000
        83.88052        19.00000
        83.91394         9.00000
        83.94736        10.00000
        83.98079         7.00000
        84.01421        12.00000
        84.04763         9.00000
        84.08105        12.00000
        84.11448         6.00000
        84.14790        17.00000
        84.18132        11.00000
        84.21474        16.00000
        84.24817         9.00000
        84.28159         7.00000
        84.31501        15.00000
        84.34843        15.00000
        84.38186        11.00000
        84.41528        10.00000
        84.44870        11.00000
        84.48212         4.00000
        84.51555        15.00000
        84.54897        11.00000
        84.58239        10.00000
        84.61581        11.00000
        84.64924         9.00000
        84.68266        16.00000
        84.71608        16.00000
        84.74950        10.00000
        84.78293        16.00000
        84.81635        16.00000
        84.84977        20.00000
        84.88319        20.00000
        84.91662        17.00000
        84.95004        17.00000
        84.98346        20.00000
        85.01688        10.00000
        85.05031        11.00000
        85.08373        10.00000
        85.11715        15.00000
        85.15057        11.00000
        85.18400        11.00000
        85.21742        11.00000
        85.25084        16.00000
        85.28426        11.00000
        85.31769        18.00000
        85.35111        12.00000
        85.38453        11.00000
        85.41795        10.00000
        85.45138        10.00000
        85.48480         8.00000
        85.51822        18.00000
        85.55164        11.00000
        85.58507        18.00000
        85.61849        15.00000
        85.65192        15.00000
        85.68533        14.00000
        85.71876        15.00000
        85.75218        16.00000
        85.78561         8.00000
        85.81902        16.00000
        85.85245        14.00000
        85.88587        12.00000
        85.91930        17.00000
        85.95271        10.00000
        85.98614        16.00000
        86.01956        18.00000
        86.05299        15.00000
        86.08640        18.00000
        86.11983        11.00000
        86.15325        16.00000
        86.18668        11.00000
        86.22009        10.00000
        86.25352        16.00000
        86.28694         9.00000
        86.32037         9.00000
        86.35378        12.00000
        86.38721        19.00000
        86.42063        14.00000
        86.45406        17.00000
        86.48747        21.00000
        86.52090        21.00000
        86.55432        19.00000
        86.58775        41.00000
        86.62117        42.00000
        86.65459        74.00000
        86.68801        82.00000
        86.72144        66.00000
        86.75486        51.00000
        86.78828        42.00000
        86.82170        33.00000
        86.85513        42.00000
        86.88855        28.00000
        86.92197        31.00000
        86.95539        47.00000
        86.98882        45.00000
        87.02224        35.00000
        87.05566        32.00000
        87.08908        29.00000
        87.12251        22.00000
        87.15593        19.00000
        87.18935         9.00000
        87.22277        16.00000
        87.25620        17.00000
        87.28962        18.00000
        87.32304        16.00000
        87.35646         7.00000
        87.38988        12.00000
        87.42331        10.00000
        87.45673         9.00000
        87.49015        14.00000
        87.52357        10.00000
        87.55700        16.00000
        87.59042        19.00000
        87.62384        18.00000
        87.65726         8.00000
        87.69069         9.00000
        87.72411        29.00000
        87.75753        18.00000
        87.79095        12.00000
        87.82438        10.00000
        87.85780        10.00000
        87.89122        17.00000
        87.92464        15.00000
        87.95807        17.00000
        87.99149        16.00000
        88.02491         7.00000
        88.05833        19.00000
        88.09176        18.00000
        88.12518        15.00000
        88.15860        18.00000
        88.19202        15.00000
        88.22545         7.00000
        88.25887        15.00000
        88.29229        10.00000
        88.32571        11.00000
        88.35914        12.00000
        88.39256        10.00000
        88.42598        11.00000
        88.45940         8.00000
        88.49283        14.00000
        88.52625        12.00000
        88.55968         9.00000
        88.59309        16.00000
        88.62652        14.00000
        88.65994         9.00000
        88.69337        12.00000
        88.72678        20.00000
        88.76021         9.00000
        88.79363        16.00000
        88.82706        10.00000
        88.86047        16.00000
        88.89390        18.00000
        88.92732        16.00000
        88.96075        14.00000
        88.99416        16.00000
        89.02759         9.00000
        89.06101        19.00000
        89.09444        18.00000
        89.12785        14.00000
        89.16128        17.00000
        89.19470        17.00000
        89.22813        17.00000
        89.26154        20.00000
        89.29497        34.00000
        89.32839        30.00000
        89.36182        35.00000
        89.39523        36.00000
        89.42866        39.00000
        89.46208        69.00000
        89.49551       105.00000
        89.52893       164.00000
        89.56235       212.00000
        89.59577       265.00000
        89.62920       199.00000
        89.66262       146.00000
        89.69604        85.00000
        89.72946        81.00000
        89.76289        81.00000
        89.79631        81.00000
        89.82973       117.00000
        89.86315       144.00000
        89.89658       117.00000
        89.93000        92.00000
        89.96342        52.00000
        89.99684        54.00000
        90.03027        51.00000
        90.06369        35.00000
        90.09711        29.00000
        90.13053        29.00000
        90.16396        25.00000
        90.19738        28.00000
        90.23080        32.00000
        90.26422        19.00000
        90.29765        11.00000
        90.33107        19.00000
        90.36449        17.00000
        90.39791        22.00000
        90.43134        18.00000
        90.46476        17.00000
        90.49818         9.00000
        90.53160        16.00000
        90.56503        12.00000
        90.59845        19.00000
        90.63187        20.00000
        90.66529        17.00000
        90.69872        14.00000
        90.73214        16.00000
        90.76556        12.00000
        90.79898        20.00000
        90.83241        11.00000
        90.86583        14.00000
        90.89925        18.00000
        90.93267        15.00000
        90.96609        11.00000
        90.99952        17.00000
        91.03294         6.00000
        91.06636        11.00000
        91.09978        18.00000
        91.13321        15.00000
        91.16663        16.00000
        91.20005         7.00000
        91.23347        15.00000
        91.26690         8.00000
        91.30032        14.00000
        91.33375        18.00000
        91.36716        12.00000
        91.40059        10.00000
        91.43401        11.00000
        91.46744         7.00000
        91.50085        15.00000
        91.53428        15.00000
        91.56770        12.00000
        91.60113        11.00000
        91.63454        15.00000
        91.66797         9.00000
        91.70139        18.00000
        91.73482         9.00000
        91.76823         6.00000
        91.80166        16.00000
        91.83508        11.00000
        91.86851         7.00000
        91.90192        21.00000
        91.93535         6.00000
        91.96877        15.00000
        92.00220        24.00000
        92.03561         9.00000
        92.06904        11.00000
        92.10246         5.00000
        92.13589         7.00000
        92.16930         8.00000
        92.20273        14.00000
        92.23615        14.00000
        92.26958        16.00000
        92.30300        10.00000
        92.33642         8.00000
        92.36984         6.00000
        92.40327        12.00000
        92.43669        11.00000
        92.47011        12.00000
        92.50353        12.00000
        92.53696        12.00000
        92.57038        11.00000
        92.60380        11.00000
        92.63722         9.00000
        92.67065        11.00000
        92.70407        15.00000
        92.73749        10.00000
        92.77091        14.00000
        92.80434        14.00000
        92.83776        11.00000
        92.87118        12.00000
        92.90460         9.00000
        92.93803         6.00000
        92.97145        18.00000
        93.00487         9.00000
        93.03829        14.00000
        93.07172         6.00000
        93.10514        10.00000
        93.13856        14.00000
        93.17198        15.00000
        93.20541        14.00000
        93.23883        29.00000
        93.27225        11.00000
        93.30567         8.00000
        93.33910        12.00000
        93.37252        11.00000
        93.40594        14.00000
        93.43936        18.00000
        93.47279        18.00000
        93.50621        16.00000
        93.53963        15.00000
        93.57305        14.00000
        93.60648        12.00000
        93.63990         8.00000
        93.67332        18.00000
        93.70674        14.00000
        93.74017        11.00000
        93.77359        15.00000
        93.80701        18.00000
        93.84043        17.00000
        93.87386        14.00000
        93.90728        10.00000
        93.94070        12.00000
        93.97412        12.00000
        94.00755        16.00000
        94.04097        18.00000
        94.07439        11.00000
        94.10781        23.00000
        94.14124        21.00000
        94.17466        25.00000
        94.20808        23.00000
        94.24151        22.00000
        94.27493        31.00000
        94.30835        34.00000
        94.34177        50.00000
        94.37520        42.00000
        94.40862        52.00000
        94.44204        42.00000
        94.47546        70.00000
        94.50889        47.00000
        94.54230        54.00000
        94.57573        33.00000
        94.60915        31.00000
        94.64258        45.00000
        94.67599        41.00000
        94.70942        41.00000
        94.74284        42.00000
        94.77627        27.00000
        94.80968        29.00000
        94.84311        31.00000
        94.87653        16.00000
        94.90996        20.00000
        94.94337        17.00000
        94.97680        14.00000
        95.01022        21.00000
        95.04365        17.00000
        95.07706        22.00000
        95.11049         9.00000
        95.14391        19.00000
        95.17734         7.00000
        95.21076        15.00000
        95.24418        10.00000
        95.27760        14.00000
        95.31103        18.00000
        95.34445        12.00000
        95.37787        10.00000
        95.41129        18.00000
        95.44472         9.00000
        95.47814        16.00000
        95.51156         8.00000
        95.54498        17.00000
        95.57841        15.00000
        95.61183        12.00000
        95.64525        12.00000
        95.67867        22.00000
        95.71210        11.00000
        95.74552        16.00000
        95.77894         6.00000
        95.81236        16.00000
        95.84579         9.00000
        95.87921         8.00000
        95.91263        16.00000
        95.94605        10.00000
        95.97948        12.00000
        96.01290        14.00000
        96.04632        11.00000
        96.07974        17.00000
        96.11317         8.00000
        96.14659        11.00000
        96.18002        18.00000
        96.21343        19.00000
        96.24686         5.00000
        96.28028         6.00000
        96.31371        10.00000
        96.34712        15.00000
        96.38055        12.00000
        96.41397        15.00000
        96.44740        12.00000
        96.48081        12.00000
        96.51424        16.00000
        96.54766        12.00000
        96.58109        10.00000
        96.61450         8.00000
        96.64793         6.00000
        96.68135        15.00000
        96.71478        18.00000
        96.74819        11.00000
        96.78162        11.00000
        96.81504        11.00000
        96.84846         8.00000
        96.88188        16.00000
        96.91531        17.00000
        96.94873        12.00000
        96.98215         7.00000
        97.01558         9.00000
        97.04900        18.00000
        97.08242        12.00000
        97.11584         9.00000
        97.14927         9.00000
        97.18269        12.00000
        97.21611         5.00000
        97.24953        18.00000
        97.28296         8.00000
        97.31638         6.00000
        97.34980        10.00000
        97.38322        12.00000
        97.41665        14.00000
        97.45007        15.00000
        97.48349        16.00000
        97.51691        10.00000
        97.55034        16.00000
        97.58376        20.00000
        97.61718        11.00000
        97.65060         8.00000
        97.68403        15.00000
        97.71745        12.00000
        97.75087         8.00000
        97.78429        22.00000
        97.81772         9.00000
        97.85114        16.00000
        97.88456        10.00000
        97.91798         5.00000
        97.95141        11.00000
        97.98483         6.00000
        98.01825        12.00000
        98.05167         7.00000
        98.08510         8.00000
        98.11852         9.00000
        98.15194         9.00000
        98.18536        11.00000
        98.21879        19.00000
        98.25221         3.00000
        98.28563        10.00000
        98.31905        11.00000
        98.35248        10.00000
        98.38590         5.00000
        98.41932        10.00000
        98.45274        14.00000
        98.48617        14.00000
        98.51959        11.00000
        98.55301        10.00000
        98.58643        14.00000
        98.61986        20.00000
        98.65328        16.00000
        98.68670        17.00000
        98.72012         8.00000
        98.75355        14.00000
        98.78697         7.00000
        98.82039        12.00000
        98.85381        15.00000
        98.88724        10.00000
        98.92066        22.00000
        98.95409         7.00000
        98.98750        15.00000
        99.02093        18.00000
        99.05435        12.00000
        99.08778        16.00000
        99.12119        30.00000
        99.15462        19.00000
        99.18804        12.00000
        99.22147        16.00000
        99.25488         8.00000
        99.28831        11.00000
        99.32173        15.00000
        99.35516        11.00000
        99.38857        17.00000
        99.42200         8.00000
        99.45542        11.00000
        99.48885        14.00000
        99.52226        17.00000
        99.55569        10.00000
        99.58911        11.00000
        99.62254        14.00000
        99.65595        21.00000
        99.68938        12.00000
        99.72280        17.00000
        99.75623         7.00000
        99.78964        10.00000
        99.82307         8.00000
        99.85649        12.00000
        99.88992        12.00000
        99.92334        18.00000
        99.95676        15.00000
        99.99018        15.00000
