 Ni   Chi2:  1.6172  CELL:    3.52482   3.52482   3.52482   90.0000   90.0000   90.0000   SPGR: 225                    TEMP:      0.00
  1   2992     1.54060     1.54439     0.00000    -0.01307     0.00000    0
    13     0     1
       0.00000      35.00000
 2Theta	Yobs	Ycal	Yobs-Ycal	Backg	Posr	(hkl)	K
     20.0165	  737.00	  444.99	-1422.75	  380.03
     20.0499	  752.00	  444.99	-1422.75	  380.03
     20.0834	  745.00	  444.99	-1422.75	  380.03
     20.1168	  791.00	  444.99	-1422.75	  380.03
     20.1502	  774.00	  444.99	-1422.75	  380.03
     20.1836	  756.00	  444.99	-1422.75	  380.03
     20.2170	  750.00	  444.99	-1422.75	  380.03
     20.2505	  769.00	  444.99	-1422.75	  380.03
     20.2839	  706.00	  444.99	-1422.75	  380.03
     20.3173	  740.00	  444.99	-1422.75	  380.03
     20.3507	  812.00	  444.99	-1422.75	  380.03
     20.3842	  727.00	  444.99	-1422.75	  380.03
     20.4176	  738.00	  444.99	-1422.75	  380.03
     20.4510	  749.00	  444.99	-1422.75	  380.03
     20.4844	  799.00	  444.99	-1422.75	  380.03
     20.5179	  684.00	  444.99	-1422.75	  380.03
     20.5513	  738.00	  444.99	-1422.75	  380.03
     20.5847	  737.00	  444.99	-1422.75	  380.03
     20.6181	  775.00	  444.99	-1422.75	  380.03
     20.6515	  715.00	  444.99	-1422.75	  380.03
     20.6850	  807.00	  444.99	-1422.75	  380.03
     20.7184	  736.00	  444.99	-1422.75	  380.03
     20.7518	  713.00	  444.99	-1422.75	  380.03
     20.7852	  740.00	  444.99	-1422.75	  380.03
     20.8187	  739.00	  444.99	-1422.75	  380.03
     20.8521	  706.00	  444.99	-1422.75	  380.03
     20.8855	  719.00	  444.99	-1422.75	  380.03
     20.9189	  740.00	  444.99	-1422.75	  380.03
     20.9523	  734.00	  444.99	-1422.75	  380.03
     20.9858	  726.00	  444.99	-1422.75	  380.03
     21.0192	  686.00	  444.99	-1422.75	  380.03
     21.0526	  794.00	  444.99	-1422.75	  380.03
     21.0860	  720.00	  444.99	-1422.75	  380.03
     21.1195	  716.00	  444.99	-1422.75	  380.03
     21.1529	  719.00	  444.99	-1422.75	  380.03
     21.1863	  729.00	  444.99	-1422.75	  380.03
     21.2197	  698.00	  444.99	-1422.75	  380.03
     21.2531	  697.00	  444.99	-1422.75	  380.03
     21.2866	  722.00	  444.99	-1422.75	  380.03
     21.3200	  712.00	  444.99	-1422.75	  380.03
     21.3534	  729.00	  444.99	-1422.75	  380.03
     21.3868	  685.00	  444.99	-1422.75	  380.03
     21.4203	  747.00	  444.99	-1422.75	  380.03
     21.4537	  667.00	  444.99	-1422.75	  380.03
     21.4871	  687.00	  444.99	-1422.75	  380.03
     21.5205	  712.00	  444.99	-1422.75	  380.03
     21.5539	  706.00	  444.99	-1422.75	  380.03
     21.5874	  666.00	  444.99	-1422.75	  380.03
     21.6208	  677.00	  444.99	-1422.75	  380.03
     21.6542	  701.00	  444.99	-1422.75	  380.03
     21.6876	  635.00	  444.99	-1422.75	  380.03
     21.7211	  727.00	  444.99	-1422.75	  380.03
     21.7545	  691.00	  444.99	-1422.75	  380.03
     21.7879	  719.00	  444.99	-1422.75	  380.03
     21.8213	  701.00	  444.99	-1422.75	  380.03
     21.8548	  694.00	  444.99	-1422.75	  380.03
     21.8882	  665.00	  444.99	-1422.75	  380.03
     21.9216	  711.00	  444.99	-1422.75	  380.03
     21.9550	  646.00	  444.99	-1422.75	  380.03
     21.9884	  614.00	  444.99	-1422.75	  380.03
     22.0219	  686.00	  444.99	-1422.75	  380.03
     22.0553	  661.00	  444.99	-1422.75	  380.03
     22.0887	  662.00	  444.99	-1422.75	  380.03
     22.1221	  660.00	  444.99	-1422.75	  380.03
     22.1556	  644.00	  444.99	-1422.75	  380.03
     22.1890	  610.00	  444.99	-1422.75	  380.03
     22.2224	  637.00	  444.99	-1422.75	  380.03
     22.2558	  622.00	  444.99	-1422.75	  380.03
     22.2892	  650.00	  444.99	-1422.75	  380.03
     22.3227	  635.00	  444.99	-1422.75	  380.03
     22.3561	  602.00	  444.99	-1422.75	  380.03
     22.3895	  635.00	  444.99	-1422.75	  380.03
     22.4229	  663.00	  444.99	-1422.75	  380.03
     22.4564	  647.00	  444.99	-1422.75	  380.03
     22.4898	  635.00	  444.99	-1422.75	  380.03
     22.5232	  701.00	  444.99	-1422.75	  380.03
     22.5566	  609.00	  444.99	-1422.75	  380.03
     22.5900	  614.00	  444.99	-1422.75	  380.03
     22.6235	  604.00	  444.99	-1422.75	  380.03
     22.6569	  634.00	  444.99	-1422.75	  380.03
     22.6903	  589.00	  444.99	-1422.75	  380.03
     22.7237	  590.00	  444.99	-1422.75	  380.03
     22.7572	  622.00	  444.99	-1422.75	  380.03
     22.7906	  606.00	  444.99	-1422.75	  380.03
     22.8240	  578.00	  444.99	-1422.75	  380.03
     22.8574	  598.00	  444.99	-1422.75	  380.03
     22.8909	  661.00	  444.99	-1422.75	  380.03
     22.9243	  567.00	  444.99	-1422.75	  380.03
     22.9577	  585.00	  444.99	-1422.75	  380.03
     22.9911	  614.00	  444.99	-1422.75	  380.03
     23.0245	  615.00	  444.99	-1422.75	  380.03
     23.0580	  594.00	  444.99	-1422.75	  380.03
     23.0914	  586.00	  444.99	-1422.75	  380.03
     23.1248	  571.00	  444.99	-1422.75	  380.03
     23.1582	  543.00	  444.99	-1422.75	  380.03
     23.1917	  568.00	  444.99	-1422.75	  380.03
     23.2251	  608.00	  444.99	-1422.75	  380.03
     23.2585	  591.00	  444.99	-1422.75	  380.03
     23.2919	  580.00	  444.99	-1422.75	  380.03
     23.3253	  530.00	  444.99	-1422.75	  380.03
     23.3588	  593.00	  444.99	-1422.75	  380.03
     23.3922	  521.00	  444.99	-1422.75	  380.03
     23.4256	  625.00	  444.99	-1422.75	  380.03
     23.4590	  559.00	  444.99	-1422.75	  380.03
     23.4925	  559.00	  444.99	-1422.75	  380.03
     23.5259	  565.00	  444.99	-1422.75	  380.03
     23.5593	  526.00	  444.99	-1422.75	  380.03
     23.5927	  548.00	  444.99	-1422.75	  380.03
     23.6261	  543.00	  444.99	-1422.75	  380.03
     23.6596	  559.00	  444.99	-1422.75	  380.03
     23.6930	  537.00	  444.99	-1422.75	  380.03
     23.7264	  540.00	  444.99	-1422.75	  380.03
     23.7598	  581.00	  444.99	-1422.75	  380.03
     23.7933	  580.00	  444.99	-1422.75	  380.03
     23.8267	  557.00	  444.99	-1422.75	  380.03
     23.8601	  528.00	  444.99	-1422.75	  380.03
     23.8935	  555.00	  444.99	-1422.75	  380.03
     23.9269	  532.00	  444.99	-1422.75	  380.03
     23.9604	  558.00	  444.99	-1422.75	  380.03
     23.9938	  528.00	  444.99	-1422.75	  380.03
     24.0272	  543.00	  444.99	-1422.75	  380.03
     24.0606	  532.00	  444.99	-1422.75	  380.03
     24.0941	  549.00	  444.99	-1422.75	  380.03
     24.1275	  552.00	  444.99	-1422.75	  380.03
     24.1609	  507.00	  444.99	-1422.75	  380.03
     24.1943	  577.00	  444.99	-1422.75	  380.03
     24.2278	  521.00	  444.99	-1422.75	  380.03
     24.2612	  567.00	  444.99	-1422.75	  380.03
     24.2946	  541.00	  444.99	-1422.75	  380.03
     24.3280	  516.00	  444.99	-1422.75	  380.03
     24.3614	  521.00	  444.99	-1422.75	  380.03
     24.3949	  547.00	  444.99	-1422.75	  380.03
     24.4283	  539.00	  444.99	-1422.75	  380.03
     24.4617	  495.00	  444.99	-1422.75	  380.03
     24.4951	  531.00	  444.99	-1422.75	  380.03
     24.5286	  490.00	  444.99	-1422.75	  380.03
     24.5620	  518.00	  444.99	-1422.75	  380.03
     24.5954	  528.00	  444.99	-1422.75	  380.03
     24.6288	  524.00	  444.99	-1422.75	  380.03
     24.6622	  529.00	  444.99	-1422.75	  380.03
     24.6957	  565.00	  444.99	-1422.75	  380.03
     24.7291	  495.00	  444.99	-1422.75	  380.03
     24.7625	  493.00	  444.99	-1422.75	  380.03
     24.7959	  511.00	  444.99	-1422.75	  380.03
     24.8294	  539.00	  444.99	-1422.75	  380.03
     24.8628	  485.00	  444.99	-1422.75	  380.03
     24.8962	  502.00	  444.99	-1422.75	  380.03
     24.9296	  514.00	  444.99	-1422.75	  380.03
     24.9630	  508.00	  444.99	-1422.75	  380.03
     24.9965	  495.00	  444.99	-1422.75	  380.03
     25.0299	  475.00	  444.99	-1422.75	  380.03
     25.0633	  571.00	  444.99	-1422.75	  380.03
     25.0967	  538.00	  444.99	-1422.75	  380.03
     25.1302	  497.00	  444.99	-1422.75	  380.03
     25.1636	  527.00	  444.99	-1422.75	  380.03
     25.1970	  536.00	  444.99	-1422.75	  380.03
     25.2304	  487.00	  444.99	-1422.75	  380.03
     25.2639	  477.00	  444.99	-1422.75	  380.03
     25.2973	  454.00	  444.99	-1422.75	  380.03
     25.3307	  490.00	  444.99	-1422.75	  380.03
     25.3641	  549.00	  444.99	-1422.75	  380.03
     25.3975	  497.00	  444.99	-1422.75	  380.03
     25.4310	  511.00	  444.99	-1422.75	  380.03
     25.4644	  464.00	  444.99	-1422.75	  380.03
     25.4978	  480.00	  444.99	-1422.75	  380.03
     25.5312	  526.00	  444.99	-1422.75	  380.03
     25.5647	  491.00	  444.99	-1422.75	  380.03
     25.5981	  498.00	  444.99	-1422.75	  380.03
     25.6315	  455.00	  444.99	-1422.75	  380.03
     25.6649	  489.00	  444.99	-1422.75	  380.03
     25.6983	  433.00	  444.99	-1422.75	  380.03
     25.7318	  458.00	  444.99	-1422.75	  380.03
     25.7652	  519.00	  444.99	-1422.75	  380.03
     25.7986	  479.00	  444.99	-1422.75	  380.03
     25.8320	  491.00	  444.99	-1422.75	  380.03
     25.8655	  496.00	  444.99	-1422.75	  380.03
     25.8989	  436.00	  444.99	-1422.75	  380.03
     25.9323	  520.00	  444.99	-1422.75	  380.03
     25.9657	  492.00	  444.99	-1422.75	  380.03
     25.9991	  487.00	  444.99	-1422.75	  380.03
     26.0326	  502.00	  444.99	-1422.75	  380.03
     26.0660	  458.00	  444.99	-1422.75	  380.03
     26.0994	  462.00	  444.99	-1422.75	  380.03
     26.1328	  459.00	  444.99	-1422.75	  380.03
     26.1663	  437.00	  444.99	-1422.75	  380.03
     26.1997	  450.00	  444.99	-1422.75	  380.03
     26.2331	  486.00	  444.99	-1422.75	  380.03
     26.2665	  461.00	  444.99	-1422.75	  380.03
     26.2999	  482.00	  444.99	-1422.75	  380.03
     26.3334	  480.00	  444.99	-1422.75	  380.03
     26.3668	  517.00	  444.99	-1422.75	  380.03
     26.4002	  507.00	  444.99	-1422.75	  380.03
     26.4336	  437.00	  444.99	-1422.75	  380.03
     26.4671	  460.00	  444.99	-1422.75	  380.03
     26.5005	  532.00	  444.99	-1422.75	  380.03
     26.5339	  481.00	  444.99	-1422.75	  380.03
     26.5673	  410.00	  444.99	-1422.75	  380.03
     26.6008	  485.00	  444.99	-1422.75	  380.03
     26.6342	  447.00	  444.99	-1422.75	  380.03
     26.6676	  464.00	  444.99	-1422.75	  380.03
     26.7010	  476.00	  444.99	-1422.75	  380.03
     26.7344	  464.00	  444.99	-1422.75	  380.03
     26.7679	  469.00	  444.99	-1422.75	  380.03
     26.8013	  417.00	  444.99	-1422.75	  380.03
     26.8347	  462.00	  444.99	-1422.75	  380.03
     26.8681	  443.00	  444.99	-1422.75	  380.03
     26.9016	  458.00	  444.99	-1422.75	  380.03
     26.9350	  447.00	  444.99	-1422.75	  380.03
     26.9684	  415.00	  444.99	-1422.75	  380.03
     27.0018	  483.00	  444.99	-1422.75	  380.03
     27.0352	  479.00	  444.99	-1422.75	  380.03
     27.0687	  418.00	  444.99	-1422.75	  380.03
     27.1021	  464.00	  444.99	-1422.75	  380.03
     27.1355	  429.00	  444.99	-1422.75	  380.03
     27.1689	  468.00	  444.99	-1422.75	  380.03
     27.2024	  477.00	  444.99	-1422.75	  380.03
     27.2358	  464.00	  444.99	-1422.75	  380.03
     27.2692	  474.00	  444.99	-1422.75	  380.03
     27.3026	  505.00	  444.99	-1422.75	  380.03
     27.3360	  471.00	  444.99	-1422.75	  380.03
     27.3695	  457.00	  444.99	-1422.75	  380.03
     27.4029	  456.00	  444.99	-1422.75	  380.03
     27.4363	  457.00	  444.99	-1422.75	  380.03
     27.4697	  472.00	  444.99	-1422.75	  380.03
     27.5032	  540.00	  444.99	-1422.75	  380.03
     27.5366	  444.00	  444.99	-1422.75	  380.03
     27.5700	  452.00	  444.99	-1422.75	  380.03
     27.6034	  500.00	  444.99	-1422.75	  380.03
     27.6369	  451.00	  444.99	-1422.75	  380.03
     27.6703	  461.00	  444.99	-1422.75	  380.03
     27.7037	  438.00	  444.99	-1422.75	  380.03
     27.7371	  487.00	  444.99	-1422.75	  380.03
     27.7705	  486.00	  444.99	-1422.75	  380.03
     27.8040	  467.00	  444.99	-1422.75	  380.03
     27.8374	  436.00	  444.99	-1422.75	  380.03
     27.8708	  451.00	  444.99	-1422.75	  380.03
     27.9042	  460.00	  444.99	-1422.75	  380.03
     27.9377	  438.00	  444.99	-1422.75	  380.03
     27.9711	  421.00	  444.99	-1422.75	  380.03
     28.0045	  426.00	  444.99	-1422.75	  380.03
     28.0379	  448.00	  444.99	-1422.75	  380.03
     28.0713	  496.00	  444.99	-1422.75	  380.03
     28.1048	  451.00	  444.99	-1422.75	  380.03
     28.1382	  457.00	  444.99	-1422.75	  380.03
     28.1716	  436.00	  444.99	-1422.75	  380.03
     28.2050	  426.00	  444.99	-1422.75	  380.03
     28.2385	  455.00	  444.99	-1422.75	  380.03
     28.2719	  427.00	  444.99	-1422.75	  380.03
     28.3053	  457.00	  444.99	-1422.75	  380.03
     28.3387	  427.00	  444.99	-1422.75	  380.03
     28.3721	  434.00	  444.99	-1422.75	  380.03
     28.4056	  446.00	  444.99	-1422.75	  380.03
     28.4390	  441.00	  444.99	-1422.75	  380.03
     28.4724	  497.00	  444.99	-1422.75	  380.03
     28.5058	  459.00	  444.99	-1422.75	  380.03
     28.5393	  420.00	  444.99	-1422.75	  380.03
     28.5727	  438.00	  444.99	-1422.75	  380.03
     28.6061	  454.00	  444.99	-1422.75	  380.03
     28.6395	  423.00	  444.99	-1422.75	  380.03
     28.6729	  448.00	  444.99	-1422.75	  380.03
     28.7064	  482.00	  444.99	-1422.75	  380.03
     28.7398	  472.00	  444.99	-1422.75	  380.03
     28.7732	  450.00	  444.99	-1422.75	  380.03
     28.8066	  465.00	  444.99	-1422.75	  380.03
     28.8401	  439.00	  445.01	-1422.75	  380.04
     28.8735	  435.00	  444.78	-1422.75	  379.82
     28.9069	  415.00	  444.55	-1422.75	  379.59
     28.9403	  403.00	  444.33	-1422.75	  379.36
     28.9738	  420.00	  444.10	-1422.75	  379.13
     29.0072	  429.00	  443.87	-1422.75	  378.90
     29.0406	  436.00	  443.64	-1422.75	  378.68
     29.0740	  433.00	  443.42	-1422.75	  378.45
     29.1074	  437.00	  443.19	-1422.75	  378.22
     29.1409	  409.00	  442.96	-1422.75	  377.99
     29.1743	  429.00	  442.73	-1422.75	  377.77
     29.2077	  481.00	  442.50	-1422.75	  377.54
     29.2411	  458.00	  442.28	-1422.75	  377.31
     29.2746	  389.00	  442.05	-1422.75	  377.08
     29.3080	  429.00	  441.82	-1422.75	  376.85
     29.3414	  448.00	  441.59	-1422.75	  376.63
     29.3748	  419.00	  441.36	-1422.75	  376.40
     29.4082	  424.00	  441.14	-1422.75	  376.17
     29.4417	  397.00	  440.91	-1422.75	  375.94
     29.4751	  439.00	  440.68	-1422.75	  375.72
     29.5085	  475.00	  440.45	-1422.75	  375.49
     29.5419	  451.00	  440.23	-1422.75	  375.26
     29.5754	  408.00	  440.00	-1422.75	  375.03
     29.6088	  431.00	  439.77	-1422.75	  374.80
     29.6422	  443.00	  439.54	-1422.75	  374.58
     29.6756	  446.00	  439.31	-1422.75	  374.35
     29.7090	  448.00	  439.09	-1422.75	  374.12
     29.7425	  444.00	  438.86	-1422.75	  373.89
     29.7759	  433.00	  438.63	-1422.75	  373.67
     29.8093	  471.00	  438.40	-1422.75	  373.44
     29.8427	  404.00	  438.18	-1422.75	  373.21
     29.8762	  430.00	  437.95	-1422.75	  372.98
     29.9096	  433.00	  437.72	-1422.75	  372.75
     29.9430	  449.00	  437.49	-1422.75	  372.53
     29.9764	  411.00	  437.26	-1422.75	  372.30
     30.0098	  472.00	  437.04	-1422.75	  372.07
     30.0433	  472.00	  436.81	-1422.75	  371.84
     30.0767	  414.00	  436.58	-1422.75	  371.62
     30.1101	  399.00	  436.35	-1422.75	  371.39
     30.1435	  428.00	  436.13	-1422.75	  371.16
     30.1770	  398.00	  435.90	-1422.75	  370.93
     30.2104	  454.00	  435.67	-1422.75	  370.70
     30.2438	  429.00	  435.44	-1422.75	  370.48
     30.2772	  450.00	  435.21	-1422.75	  370.25
     30.3107	  423.00	  434.99	-1422.75	  370.02
     30.3441	  449.00	  434.76	-1422.75	  369.79
     30.3775	  380.00	  434.53	-1422.75	  369.57
     30.4109	  440.00	  434.30	-1422.75	  369.34
     30.4443	  443.00	  434.08	-1422.75	  369.11
     30.4778	  418.00	  433.85	-1422.75	  368.88
     30.5112	  460.00	  433.62	-1422.75	  368.65
     30.5446	  446.00	  433.39	-1422.75	  368.43
     30.5780	  448.00	  433.16	-1422.75	  368.20
     30.6115	  447.00	  432.94	-1422.75	  367.97
     30.6449	  445.00	  432.71	-1422.75	  367.74
     30.6783	  417.00	  432.48	-1422.75	  367.51
     30.7117	  478.00	  432.25	-1422.75	  367.29
     30.7451	  416.00	  432.03	-1422.75	  367.06
     30.7786	  426.00	  431.80	-1422.75	  366.83
     30.8120	  406.00	  431.62	-1422.75	  366.65
     30.8454	  469.00	  431.46	-1422.75	  366.49
     30.8788	  440.00	  431.29	-1422.75	  366.33
     30.9123	  424.00	  431.13	-1422.75	  366.16
     30.9457	  406.00	  430.97	-1422.75	  366.00
     30.9791	  411.00	  430.80	-1422.75	  365.84
     31.0125	  426.00	  430.64	-1422.75	  365.68
     31.0459	  459.00	  430.48	-1422.75	  365.51
     31.0794	  439.00	  430.32	-1422.75	  365.35
     31.1128	  407.00	  430.15	-1422.75	  365.19
     31.1462	  424.00	  429.99	-1422.75	  365.02
     31.1796	  437.00	  429.83	-1422.75	  364.86
     31.2131	  424.00	  429.67	-1422.75	  364.70
     31.2465	  407.00	  429.50	-1422.75	  364.54
     31.2799	  437.00	  429.34	-1422.75	  364.37
     31.3133	  460.00	  429.18	-1422.75	  364.21
     31.3468	  434.00	  429.01	-1422.75	  364.05
     31.3802	  440.00	  428.85	-1422.75	  363.89
     31.4136	  430.00	  428.69	-1422.75	  363.72
     31.4470	  427.00	  428.53	-1422.75	  363.56
     31.4804	  413.00	  428.36	-1422.75	  363.40
     31.5139	  423.00	  428.20	-1422.75	  363.23
     31.5473	  454.00	  428.04	-1422.75	  363.07
     31.5807	  459.00	  427.88	-1422.75	  362.91
     31.6141	  400.00	  427.71	-1422.75	  362.75
     31.6476	  436.00	  427.55	-1422.75	  362.58
     31.6810	  420.00	  427.39	-1422.75	  362.42
     31.7144	  429.00	  427.22	-1422.75	  362.26
     31.7478	  408.00	  427.06	-1422.75	  362.10
     31.7812	  398.00	  426.90	-1422.75	  361.93
     31.8147	  447.00	  426.74	-1422.75	  361.77
     31.8481	  426.00	  426.57	-1422.75	  361.61
     31.8815	  466.00	  426.41	-1422.75	  361.45
     31.9149	  394.00	  426.25	-1422.75	  361.28
     31.9484	  439.00	  426.09	-1422.75	  361.12
     31.9818	  445.00	  425.92	-1422.75	  360.96
     32.0152	  438.00	  425.76	-1422.75	  360.79
     32.0486	  445.00	  425.60	-1422.75	  360.63
     32.0820	  364.00	  425.44	-1422.75	  360.47
     32.1155	  394.00	  425.27	-1422.75	  360.31
     32.1489	  429.00	  425.11	-1422.75	  360.14
     32.1823	  433.00	  424.95	-1422.75	  359.98
     32.2157	  395.00	  424.78	-1422.75	  359.82
     32.2492	  393.00	  424.62	-1422.75	  359.66
     32.2826	  448.00	  424.46	-1422.75	  359.49
     32.3160	  424.00	  424.30	-1422.75	  359.33
     32.3494	  400.00	  424.13	-1422.75	  359.17
     32.3829	  430.00	  423.97	-1422.75	  359.00
     32.4163	  413.00	  423.81	-1422.75	  358.84
     32.4497	  426.00	  423.65	-1422.75	  358.68
     32.4831	  402.00	  423.48	-1422.75	  358.52
     32.5165	  421.00	  423.32	-1422.75	  358.35
     32.5500	  377.00	  423.16	-1422.75	  358.19
     32.5834	  448.00	  422.99	-1422.75	  358.03
     32.6168	  455.00	  422.83	-1422.75	  357.87
     32.6502	  440.00	  422.67	-1422.75	  357.70
     32.6837	  416.00	  422.51	-1422.75	  357.54
     32.7171	  374.00	  422.34	-1422.75	  357.38
     32.7505	  409.00	  422.18	-1422.75	  357.21
     32.7839	  427.00	  422.02	-1422.75	  357.05
     32.8173	  439.00	  421.86	-1422.75	  356.89
     32.8508	  438.00	  421.69	-1422.75	  356.73
     32.8842	  415.00	  421.53	-1422.75	  356.56
     32.9176	  406.00	  421.37	-1422.75	  356.40
     32.9510	  438.00	  421.20	-1422.75	  356.24
     32.9845	  419.00	  421.04	-1422.75	  356.08
     33.0179	  395.00	  420.88	-1422.75	  355.91
     33.0513	  416.00	  420.72	-1422.75	  355.75
     33.0847	  458.00	  420.55	-1422.75	  355.59
     33.1181	  433.00	  420.39	-1422.75	  355.43
     33.1516	  407.00	  420.23	-1422.75	  355.26
     33.1850	  386.00	  420.07	-1422.75	  355.10
     33.2184	  407.00	  419.90	-1422.75	  354.94
     33.2518	  433.00	  419.74	-1422.75	  354.77
     33.2853	  398.00	  419.58	-1422.75	  354.61
     33.3187	  395.00	  419.42	-1422.75	  354.45
     33.3521	  437.00	  419.25	-1422.75	  354.29
     33.3855	  436.00	  419.09	-1422.75	  354.12
     33.4189	  438.00	  418.93	-1422.75	  353.96
     33.4524	  420.00	  418.76	-1422.75	  353.80
     33.4858	  406.00	  418.60	-1422.75	  353.64
     33.5192	  426.00	  418.44	-1422.75	  353.47
     33.5526	  390.00	  418.28	-1422.75	  353.31
     33.5861	  398.00	  418.11	-1422.75	  353.15
     33.6195	  431.00	  417.95	-1422.75	  352.98
     33.6529	  420.00	  417.79	-1422.75	  352.82
     33.6863	  431.00	  417.63	-1422.75	  352.66
     33.7198	  386.00	  417.46	-1422.75	  352.50
     33.7532	  410.00	  417.30	-1422.75	  352.33
     33.7866	  393.00	  417.14	-1422.75	  352.17
     33.8200	  416.00	  416.97	-1422.75	  352.01
     33.8534	  435.00	  416.81	-1422.75	  351.85
     33.8869	  414.00	  416.65	-1422.75	  351.68
     33.9203	  402.00	  416.49	-1422.75	  351.52
     33.9537	  394.00	  416.32	-1422.75	  351.36
     33.9871	  402.00	  416.16	-1422.75	  351.19
     34.0206	  421.00	  416.00	-1422.75	  351.03
     34.0540	  418.00	  415.84	-1422.75	  350.87
     34.0874	  413.00	  415.67	-1422.75	  350.71
     34.1208	  397.00	  415.51	-1422.75	  350.54
     34.1542	  428.00	  415.35	-1422.75	  350.38
     34.1877	  425.00	  415.18	-1422.75	  350.22
     34.2211	  449.00	  415.02	-1422.75	  350.06
     34.2545	  423.00	  414.86	-1422.75	  349.89
     34.2879	  456.00	  414.70	-1422.75	  349.73
     34.3214	  416.00	  414.53	-1422.75	  349.57
     34.3548	  434.00	  414.37	-1422.75	  349.41
     34.3882	  376.00	  414.21	-1422.75	  349.24
     34.4216	  429.00	  414.07	-1422.75	  349.11
     34.4550	  433.00	  414.13	-1422.75	  349.17
     34.4885	  421.00	  414.19	-1422.75	  349.23
     34.5219	  398.00	  414.25	-1422.75	  349.29
     34.5553	  374.00	  414.31	-1422.75	  349.35
     34.5887	  440.00	  414.37	-1422.75	  349.41
     34.6222	  400.00	  414.43	-1422.75	  349.47
     34.6556	  415.00	  414.49	-1422.75	  349.53
     34.6890	  408.00	  414.55	-1422.75	  349.59
     34.7224	  387.00	  414.61	-1422.75	  349.65
     34.7559	  448.00	  414.67	-1422.75	  349.71
     34.7893	  424.00	  414.73	-1422.75	  349.77
     34.8227	  433.00	  414.79	-1422.75	  349.82
     34.8561	  413.00	  414.85	-1422.75	  349.88
     34.8895	  415.00	  414.91	-1422.75	  349.94
     34.9230	  408.00	  414.97	-1422.75	  350.00
     34.9564	  420.00	  415.03	-1422.75	  350.06
     34.9898	  404.00	  415.09	-1422.75	  350.12
     35.0232	  413.00	  415.15	-1424.90	  350.18
     35.0567	  460.00	  415.21	-1377.96	  350.24
     35.0901	  406.00	  415.27	-1432.02	  350.30
     35.1235	  507.00	  415.33	-1331.08	  350.36
     35.1569	  416.00	  415.39	-1422.14	  350.42
     35.1903	  420.00	  415.45	-1418.20	  350.48
     35.2238	  407.00	  415.51	-1431.26	  350.54
     35.2572	  404.00	  415.57	-1434.32	  350.60
     35.2906	  434.00	  415.63	-1404.38	  350.66
     35.3240	  431.00	  415.69	-1407.44	  350.72
     35.3575	  424.00	  415.75	-1414.50	  350.78
     35.3909	  427.00	  415.81	-1411.56	  350.84
     35.4243	  415.00	  415.87	-1423.62	  350.90
     35.4577	  445.00	  415.93	-1393.68	  350.96
     35.4911	  404.00	  415.99	-1434.74	  351.02
     35.5246	  435.00	  416.05	-1403.80	  351.08
     35.5580	  436.00	  416.11	-1402.86	  351.14
     35.5914	  403.00	  416.17	-1435.92	  351.20
     35.6248	  392.00	  416.23	-1446.98	  351.26
     35.6583	  413.00	  416.29	-1426.04	  351.32
     35.6917	  450.00	  416.35	-1389.10	  351.38
     35.7251	  433.00	  416.41	-1406.16	  351.44
     35.7585	  446.00	  416.47	-1393.22	  351.50
     35.7920	  424.00	  416.53	-1415.28	  351.56
     35.8254	  415.00	  416.59	-1424.34	  351.62
     35.8588	  460.00	  416.65	-1379.40	  351.68
     35.8922	  429.00	  416.71	-1410.46	  351.74
     35.9256	  374.00	  416.77	-1465.52	  351.80
     35.9591	  415.00	  416.83	-1424.58	  351.86
     35.9925	  417.00	  416.89	-1422.64	  351.92
     36.0259	  455.00	  416.95	-1384.70	  351.98
     36.0593	  440.00	  417.01	-1399.76	  352.04
     36.0928	  445.00	  417.07	-1394.82	  352.10
     36.1262	  444.00	  417.13	-1395.88	  352.16
     36.1596	  447.00	  417.19	-1392.94	  352.22
     36.1930	  414.00	  417.25	-1426.00	  352.28
     36.2264	  410.00	  417.31	-1430.06	  352.34
     36.2599	  418.00	  417.37	-1422.12	  352.40
     36.2933	  409.00	  417.43	-1431.18	  352.46
     36.3267	  417.00	  417.49	-1423.24	  352.52
     36.3601	  434.00	  417.55	-1406.30	  352.58
     36.3936	  445.00	  417.61	-1395.36	  352.64
     36.4270	  431.00	  417.67	-1409.42	  352.70
     36.4604	  398.00	  417.73	-1442.48	  352.76
     36.4938	  449.00	  417.79	-1391.54	  352.82
     36.5272	  407.00	  417.85	-1433.60	  352.88
     36.5607	  417.00	  417.91	-1423.66	  352.94
     36.5941	  434.00	  417.97	-1406.72	  353.00
     36.6275	  383.00	  418.03	-1457.78	  353.06
     36.6609	  411.00	  418.09	-1429.84	  353.12
     36.6944	  398.00	  418.15	-1442.90	  353.18
     36.7278	  475.00	  418.21	-1365.96	  353.24
     36.7612	  423.00	  418.27	-1418.02	  353.30
     36.7946	  464.00	  418.33	-1377.08	  353.36
     36.8280	  413.00	  418.39	-1428.14	  353.42
     36.8615	  405.00	  418.45	-1436.20	  353.48
     36.8949	  394.00	  418.51	-1447.26	  353.55
     36.9283	  438.00	  418.59	-1403.34	  353.62
     36.9617	  452.00	  418.67	-1389.42	  353.70
     36.9952	  424.00	  418.74	-1417.49	  353.78
     37.0286	  451.00	  418.82	-1390.57	  353.85
     37.0620	  440.00	  418.89	-1401.64	  353.93
     37.0954	  441.00	  418.97	-1400.72	  354.00
     37.1289	  478.00	  419.05	-1363.80	  354.08
     37.1623	  474.00	  419.12	-1367.87	  354.16
     37.1957	  483.00	  419.20	-1358.95	  354.23
     37.2291	  443.00	  419.27	-1399.02	  354.31
     37.2625	  436.00	  419.35	-1406.10	  354.38
     37.2960	  436.00	  419.43	-1406.18	  354.46
     37.3294	  430.00	  419.50	-1412.25	  354.54
     37.3628	  437.00	  419.58	-1405.33	  354.61
     37.3962	  414.00	  419.65	-1428.40	  354.69
     37.4297	  441.00	  419.73	-1401.48	  354.76
     37.4631	  415.00	  419.81	-1427.56	  354.84
     37.4965	  454.00	  419.88	-1388.63	  354.91
     37.5299	  411.00	  419.96	-1431.71	  354.99
     37.5633	  474.00	  420.03	-1368.78	  355.07
     37.5968	  426.00	  420.11	-1416.86	  355.14
     37.6302	  462.00	  420.18	-1380.93	  355.22
     37.6636	  459.00	  420.26	-1384.01	  355.29
     37.6970	  469.00	  420.34	-1374.09	  355.37
     37.7305	  455.00	  420.41	-1388.16	  355.45
     37.7639	  425.00	  420.49	-1418.24	  355.52
     37.7973	  424.00	  420.56	-1419.31	  355.60
     37.8307	  413.00	  420.64	-1430.39	  355.67
     37.8641	  427.00	  420.72	-1416.47	  355.75
     37.8976	  418.00	  420.79	-1425.54	  355.83
     37.9310	  420.00	  420.87	-1423.62	  355.90
     37.9644	  425.00	  420.94	-1418.69	  355.98
     37.9978	  439.00	  421.02	-1404.77	  356.05
     38.0313	  436.00	  421.10	-1407.85	  356.13
     38.0647	  420.00	  421.17	-1423.92	  356.21
     38.0981	  454.00	  421.25	-1390.00	  356.28
     38.1315	  430.00	  421.32	-1414.07	  356.36
     38.1649	  455.00	  421.40	-1389.15	  356.43
     38.1984	  424.00	  421.48	-1420.23	  356.51
     38.2318	  464.00	  421.55	-1380.30	  356.59
     38.2652	  451.00	  421.63	-1393.38	  356.66
     38.2986	  439.00	  421.70	-1405.45	  356.74
     38.3321	  445.00	  421.78	-1399.53	  356.81
     38.3655	  410.00	  421.86	-1434.61	  356.89
     38.3989	  437.00	  421.93	-1407.68	  356.96
     38.4323	  397.00	  422.01	-1447.76	  357.04
     38.4658	  448.00	  422.08	-1396.83	  357.12
     38.4992	  429.00	  422.16	-1415.91	  357.19
     38.5326	  429.00	  422.23	-1415.98	  357.27
     38.5660	  416.00	  422.31	-1429.06	  357.34
     38.5994	  387.00	  422.39	-1458.14	  357.42
     38.6329	  431.00	  422.46	-1414.21	  357.50
     38.6663	  425.00	  422.54	-1420.29	  357.57
     38.6997	  436.00	  422.61	-1409.36	  357.65
     38.7331	  428.00	  422.69	-1417.44	  357.72
     38.7666	  443.00	  422.77	-1402.52	  357.80
     38.8000	  413.00	  422.84	-1432.59	  357.88
     38.8334	  452.00	  422.93	-1393.68	  357.97
     38.8668	  425.00	  423.09	-1420.84	  358.12
     38.9002	  443.00	  423.24	-1402.99	  358.27
     38.9337	  469.00	  423.39	-1377.14	  358.42
     38.9671	  446.00	  423.54	-1400.29	  358.58
     39.0005	  398.00	  423.69	-1448.44	  358.73
     39.0339	  445.00	  423.85	-1401.60	  358.88
     39.0674	  464.00	  424.00	-1382.75	  359.03
     39.1008	  403.00	  424.15	-1443.90	  359.18
     39.1342	  425.00	  424.30	-1422.05	  359.34
     39.1676	  428.00	  424.45	-1419.20	  359.49
     39.2010	  426.00	  424.61	-1421.36	  359.64
     39.2345	  418.00	  424.76	-1429.51	  359.79
     39.2679	  443.00	  424.91	-1404.66	  359.94
     39.3013	  415.00	  425.06	-1432.81	  360.09
     39.3347	  443.00	  425.21	-1404.96	  360.25
     39.3682	  436.00	  425.36	-1412.11	  360.40
     39.4016	  457.00	  425.52	-1391.27	  360.55
     39.4350	  425.00	  425.67	-1423.42	  360.70
     39.4684	  408.00	  425.82	-1440.57	  360.85
     39.5019	  439.00	  425.97	-1409.72	  361.01
     39.5353	  421.00	  426.12	-1427.87	  361.16
     39.5687	  459.00	  426.28	-1390.03	  361.31
     39.6021	  467.00	  426.43	-1382.18	  361.46
     39.6355	  446.00	  426.58	-1403.33	  361.61
     39.6690	  475.00	  426.73	-1374.48	  361.77
     39.7024	  441.00	  426.88	-1408.63	  361.92
     39.7358	  451.00	  427.04	-1398.79	  362.07
     39.7692	  396.00	  427.19	-1453.94	  362.22
     39.8027	  468.00	  427.34	-1382.09	  362.37
     39.8361	  419.00	  427.49	-1431.24	  362.52
     39.8695	  421.00	  427.64	-1429.39	  362.68
     39.9029	  423.00	  427.79	-1427.54	  362.83
     39.9363	  468.00	  427.95	-1382.70	  362.98
     39.9698	  443.00	  428.10	-1407.85	  363.13
     40.0032	  448.00	  428.25	-1403.00	  363.28
     40.0366	  457.00	  428.40	-1394.15	  363.44
     40.0700	  425.00	  428.55	-1426.30	  363.59
     40.1035	  398.00	  428.71	-1453.46	  363.74
     40.1369	  447.00	  428.86	-1404.61	  363.89
     40.1703	  419.00	  429.01	-1432.76	  364.04
     40.2037	  375.00	  429.16	-1476.91	  364.19
     40.2371	  393.00	  429.31	-1459.06	  364.35
     40.2706	  426.00	  429.46	-1426.21	  364.50
     40.3040	  437.00	  429.62	-1415.37	  364.65
     40.3374	  448.00	  429.77	-1404.52	  364.80
     40.3708	  444.00	  429.92	-1408.67	  364.95
     40.4043	  445.00	  430.07	-1407.82	  365.11
     40.4377	  427.00	  430.22	-1425.97	  365.26
     40.4711	  485.00	  430.38	-1368.13	  365.41
     40.5045	  419.00	  430.53	-1434.28	  365.56
     40.5379	  465.00	  430.68	-1388.43	  365.71
     40.5714	  420.00	  430.83	-1433.58	  365.87
     40.6048	  449.00	  430.98	-1404.73	  366.02
     40.6382	  445.00	  431.14	-1408.89	  366.17
     40.6716	  428.00	  431.29	-1426.04	  366.32
     40.7051	  476.00	  431.44	-1378.19	  366.47
     40.7385	  481.00	  431.59	-1373.34	  366.62
     40.7719	  451.00	  431.74	-1403.49	  366.77
     40.8053	  449.00	  431.74	-1405.49	  366.77
     40.8388	  418.00	  431.74	-1436.49	  366.77
     40.8722	  439.00	  431.74	-1415.49	  366.77
     40.9056	  428.00	  431.74	-1426.49	  366.77
     40.9390	  480.00	  431.74	-1374.49	  366.77
     40.9724	  416.00	  431.74	-1438.49	  366.77
     41.0059	  451.00	  431.74	-1403.49	  366.77
     41.0393	  502.00	  431.74	-1352.49	  366.77
     41.0727	  420.00	  431.74	-1434.49	  366.77
     41.1061	  390.00	  431.74	-1464.49	  366.77
     41.1396	  462.00	  431.74	-1392.49	  366.77
     41.1730	  437.00	  431.74	-1417.49	  366.77
     41.2064	  414.00	  431.74	-1440.49	  366.77
     41.2398	  450.00	  431.74	-1404.49	  366.77
     41.2732	  444.00	  431.74	-1410.49	  366.77
     41.3067	  449.00	  431.74	-1405.49	  366.77
     41.3401	  443.00	  431.74	-1411.49	  366.77
     41.3735	  398.00	  431.74	-1456.49	  366.77
     41.4069	  423.00	  431.74	-1431.49	  366.77
     41.4404	  439.00	  431.74	-1415.49	  366.77
     41.4738	  419.00	  431.74	-1435.49	  366.77
     41.5072	  460.00	  431.74	-1394.49	  366.77
     41.5406	  465.00	  431.74	-1389.49	  366.77
     41.5741	  479.00	  431.74	-1375.49	  366.77
     41.6075	  451.00	  431.74	-1403.49	  366.77
     41.6409	  495.00	  431.74	-1359.49	  366.77
     41.6743	  482.00	  431.74	-1372.49	  366.77
     41.7077	  461.00	  431.74	-1393.49	  366.77
     41.7412	  476.00	  431.74	-1378.49	  366.77
     41.7746	  425.00	  431.74	-1429.49	  366.77
     41.8080	  479.00	  431.74	-1375.49	  366.77
     41.8414	  425.00	  431.74	-1429.49	  366.77
     41.8749	  462.00	  431.74	-1392.49	  366.77
     41.9083	  435.00	  431.74	-1419.49	  366.77
     41.9417	  415.00	  431.74	-1439.49	  366.77
     41.9751	  476.00	  431.74	-1378.49	  366.77
     42.0085	  485.00	  431.74	-1369.49	  366.77
     42.0420	  444.00	  431.74	-1410.49	  366.77
     42.0754	  455.00	  431.74	-1399.49	  366.77
     42.1088	  455.00	  431.74	-1399.49	  366.77
     42.1422	  449.00	  431.74	-1405.49	  366.77
     42.1757	  452.00	  431.74	-1402.49	  366.77
     42.2091	  439.00	  431.71	-1415.46	  366.74
     42.2425	  462.00	  448.62	-1409.37	  366.65
     42.2759	  499.00	  449.05	-1372.80	  366.57
     42.3093	  459.00	  449.50	-1413.25	  366.48
     42.3428	  452.00	  449.98	-1420.73	  366.39
     42.3762	  439.00	  459.10	-1442.85	  366.30
     42.4096	  449.00	  459.91	-1433.66	  366.21
     42.4430	  497.00	  460.75	-1386.50	  366.13
     42.4765	  474.00	  461.64	-1410.39	  366.04
     42.5099	  499.00	  462.58	-1386.33	  365.95
     42.5433	  468.00	  463.58	-1418.33	  365.86
     42.5767	  496.00	  464.62	-1391.37	  365.78
     42.6101	  497.00	  465.73	-1391.48	  365.69
     42.6436	  509.00	  466.91	-1380.66	  365.60
     42.6770	  524.00	  468.15	-1366.90	  365.51
     42.7104	  483.00	  469.47	-1409.22	  365.43
     42.7438	  517.00	  470.86	-1376.61	  365.34
     42.7773	  497.00	  472.35	-1398.10	  365.25
     42.8107	  475.00	  473.92	-1421.67	  365.16
     42.8441	  435.00	  475.60	-1463.35	  365.08
     42.8775	  499.00	  477.38	-1401.13	  364.99
     42.9109	  486.00	  479.29	-1416.04	  364.90
     42.9444	  521.00	  481.32	-1383.07	  364.81
     42.9778	  490.00	  483.49	-1416.24	  364.73
     43.0112	  489.00	  485.81	-1419.56	  364.64
     43.0446	  482.00	  488.29	-1429.04	  364.55
     43.0781	  499.00	  490.96	-1414.71	  364.46
     43.1115	  568.00	  493.82	-1348.57	  364.37
     43.1449	  511.00	  496.89	-1408.64	  364.29
     43.1783	  495.00	  500.21	-1427.96	  364.20
     43.2118	  546.00	  503.79	-1380.54	  364.11
     43.2452	  528.00	  507.66	-1402.41	  364.02
     43.2786	  537.00	  511.85	-1397.60	  363.94
     43.3120	  558.00	  516.40	-1381.15	  363.85
     43.3454	  555.00	  521.35	-1389.10	  363.76
     43.3789	  555.00	  526.74	-1394.49	  363.67
     43.4123	  564.00	  532.62	-1391.37	  363.59
     43.4457	  549.00	  539.07	-1412.82	  363.50
     43.4791	  557.00	  546.15	-1411.90	  363.41
     43.5126	  547.00	  553.95	-1429.70	  363.32
     43.5460	  573.00	  562.55	-1412.30	  363.24
     43.5794	  584.00	  572.09	-1410.84	  363.15
     43.6128	  577.00	  582.69	-1428.44	  363.06
     43.6462	  553.00	  594.51	-1464.26	  362.97
     43.6797	  626.00	  607.74	-1404.49	  362.89
     43.7131	  559.00	  622.63	-1486.38	  362.80
     43.7465	  583.00	  639.43	-1479.18	  362.71
     43.7799	  617.00	  658.51	-1464.26	  362.62
     43.8134	  622.00	  680.26	-1481.01	  362.53
     43.8468	  653.00	  705.21	-1474.96	  362.45
     43.8802	  620.00	  734.01	-1536.76	  362.36
     43.9136	  718.00	  767.40	-1472.15	  362.20
     43.9470	  791.00	  806.49	-1438.24	  362.04
     43.9805	  781.00	  852.65	-1494.40	  361.88
     44.0139	  841.00	  907.68	-1489.43	  361.71
     44.0473	  911.00	  974.02	-1485.77	  361.55
     44.0807	  989.00	 1054.88	-1488.63	  361.39
     44.1142	 1049.00	 1154.72	-1528.47	  361.23
     44.1476	 1170.00	 1279.53	-1532.28	  361.06
     44.1810	 1353.00	 1437.12	-1506.87	  360.90
     44.2144	 1571.00	 1637.80	-1489.55	  360.74
     44.2478	 1829.00	 1894.23	-1487.98	  360.58
     44.2813	 2068.00	 2220.97	-1575.72	  360.41
     44.3147	 2550.00	 2632.30	-1505.05	  360.25
     44.3481	 3167.00	 3134.38	-1390.13	  360.09
     44.3815	 3998.00	 3711.35	-1136.10	  359.92
     44.4150	 4749.00	 4302.27	 -976.02	  359.76
     44.4484	 5234.00	 4793.63	 -982.38	  359.60
     44.4818	 5691.00	 5065.09	 -796.84	  359.44
     44.5152	 5678.00	 5070.96	 -815.71	  359.27
     44.5487	 5462.00	 4855.16	 -815.91	  359.11
     44.5821	 5003.00	 4481.15	 -900.90	  358.95
     44.6155	 4473.00	 3999.24	 -948.99	  358.79
     44.6489	 3794.00	 3467.25	-1096.00	  358.62
     44.6823	 3082.00	 2950.54	-1291.29	  358.46
     44.7158	 2613.00	 2495.07	-1304.82	  358.30
     44.7492	 2072.00	 2117.33	-1468.08	  358.13
     44.7826	 1753.00	 1814.67	-1484.42	  357.97
     44.8160	 1419.00	 1575.68	-1579.43	  357.81
     44.8495	 1266.00	 1387.58	-1544.33	  357.65
     44.8829	 1090.00	 1239.19	-1571.94	  357.48
     44.9163	 1012.00	 1121.16	-1531.91	  357.32
     44.9497	  926.00	 1026.32	-1523.07	  357.16
     44.9831	  812.00	  949.24	-1559.99	  357.00
     45.0166	  804.00	  885.80	-1504.55	  356.83
     45.0500	  688.00	  833.03	-1567.78	  356.67
     45.0834	  697.00	  788.64	-1514.39	  356.51
     45.1168	  697.00	  750.93	-1476.68	  356.35
     45.1503	  663.00	  718.64	-1478.39	  356.18
     45.1837	  589.00	  690.78	-1524.53	  356.02
     45.2171	  571.00	  666.57	-1518.32	  355.86
     45.2505	  583.00	  645.41	-1485.16	  355.69
     45.2840	  569.00	  626.79	-1480.54	  355.53
     45.3174	  533.00	  610.34	-1500.09	  355.37
     45.3508	  553.00	  595.73	-1465.48	  355.21
     45.3842	  533.00	  582.70	-1472.45	  355.04
     45.4176	  495.00	  571.02	-1498.77	  354.88
     45.4511	  543.00	  560.51	-1440.26	  354.72
     45.4845	  489.00	  551.03	-1484.78	  354.56
     45.5179	  500.00	  542.43	-1465.18	  354.39
     45.5513	  503.00	  534.62	-1454.37	  354.23
     45.5848	  502.00	  527.50	-1448.25	  354.07
     45.6182	  496.00	  520.98	-1447.73	  353.90
     45.6516	  459.00	  515.00	-1478.75	  353.74
     45.6850	  513.00	  509.51	-1419.26	  353.58
     45.7184	  465.00	  504.28	-1462.03	  353.26
     45.7519	  458.00	  499.35	-1464.10	  352.85
     45.7853	  472.00	  494.76	-1445.51	  352.43
     45.8187	  485.00	  490.49	-1428.24	  352.02
     45.8521	  420.00	  486.49	-1489.24	  351.60
     45.8856	  474.00	  482.75	-1431.50	  351.19
     45.9190	  435.00	  479.24	-1466.99	  350.78
     45.9524	  461.00	  475.94	-1437.69	  350.36
     45.9858	  433.00	  472.84	-1462.59	  349.95
     46.0192	  462.00	  469.91	-1430.66	  349.53
     46.0527	  439.00	  467.13	-1450.88	  349.12
     46.0861	  460.00	  464.51	-1427.26	  348.71
     46.1195	  454.00	  462.02	-1430.77	  348.29
     46.1529	  458.00	  459.65	-1424.40	  347.88
     46.1864	  428.00	  457.40	-1452.15	  347.46
     46.2198	  469.00	  455.26	-1409.01	  347.05
     46.2532	  455.00	  453.21	-1420.96	  346.63
     46.2866	  429.00	  451.25	-1445.00	  346.22
     46.3200	  467.00	  449.38	-1405.13	  345.81
     46.3535	  420.00	  447.59	-1450.34	  345.39
     46.3869	  430.00	  445.87	-1438.62	  344.98
     46.4203	  429.00	  444.21	-1437.96	  344.56
     46.4537	  402.00	  442.62	-1463.37	  344.15
     46.4872	  462.00	  441.09	-1401.84	  343.74
     46.5206	  435.00	  439.61	-1427.36	  343.32
     46.5540	  399.00	  438.18	-1461.93	  342.91
     46.5874	  404.00	  436.81	-1455.56	  342.49
     46.6208	  426.00	  435.47	-1432.22	  342.08
     46.6543	  468.00	  434.18	-1388.93	  341.66
     46.6877	  439.00	  415.75	-1399.50	  341.25
     46.7211	  444.00	  415.04	-1393.79	  340.84
     46.7545	  418.00	  414.34	-1419.09	  340.42
     46.7880	  416.00	  404.97	-1411.72	  340.01
     46.8214	  419.00	  404.56	-1408.31	  339.59
     46.8548	  440.00	  404.15	-1386.90	  339.18
     46.8882	  395.00	  403.73	-1431.48	  338.77
     46.9217	  368.00	  403.32	-1458.07	  338.35
     46.9551	  409.00	  402.90	-1416.65	  337.94
     46.9885	  428.00	  402.49	-1397.24	  337.52
     47.0219	  397.00	  402.08	-1427.82	  337.11
     47.0553	  399.00	  401.66	-1425.41	  336.69
     47.0888	  371.00	  401.25	-1453.00	  336.28
     47.1222	  395.00	  400.83	-1428.58	  335.87
     47.1556	  416.00	  400.59	-1407.34	  335.62
     47.1890	  397.00	  400.35	-1426.10	  335.38
     47.2225	  416.00	  400.11	-1406.86	  335.14
     47.2559	  423.00	  399.87	-1399.62	  334.91
     47.2893	  417.00	  399.64	-1405.39	  334.67
     47.3227	  437.00	  399.40	-1385.15	  334.43
     47.3561	  394.00	  399.16	-1427.91	  334.20
     47.3896	  388.00	  398.92	-1433.67	  333.96
     47.4230	  428.00	  398.69	-1393.44	  333.72
     47.4564	  413.00	  398.45	-1408.20	  333.48
     47.4898	  451.00	  398.21	-1369.96	  333.25
     47.5233	  411.00	  397.98	-1409.73	  333.01
     47.5567	  417.00	  397.74	-1403.49	  332.77
     47.5901	  417.00	  397.50	-1403.25	  332.53
     47.6235	  372.00	  397.26	-1448.01	  332.30
     47.6570	  385.00	  397.03	-1434.78	  332.06
     47.6904	  382.00	  396.79	-1437.54	  331.82
     47.7238	  406.00	  396.55	-1413.30	  331.59
     47.7572	  428.00	  396.31	-1391.06	  331.35
     47.7906	  423.00	  396.08	-1395.83	  331.11
     47.8241	  408.00	  395.84	-1410.59	  330.87
     47.8575	  405.00	  395.60	-1413.35	  330.64
     47.8909	  392.00	  395.37	-1426.12	  330.40
     47.9243	  404.00	  395.13	-1413.88	  330.16
     47.9578	  407.00	  394.89	-1410.64	  329.92
     47.9912	  371.00	  394.65	-1446.40	  329.69
     48.0246	  364.00	  394.42	-1453.17	  329.45
     48.0580	  416.00	  394.18	-1400.93	  329.21
     48.0914	  410.00	  393.94	-1406.69	  328.98
     48.1249	  394.00	  393.70	-1422.45	  328.74
     48.1583	  384.00	  393.47	-1432.22	  328.50
     48.1917	  376.00	  393.23	-1439.98	  328.26
     48.2251	  424.00	  392.99	-1391.74	  328.03
     48.2586	  376.00	  392.76	-1439.51	  327.79
     48.2920	  389.00	  392.52	-1426.27	  327.55
     48.3254	  397.00	  392.28	-1418.03	  327.31
     48.3588	  386.00	  392.04	-1428.79	  327.08
     48.3922	  420.00	  391.81	-1394.56	  326.84
     48.4257	  441.00	  391.57	-1373.32	  326.60
     48.4591	  413.00	  391.33	-1401.08	  326.37
     48.4925	  371.00	  391.09	-1442.84	  326.13
     48.5259	  418.00	  390.86	-1395.61	  325.89
     48.5594	  395.00	  390.62	-1418.37	  325.65
     48.5928	  365.00	  390.38	-1448.13	  325.42
     48.6262	  385.00	  390.15	-1427.90	  325.18
     48.6596	  384.00	  389.91	-1428.66	  324.94
     48.6930	  424.00	  389.66	-1388.41	  324.69
     48.7265	  387.00	  389.39	-1425.14	  324.42
     48.7599	  386.00	  389.12	-1425.87	  324.15
     48.7933	  396.00	  388.85	-1415.60	  323.88
     48.8267	  405.00	  388.58	-1406.33	  323.61
     48.8602	  451.00	  388.31	-1360.06	  323.34
     48.8936	  388.00	  388.04	-1422.79	  323.07
     48.9270	  366.00	  387.77	-1444.52	  322.80
     48.9604	  410.00	  387.50	-1400.25	  322.53
     48.9939	  344.00	  387.23	-1465.98	  322.26
     49.0273	  416.00	  386.96	-1393.71	  321.99
     49.0607	  369.00	  386.69	-1440.44	  321.72
     49.0941	  378.00	  386.42	-1431.17	  321.45
     49.1275	  399.00	  386.15	-1409.90	  321.19
     49.1610	  390.00	  385.88	-1418.63	  320.92
     49.1944	  406.00	  385.61	-1402.36	  320.65
     49.2278	  417.00	  385.34	-1391.09	  320.38
     49.2612	  409.00	  385.07	-1398.82	  320.11
     49.2947	  387.00	  384.80	-1420.55	  319.84
     49.3281	  413.00	  384.53	-1394.28	  319.57
     49.3615	  368.00	  384.26	-1439.01	  319.30
     49.3949	  433.00	  383.99	-1373.74	  319.03
     49.4283	  394.00	  383.72	-1412.47	  318.76
     49.4618	  399.00	  383.45	-1407.20	  318.49
     49.4952	  426.00	  383.18	-1379.93	  318.22
     49.5286	  445.00	  382.91	-1360.66	  317.95
     49.5620	  396.00	  382.64	-1409.39	  317.68
     49.5955	  434.00	  382.37	-1371.12	  317.41
     49.6289	  410.00	  391.09	-1403.84	  317.14
     49.6623	  379.00	  391.10	-1434.85	  316.87
     49.6957	  382.00	  391.12	-1431.87	  316.60
     49.7291	  394.00	  391.16	-1419.91	  316.33
     49.7626	  390.00	  395.68	-1428.43	  316.06
     49.7960	  376.00	  395.88	-1442.63	  315.79
     49.8294	  416.00	  396.11	-1402.86	  315.52
     49.8628	  400.00	  396.36	-1419.11	  315.25
     49.8963	  407.00	  396.64	-1412.39	  314.98
     49.9297	  385.00	  396.95	-1434.70	  314.71
     49.9631	  404.00	  397.28	-1416.03	  314.44
     49.9965	  399.00	  397.65	-1421.40	  314.17
     50.0300	  392.00	  398.06	-1428.81	  313.90
     50.0634	  420.00	  398.50	-1401.25	  313.63
     50.0968	  367.00	  398.98	-1454.73	  313.36
     50.1302	  374.00	  399.51	-1448.26	  313.09
     50.1636	  387.00	  400.08	-1435.83	  312.82
     50.1971	  400.00	  400.71	-1423.46	  312.55
     50.2305	  423.00	  401.38	-1401.13	  312.28
     50.2639	  396.00	  402.12	-1428.87	  312.01
     50.2973	  372.00	  402.92	-1453.67	  311.74
     50.3308	  362.00	  403.79	-1464.54	  311.47
     50.3642	  429.00	  404.74	-1398.49	  311.20
     50.3976	  438.00	  405.77	-1390.52	  310.93
     50.4310	  428.00	  406.89	-1401.64	  310.66
     50.4644	  451.00	  408.10	-1379.85	  310.40
     50.4979	  411.00	  409.43	-1421.18	  310.13
     50.5313	  421.00	  410.88	-1412.63	  309.86
     50.5647	  431.00	  412.45	-1404.20	  309.59
     50.5981	  417.00	  414.17	-1419.92	  309.32
     50.6316	  434.00	  416.05	-1404.80	  309.05
     50.6650	  409.00	  418.11	-1431.86	  308.78
     50.6984	  464.00	  420.37	-1379.12	  308.51
     50.7318	  437.00	  422.84	-1408.59	  308.24
     50.7652	  437.00	  425.57	-1411.32	  307.97
     50.7987	  452.00	  428.57	-1399.32	  307.70
     50.8321	  452.00	  431.88	-1402.63	  307.43
     50.8655	  398.00	  435.54	-1460.29	  307.16
     50.8989	  438.00	  439.60	-1424.35	  306.89
     50.9324	  441.00	  444.12	-1425.87	  306.62
     50.9658	  439.00	  449.16	-1432.91	  306.35
     50.9992	  450.00	  454.79	-1427.54	  306.08
     51.0326	  447.00	  461.11	-1436.86	  305.81
     51.0660	  459.00	  468.23	-1431.98	  305.54
     51.0995	  485.00	  476.28	-1414.03	  305.27
     51.1329	  499.00	  485.41	-1409.16	  305.00
     51.1663	  540.00	  495.81	-1378.56	  304.71
     51.1997	  565.00	  507.72	-1365.47	  304.41
     51.2332	  541.00	  521.45	-1403.20	  304.11
     51.2666	  565.00	  537.39	-1395.14	  303.80
     51.3000	  524.00	  556.01	-1454.76	  303.50
     51.3334	  594.00	  577.91	-1406.66	  303.20
     51.3669	  615.00	  603.92	-1411.67	  302.90
     51.4003	  736.00	  635.02	-1321.77	  302.60
     51.4337	  788.00	  672.55	-1307.30	  302.30
     51.4671	  789.00	  718.17	-1351.92	  302.00
     51.5005	  914.00	  773.98	-1282.73	  301.69
     51.5340	  905.00	  842.64	-1360.39	  301.39
     51.5674	 1084.00	  927.18	-1265.93	  301.09
     51.6008	 1116.00	 1031.06	-1337.81	  300.79
     51.6342	 1261.00	 1157.62	-1319.37	  300.49
     51.6677	 1396.00	 1308.63	-1335.38	  300.19
     51.7011	 1480.00	 1482.19	-1424.94	  299.88
     51.7345	 1655.00	 1668.61	-1436.36	  299.58
     51.7679	 1791.00	 1847.37	-1479.12	  299.28
     51.8013	 1951.00	 1989.25	-1461.00	  298.98
     51.8348	 1901.00	 2068.07	-1589.82	  298.68
     51.8682	 1937.00	 2075.36	-1561.11	  298.38
     51.9016	 1911.00	 2021.16	-1532.91	  298.08
     51.9350	 1888.00	 1921.20	-1455.95	  297.77
     51.9685	 1747.00	 1787.17	-1462.92	  297.47
     52.0019	 1597.00	 1629.93	-1455.68	  297.17
     52.0353	 1445.00	 1463.37	-1441.12	  296.87
     52.0687	 1286.00	 1302.15	-1438.90	  296.57
     52.1021	 1178.00	 1156.81	-1401.56	  296.27
     52.1356	 1075.00	 1031.93	-1379.68	  295.97
     52.1690	  993.00	  927.65	-1357.40	  295.66
     52.2024	  797.00	  841.93	-1467.68	  295.36
     52.2358	  814.00	  771.84	-1380.59	  295.06
     52.2693	  728.00	  714.59	-1409.34	  294.76
     52.3027	  696.00	  667.62	-1394.37	  294.46
     52.3361	  687.00	  628.86	-1364.61	  294.16
     52.3695	  608.00	  596.64	-1411.39	  293.86
     52.4030	  621.00	  569.64	-1371.39	  293.55
     52.4364	  520.00	  546.82	-1449.57	  293.25
     52.4698	  492.00	  527.37	-1458.12	  292.95
     52.5032	  537.00	  510.65	-1396.40	  292.65
     52.5366	  489.00	  496.18	-1429.93	  292.35
     52.5701	  482.00	  483.57	-1424.32	  292.05
     52.6035	  436.00	  472.50	-1459.25	  291.74
     52.6369	  425.00	  462.73	-1460.48	  291.44
     52.6703	  447.00	  454.06	-1429.81	  291.14
     52.7038	  423.00	  446.34	-1446.09	  290.84
     52.7372	  447.00	  439.41	-1415.16	  290.54
     52.7706	  411.00	  433.18	-1444.93	  290.24
     52.8040	  409.00	  427.55	-1441.30	  289.94
     52.8374	  423.00	  422.45	-1422.20	  289.63
     52.8709	  461.00	  417.80	-1379.55	  289.33
     52.9043	  444.00	  413.55	-1392.30	  289.03
     52.9377	  416.00	  409.66	-1416.41	  288.73
     52.9711	  377.00	  406.08	-1451.83	  288.43
     53.0046	  437.00	  402.78	-1388.53	  288.13
     53.0380	  416.00	  399.73	-1406.48	  287.83
     53.0714	  376.00	  396.90	-1443.65	  287.52
     53.1048	  385.00	  394.26	-1432.01	  287.22
     53.1382	  397.00	  391.81	-1417.56	  286.92
     53.1717	  395.00	  389.51	-1417.26	  286.62
     53.2051	  352.00	  387.36	-1458.11	  286.32
     53.2385	  365.00	  385.34	-1443.09	  286.02
     53.2719	  383.00	  383.44	-1423.19	  285.72
     53.3054	  383.00	  381.65	-1421.40	  285.41
     53.3388	  345.00	  379.96	-1457.71	  285.11
     53.3722	  407.00	  378.48	-1394.23	  284.93
     53.4056	  383.00	  377.12	-1416.87	  284.79
     53.4390	  392.00	  375.83	-1406.58	  284.64
     53.4725	  367.00	  374.62	-1430.37	  284.50
     53.5059	  356.00	  373.47	-1440.22	  284.36
     53.5393	  354.00	  372.38	-1441.13	  284.22
     53.5727	  372.00	  371.34	-1422.09	  284.07
     53.6062	  361.00	  370.36	-1432.11	  283.93
     53.6396	  384.00	  369.42	-1408.17	  283.79
     53.6730	  372.00	  368.52	-1419.27	  283.65
     53.7064	  355.00	  367.67	-1435.42	  283.50
     53.7399	  372.00	  366.85	-1417.60	  283.36
     53.7733	  380.00	  366.07	-1408.82	  283.22
     53.8067	  343.00	  365.32	-1445.07	  283.08
     53.8401	  352.00	  364.60	-1435.35	  282.94
     53.8735	  380.00	  363.91	-1406.66	  282.79
     53.9070	  354.00	  363.24	-1431.99	  282.65
     53.9404	  349.00	  362.60	-1436.35	  282.51
     53.9738	  372.00	  352.64	-1403.39	  282.37
     54.0072	  366.00	  352.33	-1409.08	  282.22
     54.0407	  378.00	  352.02	-1396.77	  282.08
     54.0741	  384.00	  351.73	-1390.48	  281.94
     54.1075	  393.00	  346.76	-1376.51	  281.80
     54.1409	  356.00	  346.62	-1413.37	  281.65
     54.1743	  359.00	  346.48	-1410.23	  281.51
     54.2078	  374.00	  346.34	-1395.09	  281.37
     54.2412	  362.00	  346.19	-1406.94	  281.23
     54.2746	  366.00	  346.05	-1402.80	  281.08
     54.3080	  369.00	  345.91	-1399.66	  280.94
     54.3415	  345.00	  345.77	-1423.52	  280.80
     54.3749	  322.00	  345.62	-1446.37	  280.66
     54.4083	  376.00	  345.48	-1392.23	  280.52
     54.4417	  376.00	  345.34	-1392.09	  280.37
     54.4752	  356.00	  345.20	-1411.95	  280.23
     54.5086	  368.00	  345.05	-1399.80	  280.09
     54.5420	  365.00	  344.91	-1402.66	  279.95
     54.5754	  347.00	  344.77	-1420.52	  279.80
     54.6088	  369.00	  344.63	-1398.38	  279.66
     54.6423	  367.00	  344.48	-1400.23	  279.52
     54.6757	  353.00	  344.34	-1414.09	  279.38
     54.7091	  379.00	  344.20	-1387.95	  279.23
     54.7425	  371.00	  344.06	-1395.81	  279.09
     54.7759	  328.00	  343.92	-1438.67	  278.95
     54.8094	  326.00	  343.77	-1440.52	  278.81
     54.8428	  395.00	  343.63	-1371.38	  278.66
     54.8762	  358.00	  343.49	-1408.24	  278.52
     54.9096	  348.00	  343.35	-1418.10	  278.38
     54.9431	  345.00	  343.20	-1420.95	  278.24
     54.9765	  383.00	  343.06	-1382.81	  278.09
     55.0099	  372.00	  342.92	-1393.67	  277.95
     55.0433	  324.00	  342.78	-1441.53	  277.81
     55.0768	  342.00	  342.63	-1423.38	  277.67
     55.1102	  369.00	  342.49	-1396.24	  277.53
     55.1436	  379.00	  342.35	-1386.10	  277.38
     55.1770	  314.00	  342.21	-1450.96	  277.24
     55.2104	  357.00	  342.06	-1407.81	  277.10
     55.2439	  330.00	  341.92	-1434.67	  276.96
     55.2773	  361.00	  341.78	-1403.53	  276.81
     55.3107	  335.00	  341.64	-1429.39	  276.67
     55.3441	  321.00	  341.50	-1443.25	  276.53
     55.3776	  343.00	  341.35	-1421.10	  276.39
     55.4110	  323.00	  341.21	-1440.96	  276.24
     55.4444	  333.00	  341.06	-1430.81	  276.09
     55.4778	  307.00	  340.90	-1456.65	  275.93
     55.5112	  363.00	  340.74	-1400.49	  275.77
     55.5447	  326.00	  340.58	-1437.33	  275.61
     55.5781	  341.00	  340.42	-1422.17	  275.45
     55.6115	  306.00	  340.26	-1457.01	  275.29
     55.6449	  358.00	  340.10	-1404.85	  275.13
     55.6784	  364.00	  339.94	-1398.69	  274.97
     55.7118	  322.00	  339.78	-1440.53	  274.81
     55.7452	  308.00	  339.62	-1454.37	  274.66
     55.7786	  366.00	  339.46	-1396.21	  274.50
     55.8120	  371.00	  339.30	-1391.05	  274.34
     55.8455	  338.00	  339.14	-1423.89	  274.18
     55.8789	  346.00	  338.98	-1415.73	  274.02
     55.9123	  364.00	  338.82	-1397.57	  273.86
     55.9457	  334.00	  338.66	-1427.41	  273.70
     55.9792	  376.00	  338.51	-1385.26	  273.54
     56.0126	  335.00	  338.35	-1426.10	  273.38
     56.0460	  330.00	  338.19	-1430.94	  273.22
     56.0794	  346.00	  338.03	-1414.78	  273.06
     56.1129	  355.00	  337.87	-1405.62	  272.90
     56.1463	  340.00	  337.71	-1420.46	  272.74
     56.1797	  297.00	  337.55	-1463.30	  272.58
     56.2131	  351.00	  337.39	-1409.14	  272.42
     56.2465	  336.00	  337.23	-1423.98	  272.26
     56.2800	  337.00	  337.07	-1422.82	  272.10
     56.3134	  335.00	  336.91	-1424.66	  271.94
     56.3468	  351.00	  336.75	-1408.50	  271.79
     56.3802	  332.00	  336.59	-1427.34	  271.63
     56.4137	  302.00	  336.43	-1457.18	  271.47
     56.4471	  338.00	  336.27	-1421.02	  271.31
     56.4805	  322.00	  336.11	-1436.86	  271.15
     56.5139	  348.00	  335.95	-1410.70	  270.99
     56.5473	  378.00	  335.79	-1380.54	  270.83
     56.5808	  330.00	  335.64	-1428.39	  270.67
     56.6142	  358.00	  335.48	-1400.23	  270.51
     56.6476	  342.00	  335.32	-1416.07	  270.35
     56.6810	  384.00	  335.16	-1373.91	  270.19
     56.7145	  356.00	  335.00	-1401.75	  270.03
     56.7479	  320.00	  334.84	-1437.59	  269.87
     56.7813	  305.00	  334.68	-1452.43	  269.71
     56.8147	  352.00	  334.52	-1405.27	  269.55
     56.8481	  367.00	  334.36	-1390.11	  269.39
     56.8816	  342.00	  334.20	-1414.95	  269.23
     56.9150	  344.00	  334.04	-1412.79	  269.07
     56.9484	  341.00	  333.88	-1415.63	  268.92
     56.9818	  336.00	  333.72	-1420.47	  268.76
     57.0153	  348.00	  333.56	-1408.31	  268.60
     57.0487	  367.00	  333.40	-1389.15	  268.44
     57.0821	  318.00	  333.24	-1437.99	  268.28
     57.1155	  336.00	  333.08	-1419.83	  268.12
     57.1489	  344.00	  332.92	-1411.67	  267.96
     57.1824	  351.00	  332.77	-1404.52	  267.80
     57.2158	  321.00	  332.61	-1434.36	  267.64
     57.2492	  356.00	  332.45	-1399.20	  267.48
     57.2826	  374.00	  332.29	-1381.04	  267.32
     57.3161	  327.00	  332.13	-1427.88	  267.16
     57.3495	  338.00	  331.97	-1416.72	  267.00
     57.3829	  357.00	  331.81	-1397.56	  266.84
     57.4163	  354.00	  331.65	-1400.40	  266.68
     57.4498	  330.00	  331.49	-1424.24	  266.52
     57.4832	  338.00	  331.33	-1416.08	  266.36
     57.5166	  341.00	  331.17	-1412.92	  266.20
     57.5500	  368.00	  331.01	-1385.76	  266.04
     57.5834	  318.00	  330.85	-1435.60	  265.89
     57.6169	  338.00	  330.69	-1415.44	  265.73
     57.6503	  325.00	  330.53	-1428.28	  265.57
     57.6837	  362.00	  330.37	-1391.12	  265.41
     57.7171	  324.00	  330.21	-1428.96	  265.25
     57.7506	  323.00	  330.05	-1429.80	  265.09
     57.7840	  326.00	  329.89	-1426.64	  264.93
     57.8174	  327.00	  329.74	-1425.49	  264.77
     57.8508	  308.00	  329.58	-1444.33	  264.61
     57.8842	  320.00	  329.42	-1432.17	  264.45
     57.9177	  396.00	  329.26	-1356.01	  264.29
     57.9511	  330.00	  329.10	-1421.85	  264.13
     57.9845	  286.00	  328.94	-1465.69	  263.97
     58.0179	  312.00	  328.78	-1439.53	  263.81
     58.0514	  337.00	  328.62	-1414.37	  263.65
     58.0848	  352.00	  328.46	-1399.21	  263.49
     58.1182	  334.00	  328.30	-1417.05	  263.33
     58.1516	  332.00	  328.14	-1418.89	  263.17
     58.1851	  338.00	  327.98	-1412.73	  263.02
     58.2185	  335.00	  327.82	-1415.57	  262.86
     58.2519	  305.00	  327.66	-1445.41	  262.70
     58.2853	  358.00	  327.50	-1392.25	  262.54
     58.3187	  321.00	  327.34	-1429.09	  262.38
     58.3522	  341.00	  327.18	-1408.93	  262.22
     58.3856	  364.00	  327.02	-1385.77	  262.06
     58.4190	  311.00	  326.87	-1438.62	  261.90
     58.4524	  344.00	  326.71	-1405.46	  261.74
     58.4859	  336.00	  326.55	-1413.30	  261.58
     58.5193	  351.00	  326.39	-1398.14	  261.42
     58.5527	  336.00	  326.23	-1412.98	  261.26
     58.5861	  336.00	  326.07	-1412.82	  261.10
     58.6195	  359.00	  325.91	-1389.66	  260.94
     58.6530	  362.00	  325.75	-1386.50	  260.78
     58.6864	  362.00	  325.66	-1386.41	  260.69
     58.7198	  353.00	  325.60	-1395.35	  260.63
     58.7532	  332.00	  325.54	-1416.29	  260.57
     58.7867	  343.00	  325.48	-1405.23	  260.52
     58.8201	  354.00	  325.42	-1394.17	  260.46
     58.8535	  323.00	  325.36	-1425.11	  260.40
     58.8869	  328.00	  325.31	-1420.06	  260.34
     58.9203	  320.00	  325.25	-1428.00	  260.28
     58.9538	  323.00	  325.19	-1424.94	  260.22
     58.9872	  317.00	  325.13	-1430.88	  260.16
     59.0206	  356.00	  325.07	-1391.82	  260.10
     59.0540	  322.00	  325.01	-1425.76	  260.04
     59.0875	  348.00	  324.95	-1399.70	  259.99
     59.1209	  292.00	  324.89	-1455.64	  259.93
     59.1543	  334.00	  324.83	-1413.58	  259.87
     59.1877	  343.00	  324.78	-1404.53	  259.81
     59.2211	  308.00	  324.72	-1439.47	  259.75
     59.2546	  334.00	  324.66	-1413.41	  259.69
     59.2880	  287.00	  324.60	-1460.35	  259.63
     59.3214	  359.00	  324.54	-1388.29	  259.57
     59.3548	  363.00	  324.48	-1384.23	  259.51
     59.3883	  302.00	  324.42	-1445.17	  259.46
     59.4217	  316.00	  324.36	-1431.11	  259.40
     59.4551	  334.00	  324.30	-1413.05	  259.34
     59.4885	  364.00	  324.25	-1383.00	  259.28
     59.5219	  335.00	  324.19	-1411.94	  259.22
     59.5554	  304.00	  324.13	-1442.88	  259.16
     59.5888	  336.00	  324.07	-1410.82	  259.10
     59.6222	  307.00	  324.01	-1439.76	  259.04
     59.6556	  328.00	  323.95	-1418.70	  258.98
     59.6891	  342.00	  323.89	-1404.64	  258.93
     59.7225	  349.00	  323.83	-1397.58	  258.87
     59.7559	  345.00	  323.77	-1401.52	  258.81
     59.7893	  346.00	  323.71	-1400.46	  258.75
     59.8228	  336.00	  323.66	-1410.41	  258.69
     59.8562	  324.00	  323.60	-1422.35	  258.63
     59.8896	  320.00	  323.54	-1426.29	  258.57
     59.9230	  310.00	  323.48	-1436.23	  258.51
     59.9564	  328.00	  323.42	-1418.17	  258.45
     59.9899	  336.00	  323.36	-1410.11	  258.40
     60.0233	  314.00	  323.30	-1432.05	  258.34
     60.0567	  347.00	  323.24	-1398.99	  258.28
     60.0901	  299.00	  323.18	-1446.93	  258.22
     60.1236	  346.00	  323.13	-1399.88	  258.16
     60.1570	  334.00	  323.07	-1411.82	  258.10
     60.1904	  281.00	  323.01	-1464.76	  258.04
     60.2238	  359.00	  322.95	-1386.70	  257.98
     60.2572	  314.00	  322.89	-1431.64	  257.92
     60.2907	  330.00	  322.83	-1415.58	  257.87
     60.3241	  305.00	  322.77	-1440.52	  257.81
     60.3575	  353.00	  322.71	-1392.46	  257.75
     60.3909	  357.00	  322.65	-1388.40	  257.69
     60.4244	  348.00	  322.60	-1397.35	  257.63
     60.4578	  302.00	  322.54	-1443.29	  257.57
     60.4912	  311.00	  322.48	-1434.23	  257.51
     60.5246	  304.00	  322.42	-1441.17	  257.45
     60.5581	  325.00	  322.36	-1420.11	  257.39
     60.5915	  347.00	  322.30	-1398.05	  257.33
     60.6249	  321.00	  322.24	-1423.99	  257.28
     60.6583	  369.00	  322.18	-1375.93	  257.22
     60.6917	  311.00	  322.12	-1433.87	  257.16
     60.7252	  341.00	  322.07	-1403.82	  257.10
     60.7586	  310.00	  322.01	-1434.76	  257.04
     60.7920	  305.00	  321.95	-1439.70	  256.98
     60.8254	  302.00	  321.89	-1442.64	  256.92
     60.8588	  325.00	  321.83	-1419.58	  256.86
     60.8923	  332.00	  321.77	-1412.52	  256.80
     60.9257	  351.00	  321.71	-1393.46	  256.75
     60.9591	  349.00	  321.65	-1395.40	  256.69
     60.9925	  349.00	  321.59	-1395.34	  256.63
     61.0260	  306.00	  321.54	-1438.29	  256.57
     61.0594	  328.00	  321.48	-1416.23	  256.51
     61.0928	  316.00	  321.42	-1428.17	  256.45
     61.1262	  308.00	  321.36	-1436.11	  256.39
     61.1597	  336.00	  321.30	-1408.05	  256.33
     61.1931	  321.00	  321.24	-1422.99	  256.27
     61.2265	  330.00	  321.18	-1413.93	  256.22
     61.2599	  306.00	  321.12	-1437.87	  256.16
     61.2933	  349.00	  321.06	-1394.81	  256.10
     61.3268	  314.00	  321.01	-1429.76	  256.04
     61.3602	  289.00	  320.95	-1454.70	  255.98
     61.3936	  325.00	  320.89	-1418.64	  255.92
     61.4270	  293.00	  320.83	-1450.58	  255.86
     61.4605	  321.00	  320.77	-1422.52	  255.80
     61.4939	  338.00	  320.71	-1405.46	  255.74
     61.5273	  357.00	  320.65	-1386.40	  255.69
     61.5607	  306.00	  320.59	-1437.34	  255.63
     61.5941	  324.00	  320.53	-1419.28	  255.57
     61.6276	  327.00	  320.47	-1416.22	  255.51
     61.6610	  293.00	  320.42	-1450.17	  255.45
     61.6944	  316.00	  320.36	-1427.11	  255.39
     61.7278	  307.00	  320.30	-1436.05	  255.33
     61.7613	  353.00	  320.24	-1389.99	  255.27
     61.7947	  336.00	  320.18	-1406.93	  255.21
     61.8281	  325.00	  320.12	-1417.87	  255.16
     61.8615	  293.00	  320.06	-1449.81	  255.10
     61.8950	  353.00	  320.00	-1389.75	  255.04
     61.9284	  321.00	  319.94	-1421.69	  254.98
     61.9618	  308.00	  319.89	-1434.64	  254.92
     61.9952	  345.00	  319.83	-1397.58	  254.86
     62.0286	  344.00	  319.77	-1398.52	  254.80
     62.0621	  299.00	  319.71	-1443.46	  254.74
     62.0955	  327.00	  319.65	-1415.40	  254.68
     62.1289	  326.00	  319.59	-1416.34	  254.62
     62.1623	  285.00	  319.53	-1457.28	  254.57
     62.1958	  344.00	  319.47	-1398.22	  254.51
     62.2292	  293.00	  319.41	-1449.16	  254.45
     62.2626	  314.00	  319.36	-1428.11	  254.39
     62.2960	  346.00	  319.30	-1396.05	  254.33
     62.3294	  332.00	  319.24	-1409.99	  254.27
     62.3629	  312.00	  319.18	-1429.93	  254.21
     62.3963	  330.00	  319.12	-1411.87	  254.15
     62.4297	  323.00	  319.06	-1418.81	  254.09
     62.4631	  311.00	  318.98	-1430.73	  254.02
     62.4966	  344.00	  318.91	-1397.66	  253.94
     62.5300	  318.00	  318.84	-1423.59	  253.87
     62.5634	  315.00	  318.76	-1426.51	  253.79
     62.5968	  318.00	  318.69	-1423.44	  253.72
     62.6302	  331.00	  318.61	-1410.36	  253.65
     62.6637	  312.00	  318.54	-1429.29	  253.57
     62.6971	  323.00	  318.46	-1418.21	  253.50
     62.7305	  332.00	  318.39	-1409.14	  253.42
     62.7639	  352.00	  318.32	-1389.07	  253.35
     62.7974	  341.00	  318.24	-1399.99	  253.27
     62.8308	  308.00	  318.17	-1432.92	  253.20
     62.8642	  318.00	  318.09	-1422.84	  253.13
     62.8976	  343.00	  318.02	-1397.77	  253.05
     62.9311	  336.00	  317.94	-1404.69	  252.98
     62.9645	  374.00	  317.87	-1366.62	  252.90
     62.9979	  341.00	  317.80	-1399.55	  252.83
     63.0313	  308.00	  317.72	-1432.47	  252.75
     63.0647	  318.00	  317.65	-1422.40	  252.68
     63.0982	  318.00	  317.57	-1422.32	  252.61
     63.1316	  345.00	  317.50	-1395.25	  252.53
     63.1650	  299.00	  317.42	-1441.17	  252.46
     63.1984	  385.00	  317.35	-1355.10	  252.38
     63.2318	  328.00	  317.28	-1412.03	  252.31
     63.2653	  323.00	  317.20	-1416.95	  252.23
     63.2987	  333.00	  317.13	-1406.88	  252.16
     63.3321	  332.00	  317.05	-1407.80	  252.09
     63.3655	  320.00	  316.98	-1419.73	  252.01
     63.3990	  358.00	  316.90	-1381.65	  251.94
     63.4324	  330.00	  316.83	-1409.58	  251.86
     63.4658	  316.00	  316.76	-1423.51	  251.79
     63.4992	  274.00	  316.68	-1465.43	  251.72
     63.5327	  332.00	  316.61	-1407.36	  251.64
     63.5661	  346.00	  316.53	-1393.28	  251.57
     63.5995	  337.00	  316.46	-1402.21	  251.49
     63.6329	  331.00	  316.38	-1408.13	  251.42
     63.6663	  335.00	  316.31	-1404.06	  251.34
     63.6998	  364.00	  316.24	-1374.99	  251.27
     63.7332	  342.00	  316.16	-1396.91	  251.20
     63.7666	  331.00	  316.09	-1407.84	  251.12
     63.8000	  318.00	  316.01	-1420.76	  251.05
     63.8335	  306.00	  315.94	-1432.69	  250.97
     63.8669	  348.00	  315.86	-1390.61	  250.90
     63.9003	  310.00	  315.79	-1428.54	  250.82
     63.9337	  330.00	  315.72	-1408.47	  250.75
     63.9671	  306.00	  315.64	-1432.39	  250.68
     64.0006	  333.00	  315.57	-1405.32	  250.60
     64.0340	  336.00	  315.49	-1402.24	  250.53
     64.0674	  367.00	  315.42	-1371.17	  250.45
     64.1008	  358.00	  315.34	-1380.09	  250.38
     64.1343	  313.00	  315.27	-1425.02	  250.30
     64.1677	  310.00	  315.20	-1427.95	  250.23
     64.2011	  361.00	  315.12	-1376.87	  250.16
     64.2345	  331.00	  315.05	-1406.80	  250.08
     64.2680	  301.00	  314.97	-1436.72	  250.01
     64.3014	  351.00	  314.90	-1386.65	  249.93
     64.3348	  330.00	  314.82	-1407.57	  249.86
     64.3682	  310.00	  314.75	-1427.50	  249.78
     64.4016	  304.00	  314.68	-1433.43	  249.71
     64.4351	  301.00	  314.60	-1436.35	  249.64
     64.4685	  346.00	  314.53	-1391.28	  249.56
     64.5019	  277.00	  314.45	-1460.20	  249.49
     64.5353	  312.00	  314.38	-1425.13	  249.41
     64.5688	  315.00	  314.30	-1422.05	  249.34
     64.6022	  323.00	  314.23	-1413.98	  249.26
     64.6356	  311.00	  314.16	-1425.91	  249.19
     64.6690	  312.00	  314.08	-1424.83	  249.12
     64.7024	  321.00	  314.01	-1415.76	  249.04
     64.7359	  302.00	  313.93	-1434.68	  248.97
     64.7693	  325.00	  313.86	-1411.61	  248.89
     64.8027	  335.00	  313.78	-1401.53	  248.82
     64.8361	  321.00	  313.71	-1415.46	  248.74
     64.8696	  322.00	  313.64	-1414.39	  248.67
     64.9030	  291.00	  313.56	-1445.31	  248.60
     64.9364	  325.00	  313.49	-1411.24	  248.52
     64.9698	  299.00	  313.41	-1437.16	  248.45
     65.0033	  326.00	  313.34	-1410.09	  248.37
     65.0367	  293.00	  313.26	-1443.01	  248.30
     65.0701	  321.00	  313.19	-1414.94	  248.22
     65.1035	  302.00	  313.12	-1433.87	  248.15
     65.1369	  324.00	  313.04	-1411.79	  248.08
     65.1704	  326.00	  312.97	-1409.72	  248.00
     65.2038	  332.00	  312.89	-1403.64	  247.93
     65.2372	  317.00	  312.82	-1418.57	  247.85
     65.2706	  290.00	  312.74	-1445.49	  247.78
     65.3040	  328.00	  312.67	-1407.42	  247.70
     65.3375	  330.00	  312.60	-1405.35	  247.63
     65.3709	  312.00	  312.52	-1423.27	  247.56
     65.4043	  318.00	  312.45	-1417.20	  247.48
     65.4377	  321.00	  312.42	-1414.17	  247.45
     65.4712	  320.00	  312.39	-1415.14	  247.42
     65.5046	  323.00	  312.36	-1412.11	  247.39
     65.5380	  327.00	  312.33	-1408.08	  247.36
     65.5714	  322.00	  312.30	-1413.05	  247.33
     65.6049	  289.00	  312.27	-1446.02	  247.30
     65.6383	  335.00	  312.24	-1399.99	  247.27
     65.6717	  324.00	  312.21	-1410.96	  247.24
     65.7051	  307.00	  312.18	-1427.93	  247.21
     65.7385	  292.00	  312.15	-1442.90	  247.18
     65.7720	  303.00	  312.12	-1431.87	  247.15
     65.8054	  352.00	  312.09	-1382.84	  247.12
     65.8388	  308.00	  312.06	-1426.81	  247.09
     65.8722	  336.00	  312.03	-1398.78	  247.06
     65.9057	  291.00	  312.00	-1443.75	  247.03
     65.9391	  295.00	  311.97	-1439.72	  247.00
     65.9725	  343.00	  311.94	-1391.69	  246.97
     66.0059	  315.00	  311.91	-1419.66	  246.94
     66.0393	  300.00	  311.88	-1434.63	  246.91
     66.0728	  287.00	  311.85	-1447.60	  246.88
     66.1062	  292.00	  311.82	-1442.57	  246.85
     66.1396	  364.00	  311.79	-1370.54	  246.82
     66.1730	  312.00	  311.76	-1422.51	  246.79
     66.2065	  286.00	  311.73	-1448.48	  246.76
     66.2399	  286.00	  311.70	-1448.45	  246.73
     66.2733	  281.00	  311.67	-1453.42	  246.70
     66.3067	  310.00	  311.64	-1424.39	  246.67
     66.3401	  303.00	  311.61	-1431.36	  246.64
     66.3736	  307.00	  311.58	-1427.33	  246.61
     66.4070	  327.00	  311.55	-1407.30	  246.58
     66.4404	  349.00	  311.52	-1385.27	  246.55
     66.4738	  321.00	  311.49	-1413.24	  246.52
     66.5073	  320.00	  311.46	-1414.21	  246.49
     66.5407	  312.00	  311.43	-1422.18	  246.46
     66.5741	  323.00	  311.40	-1411.15	  246.43
     66.6075	  291.00	  311.37	-1443.12	  246.40
     66.6410	  315.00	  311.34	-1419.09	  246.37
     66.6744	  348.00	  311.31	-1386.06	  246.34
     66.7078	  284.00	  311.28	-1450.03	  246.31
     66.7412	  334.00	  311.25	-1400.00	  246.28
     66.7746	  308.00	  311.22	-1425.97	  246.25
     66.8081	  327.00	  311.19	-1406.94	  246.22
     66.8415	  296.00	  311.16	-1437.91	  246.19
     66.8749	  269.00	  311.13	-1464.88	  246.16
     66.9083	  332.00	  311.10	-1401.85	  246.13
     66.9418	  331.00	  311.07	-1402.82	  246.10
     66.9752	  318.00	  311.04	-1415.79	  246.07
     67.0086	  322.00	  311.01	-1411.76	  246.04
     67.0420	  291.00	  310.98	-1442.73	  246.01
     67.0754	  293.00	  310.95	-1440.70	  245.98
     67.1089	  285.00	  310.92	-1448.67	  245.95
     67.1423	  327.00	  310.89	-1406.64	  245.92
     67.1757	  289.00	  310.86	-1444.61	  245.89
     67.2091	  314.00	  310.83	-1419.58	  245.86
     67.2426	  307.00	  310.80	-1426.55	  245.83
     67.2760	  327.00	  310.77	-1406.52	  245.80
     67.3094	  297.00	  310.74	-1436.49	  245.77
     67.3428	  307.00	  310.71	-1426.46	  245.74
     67.3762	  301.00	  310.68	-1432.43	  245.71
     67.4097	  310.00	  310.65	-1423.40	  245.68
     67.4431	  315.00	  310.62	-1418.37	  245.65
     67.4765	  271.00	  310.59	-1462.34	  245.62
     67.5099	  306.00	  310.56	-1427.31	  245.59
     67.5434	  305.00	  310.53	-1428.28	  245.56
     67.5768	  303.00	  310.50	-1430.25	  245.53
     67.6102	  286.00	  310.47	-1447.22	  245.50
     67.6436	  323.00	  310.44	-1410.19	  245.47
     67.6770	  322.00	  310.41	-1411.16	  245.44
     67.7105	  331.00	  310.38	-1402.13	  245.41
     67.7439	  297.00	  310.35	-1436.10	  245.38
     67.7773	  343.00	  310.32	-1390.07	  245.35
     67.8107	  316.00	  310.29	-1417.04	  245.32
     67.8442	  306.00	  310.26	-1427.01	  245.29
     67.8776	  331.00	  310.23	-1401.98	  245.26
     67.9110	  292.00	  310.20	-1440.95	  245.23
     67.9444	  326.00	  310.17	-1406.92	  245.20
     67.9779	  353.00	  310.14	-1379.89	  245.17
     68.0113	  301.00	  310.11	-1431.86	  245.14
     68.0447	  332.00	  310.08	-1400.83	  245.11
     68.0781	  323.00	  310.05	-1409.80	  245.08
     68.1115	  287.00	  310.02	-1445.77	  245.05
     68.1450	  321.00	  309.99	-1411.74	  245.02
     68.1784	  316.00	  309.96	-1416.71	  244.99
     68.2118	  321.00	  309.93	-1411.68	  244.96
     68.2452	  295.00	  309.90	-1437.65	  244.93
     68.2787	  302.00	  309.87	-1430.62	  244.90
     68.3121	  296.00	  309.84	-1436.59	  244.87
     68.3455	  307.00	  309.81	-1425.56	  244.84
     68.3789	  294.00	  309.78	-1438.53	  244.81
     68.4123	  325.00	  309.75	-1407.50	  244.78
     68.4458	  332.00	  309.72	-1400.47	  244.75
     68.4792	  301.00	  309.69	-1431.44	  244.72
     68.5126	  312.00	  309.66	-1420.41	  244.69
     68.5460	  299.00	  309.63	-1433.38	  244.66
     68.5795	  300.00	  309.60	-1432.35	  244.63
     68.6129	  296.00	  309.57	-1436.32	  244.60
     68.6463	  283.00	  309.54	-1449.29	  244.57
     68.6797	  311.00	  309.51	-1421.26	  244.54
     68.7132	  313.00	  309.48	-1419.23	  244.51
     68.7466	  310.00	  309.45	-1422.20	  244.48
     68.7800	  314.00	  309.42	-1418.17	  244.45
     68.8134	  304.00	  309.39	-1428.14	  244.42
     68.8468	  292.00	  309.36	-1440.11	  244.39
     68.8803	  316.00	  309.33	-1416.08	  244.36
     68.9137	  336.00	  309.30	-1396.05	  244.33
     68.9471	  324.00	  309.27	-1408.02	  244.30
     68.9805	  331.00	  309.24	-1400.99	  244.27
     69.0140	  322.00	  309.21	-1409.96	  244.24
     69.0474	  333.00	  309.18	-1398.93	  244.21
     69.0808	  300.00	  309.15	-1431.90	  244.18
     69.1142	  318.00	  309.12	-1413.87	  244.15
     69.1476	  312.00	  309.09	-1419.84	  244.12
     69.1811	  294.00	  309.06	-1437.81	  244.09
     69.2145	  317.00	  309.03	-1414.78	  244.06
     69.2479	  304.00	  309.00	-1427.75	  244.03
     69.2813	  315.00	  308.97	-1416.72	  244.00
     69.3148	  332.00	  308.94	-1399.69	  243.97
     69.3482	  304.00	  308.91	-1427.66	  243.94
     69.3816	  324.00	  308.88	-1407.63	  243.91
     69.4150	  343.00	  308.85	-1388.60	  243.88
     69.4484	  308.00	  308.82	-1423.57	  243.85
     69.4819	  315.00	  308.79	-1416.54	  243.82
     69.5153	  328.00	  308.76	-1403.51	  243.79
     69.5487	  290.00	  308.73	-1441.48	  243.76
     69.5821	  313.00	  308.70	-1418.45	  243.73
     69.6156	  303.00	  308.67	-1428.42	  243.70
     69.6490	  297.00	  308.64	-1434.39	  243.67
     69.6824	  310.00	  308.61	-1421.36	  243.64
     69.7158	  320.00	  308.58	-1411.33	  243.61
     69.7492	  302.00	  308.55	-1429.30	  243.58
     69.7827	  297.00	  308.52	-1434.27	  243.55
     69.8161	  321.00	  308.49	-1410.24	  243.52
     69.8495	  336.00	  308.46	-1395.21	  243.49
     69.8829	  322.00	  308.43	-1409.18	  243.46
     69.9164	  305.00	  308.40	-1426.15	  243.43
     69.9498	  311.00	  308.37	-1420.12	  243.40
     69.9832	  312.00	  308.34	-1419.09	  243.37
     70.0166	  316.00	  308.31	-1415.06	  243.34
     70.0500	  322.00	  308.28	-1409.03	  243.31
     70.0835	  293.00	  308.25	-1438.00	  243.28
     70.1169	  304.00	  308.22	-1426.97	  243.25
     70.1503	  305.00	  308.19	-1425.94	  243.22
     70.1837	  285.00	  308.16	-1445.91	  243.19
     70.2172	  276.00	  308.13	-1454.88	  243.16
     70.2506	  292.00	  308.10	-1438.85	  243.13
     70.2840	  286.00	  308.07	-1444.82	  243.10
     70.3174	  295.00	  308.04	-1435.79	  243.07
     70.3509	  292.00	  308.01	-1438.76	  243.05
     70.3843	  294.00	  307.99	-1436.74	  243.03
     70.4177	  314.00	  307.97	-1416.72	  243.01
     70.4511	  304.00	  307.95	-1426.70	  242.99
     70.4845	  320.00	  307.93	-1410.68	  242.96
     70.5180	  311.00	  307.91	-1419.66	  242.94
     70.5514	  291.00	  307.89	-1439.64	  242.92
     70.5848	  303.00	  307.87	-1427.62	  242.90
     70.6182	  321.00	  307.85	-1409.60	  242.88
     70.6517	  312.00	  307.83	-1418.58	  242.86
     70.6851	  335.00	  307.80	-1395.55	  242.84
     70.7185	  320.00	  307.78	-1410.53	  242.82
     70.7519	  311.00	  307.76	-1419.51	  242.80
     70.7853	  304.00	  307.74	-1426.49	  242.77
     70.8188	  328.00	  307.72	-1402.47	  242.75
     70.8522	  282.00	  307.70	-1448.45	  242.73
     70.8856	  272.00	  307.68	-1458.43	  242.71
     70.9190	  281.00	  307.66	-1449.41	  242.69
     70.9525	  302.00	  307.64	-1428.39	  242.67
     70.9859	  338.00	  307.61	-1392.36	  242.65
     71.0193	  302.00	  307.59	-1428.34	  242.63
     71.0527	  328.00	  307.57	-1402.32	  242.61
     71.0862	  296.00	  307.55	-1434.30	  242.58
     71.1196	  314.00	  307.53	-1416.28	  242.56
     71.1530	  321.00	  307.51	-1409.26	  242.54
     71.1864	  280.00	  307.49	-1450.24	  242.52
     71.2198	  303.00	  307.47	-1427.22	  242.50
     71.2533	  313.00	  307.45	-1417.20	  242.48
     71.2867	  312.00	  307.42	-1418.17	  242.46
     71.3201	  296.00	  307.40	-1434.15	  242.44
     71.3535	  292.00	  307.38	-1438.13	  242.42
     71.3870	  287.00	  307.36	-1443.11	  242.39
     71.4204	  302.00	  307.34	-1428.09	  242.37
     71.4538	  299.00	  307.32	-1431.07	  242.35
     71.4872	  333.00	  307.30	-1397.05	  242.33
     71.5206	  325.00	  307.28	-1405.03	  242.31
     71.5541	  312.00	  307.26	-1418.01	  242.29
     71.5875	  286.00	  307.23	-1443.98	  242.27
     71.6209	  293.00	  307.21	-1436.96	  242.25
     71.6543	  316.00	  307.19	-1413.94	  242.23
     71.6878	  296.00	  307.17	-1433.92	  242.21
     71.7212	  327.00	  307.15	-1402.90	  242.18
     71.7546	  285.00	  307.13	-1444.88	  242.16
     71.7880	  284.00	  307.11	-1445.86	  242.14
     71.8214	  323.00	  307.09	-1406.84	  242.12
     71.8549	  297.00	  307.07	-1432.82	  242.10
     71.8883	  304.00	  307.04	-1425.79	  242.08
     71.9217	  296.00	  307.02	-1433.77	  242.06
     71.9551	  297.00	  307.00	-1432.75	  242.04
     71.9886	  294.00	  306.98	-1435.73	  242.02
     72.0220	  323.00	  306.96	-1406.71	  241.99
     72.0554	  324.00	  306.94	-1405.69	  241.97
     72.0888	  326.00	  306.92	-1403.67	  241.95
     72.1222	  302.00	  306.90	-1427.65	  241.93
     72.1557	  308.00	  306.88	-1421.63	  241.91
     72.1891	  281.00	  306.85	-1448.60	  241.89
     72.2225	  284.00	  306.83	-1445.58	  241.87
     72.2559	  292.00	  306.81	-1437.56	  241.85
     72.2894	  314.00	  306.79	-1415.54	  241.83
     72.3228	  337.00	  306.77	-1392.52	  241.80
     72.3562	  317.00	  306.75	-1412.50	  241.78
     72.3896	  320.00	  306.73	-1409.48	  241.76
     72.4230	  320.00	  306.71	-1409.46	  241.74
     72.4565	  294.00	  306.69	-1435.44	  241.72
     72.4899	  341.00	  306.67	-1388.42	  241.70
     72.5233	  312.00	  306.64	-1417.39	  241.68
     72.5567	  305.00	  306.62	-1424.37	  241.66
     72.5902	  320.00	  306.60	-1409.35	  241.64
     72.6236	  326.00	  306.58	-1403.33	  241.61
     72.6570	  314.00	  306.56	-1415.31	  241.59
     72.6904	  338.00	  306.54	-1391.29	  241.57
     72.7239	  295.00	  306.52	-1434.27	  241.55
     72.7573	  256.00	  306.50	-1473.25	  241.53
     72.7907	  367.00	  306.48	-1362.23	  241.51
     72.8241	  335.00	  306.45	-1394.20	  241.49
     72.8575	  301.00	  306.43	-1428.18	  241.47
     72.8910	  295.00	  306.41	-1434.16	  241.45
     72.9244	  323.00	  306.39	-1406.14	  241.42
     72.9578	  289.00	  306.37	-1440.12	  241.40
     72.9912	  305.00	  306.35	-1424.10	  241.38
     73.0247	  289.00	  306.33	-1440.08	  241.36
     73.0581	  297.00	  306.31	-1432.06	  241.34
     73.0915	  313.00	  306.29	-1416.04	  241.32
     73.1249	  313.00	  306.26	-1416.01	  241.30
     73.1583	  302.00	  306.24	-1426.99	  241.28
     73.1918	  294.00	  306.22	-1434.97	  241.26
     73.2252	  318.00	  306.20	-1410.95	  241.23
     73.2586	  297.00	  306.18	-1431.93	  241.21
     73.2920	  276.00	  306.16	-1452.91	  241.19
     73.3255	  283.00	  306.14	-1445.89	  241.17
     73.3589	  297.00	  306.12	-1431.87	  241.15
     73.3923	  296.00	  306.10	-1432.85	  241.13
     73.4257	  311.00	  306.07	-1417.82	  241.11
     73.4592	  306.00	  306.05	-1422.80	  241.09
     73.4926	  312.00	  306.03	-1416.78	  241.07
     73.5260	  279.00	  306.01	-1449.76	  241.04
     73.5594	  318.00	  305.99	-1410.74	  241.02
     73.5928	  302.00	  305.97	-1426.72	  241.00
     73.6263	  353.00	  305.95	-1375.70	  240.98
     73.6597	  274.00	  305.93	-1454.68	  240.96
     73.6931	  304.00	  305.91	-1424.66	  240.94
     73.7265	  273.00	  305.88	-1455.63	  240.92
     73.7599	  347.00	  305.86	-1381.61	  240.90
     73.7934	  303.00	  305.84	-1425.59	  240.88
     73.8268	  338.00	  305.82	-1390.57	  240.86
     73.8602	  322.00	  305.77	-1406.52	  240.80
     73.8936	  308.00	  305.71	-1420.46	  240.75
     73.9271	  308.00	  305.65	-1420.40	  240.69
     73.9605	  299.00	  305.60	-1429.35	  240.63
     73.9939	  304.00	  305.54	-1424.29	  240.57
     74.0273	  290.00	  305.48	-1438.23	  240.51
     74.0608	  311.00	  305.42	-1417.17	  240.46
     74.0942	  300.00	  305.36	-1428.11	  240.40
     74.1276	  284.00	  305.31	-1444.06	  240.34
     74.1610	  308.00	  305.25	-1420.00	  240.28
     74.1944	  323.00	  311.56	-1411.31	  240.22
     74.2279	  297.00	  311.70	-1437.45	  240.16
     74.2613	  311.00	  311.85	-1423.60	  240.11
     74.2947	  277.00	  312.01	-1457.76	  240.05
     74.3281	  296.00	  312.18	-1438.93	  239.99
     74.3616	  293.00	  312.36	-1442.11	  239.93
     74.3950	  280.00	  312.56	-1455.31	  239.87
     74.4284	  317.00	  315.98	-1421.73	  239.82
     74.4618	  317.00	  316.30	-1422.05	  239.76
     74.4952	  330.00	  316.64	-1409.39	  239.70
     74.5287	  299.00	  317.01	-1440.76	  239.64
     74.5621	  310.00	  317.39	-1430.14	  239.58
     74.5955	  334.00	  317.80	-1406.55	  239.53
     74.6289	  332.00	  318.23	-1408.98	  239.47
     74.6624	  303.00	  318.69	-1438.44	  239.41
     74.6958	  304.00	  319.18	-1437.93	  239.35
     74.7292	  318.00	  319.71	-1424.46	  239.29
     74.7626	  306.00	  320.26	-1437.01	  239.24
     74.7961	  301.00	  320.86	-1442.61	  239.18
     74.8295	  312.00	  321.49	-1432.24	  239.12
     74.8629	  315.00	  322.17	-1429.92	  239.06
     74.8963	  317.00	  322.89	-1428.64	  239.00
     74.9297	  310.00	  323.67	-1436.42	  238.94
     74.9632	  328.00	  324.50	-1419.25	  238.89
     74.9966	  338.00	  325.40	-1410.15	  238.83
     75.0300	  341.00	  326.35	-1408.10	  238.77
     75.0634	  316.00	  327.39	-1434.14	  238.71
     75.0969	  312.00	  328.50	-1439.25	  238.65
     75.1303	  338.00	  329.70	-1414.45	  238.60
     75.1637	  300.00	  330.99	-1453.74	  238.54
     75.1971	  333.00	  332.39	-1422.14	  238.48
     75.2305	  314.00	  333.91	-1442.66	  238.42
     75.2640	  347.00	  335.56	-1411.31	  238.36
     75.2974	  327.00	  337.36	-1433.11	  238.31
     75.3308	  340.00	  339.31	-1422.06	  238.25
     75.3642	  312.00	  341.44	-1452.19	  238.19
     75.3977	  313.00	  343.78	-1453.53	  238.13
     75.4311	  358.00	  346.34	-1411.09	  238.07
     75.4645	  334.00	  349.15	-1437.90	  238.01
     75.4979	  367.00	  352.25	-1408.00	  237.96
     75.5313	  336.00	  355.68	-1442.43	  237.90
     75.5648	  390.00	  359.47	-1392.22	  237.84
     75.5982	  376.00	  363.69	-1410.44	  237.78
     75.6316	  320.00	  368.40	-1471.15	  237.72
     75.6650	  362.00	  373.65	-1434.40	  237.67
     75.6985	  386.00	  379.55	-1416.30	  237.61
     75.7319	  435.00	  386.17	-1373.92	  237.55
     75.7653	  390.00	  393.66	-1426.41	  237.49
     75.7987	  384.00	  402.12	-1440.87	  237.43
     75.8321	  403.00	  411.71	-1431.46	  237.38
     75.8656	  404.00	  422.62	-1441.37	  237.32
     75.8990	  404.00	  435.03	-1453.78	  237.26
     75.9324	  396.00	  449.18	-1475.93	  237.20
     75.9658	  438.00	  465.28	-1450.03	  237.14
     75.9993	  455.00	  483.60	-1451.35	  237.09
     76.0327	  508.00	  504.34	-1419.09	  237.03
     76.0661	  532.00	  527.68	-1418.43	  236.97
     76.0995	  564.00	  553.65	-1412.40	  236.91
     76.1329	  592.00	  582.12	-1412.87	  236.85
     76.1664	  640.00	  612.58	-1395.33	  236.79
     76.1998	  633.00	  644.10	-1433.85	  236.74
     76.2332	  691.00	  675.24	-1406.99	  236.68
     76.2666	  752.00	  704.13	-1374.88	  236.62
     76.3001	  754.00	  728.65	-1397.40	  236.56
     76.3335	  775.00	  746.88	-1394.63	  236.50
     76.3669	  799.00	  757.63	-1381.38	  236.45
     76.4003	  872.00	  760.67	-1311.42	  236.39
     76.4338	  888.00	  756.64	-1291.39	  236.33
     76.4672	  836.00	  746.67	-1333.42	  236.27
     76.5006	  817.00	  731.88	-1337.63	  236.21
     76.5340	  733.00	  713.13	-1402.88	  236.16
     76.5674	  695.00	  691.05	-1418.80	  236.10
     76.6009	  702.00	  666.25	-1387.00	  236.04
     76.6343	  681.00	  639.48	-1381.23	  235.98
     76.6677	  612.00	  611.72	-1422.47	  235.92
     76.7011	  594.00	  583.98	-1412.73	  235.86
     76.7346	  560.00	  557.16	-1419.91	  235.81
     76.7680	  521.00	  531.95	-1433.70	  235.75
     76.8014	  520.00	  508.76	-1411.51	  235.69
     76.8348	  483.00	  487.76	-1427.51	  235.63
     76.8682	  454.00	  468.96	-1437.71	  235.57
     76.9017	  425.00	  452.28	-1450.03	  235.52
     76.9351	  436.00	  437.53	-1424.28	  235.46
     76.9685	  447.00	  424.52	-1400.27	  235.40
     77.0019	  420.00	  413.05	-1415.80	  235.34
     77.0354	  364.00	  402.92	-1461.67	  235.28
     77.0688	  364.00	  393.99	-1452.74	  235.23
     77.1022	  382.00	  386.07	-1426.82	  235.17
     77.1356	  361.00	  379.05	-1440.80	  235.11
     77.1691	  390.00	  372.80	-1405.55	  235.05
     77.2025	  345.00	  367.21	-1444.96	  234.99
     77.2359	  363.00	  362.21	-1421.96	  234.94
     77.2693	  285.00	  357.72	-1495.47	  234.88
     77.3027	  346.00	  353.68	-1430.43	  234.82
     77.3362	  326.00	  350.02	-1446.77	  234.76
     77.3696	  320.00	  346.70	-1449.45	  234.70
     77.4030	  328.00	  343.68	-1438.43	  234.64
     77.4364	  312.00	  340.93	-1451.68	  234.59
     77.4699	  356.00	  338.41	-1405.16	  234.53
     77.5033	  351.00	  336.10	-1407.85	  234.47
     77.5367	  290.00	  333.98	-1466.73	  234.41
     77.5701	  322.00	  332.02	-1432.77	  234.35
     77.6035	  325.00	  330.22	-1427.97	  234.30
     77.6370	  320.00	  328.55	-1431.30	  234.24
     77.6704	  322.00	  327.00	-1427.75	  234.18
     77.7038	  312.00	  325.56	-1436.31	  234.12
     77.7372	  302.00	  324.22	-1444.97	  234.06
     77.7707	  320.00	  322.96	-1425.71	  234.01
     77.8041	  303.00	  321.80	-1441.55	  233.95
     77.8375	  306.00	  320.70	-1437.45	  233.89
     77.8709	  326.00	  319.67	-1416.42	  233.83
     77.9043	  275.00	  318.71	-1466.46	  233.77
     77.9378	  320.00	  317.80	-1420.55	  233.71
     77.9712	  262.00	  316.95	-1477.70	  233.66
     78.0046	  331.00	  316.14	-1407.89	  233.60
     78.0380	  320.00	  315.38	-1418.13	  233.54
     78.0715	  320.00	  314.66	-1417.41	  233.48
     78.1049	  304.00	  313.98	-1432.73	  233.42
     78.1383	  294.00	  313.33	-1442.08	  233.37
     78.1717	  326.00	  312.72	-1409.47	  233.31
     78.2051	  323.00	  312.13	-1411.88	  233.25
     78.2386	  331.00	  311.58	-1403.33	  233.19
     78.2720	  311.00	  311.04	-1422.79	  233.13
     78.3054	  323.00	  310.54	-1410.29	  233.08
     78.3388	  310.00	  310.06	-1422.81	  233.02
     78.3723	  308.00	  309.59	-1424.34	  232.96
     78.4057	  337.00	  309.15	-1394.90	  232.90
     78.4391	  294.00	  308.73	-1437.48	  232.84
     78.4725	  289.00	  308.32	-1442.07	  232.79
     78.5060	  343.00	  301.60	-1381.35	  232.73
     78.5394	  281.00	  301.42	-1443.17	  232.67
     78.5728	  300.00	  301.24	-1423.99	  232.61
     78.6062	  307.00	  301.06	-1416.81	  232.55
     78.6396	  281.00	  300.89	-1442.64	  232.49
     78.6731	  327.00	  300.73	-1396.48	  232.44
     78.7065	  285.00	  297.34	-1435.09	  232.38
     78.7399	  315.00	  297.29	-1405.04	  232.32
     78.7733	  297.00	  297.23	-1422.98	  232.26
     78.8068	  326.00	  297.17	-1393.92	  232.20
     78.8402	  326.00	  297.11	-1393.86	  232.15
     78.8736	  299.00	  297.05	-1420.80	  232.09
     78.9070	  281.00	  297.00	-1438.75	  232.03
     78.9404	  291.00	  296.94	-1428.69	  231.97
     78.9739	  274.00	  296.88	-1445.63	  231.91
     79.0073	  311.00	  296.82	-1408.57	  231.86
     79.0407	  303.00	  296.76	-1416.51	  231.80
     79.0741	  330.00	  296.71	-1389.46	  231.74
     79.1076	  303.00	  296.65	-1416.40	  231.68
     79.1410	  299.00	  296.59	-1420.34	  231.62
     79.1744	  338.00	  296.53	-1381.28	  231.56
     79.2078	  317.00	  296.47	-1402.22	  231.51
     79.2412	  305.00	  296.41	-1414.16	  231.45
     79.2747	  296.00	  296.36	-1423.11	  231.39
     79.3081	  287.00	  296.30	-1432.05	  231.33
     79.3415	  289.00	  296.24	-1429.99	  231.27
     79.3749	  307.00	  296.18	-1411.93	  231.22
     79.4084	  272.00	  296.12	-1446.87	  231.16
     79.4418	  341.00	  296.07	-1377.82	  231.10
     79.4752	  283.00	  296.01	-1435.76	  231.04
     79.5086	  301.00	  295.95	-1417.70	  230.98
     79.5421	  311.00	  295.89	-1407.64	  230.93
     79.5755	  297.00	  295.83	-1421.58	  230.87
     79.6089	  301.00	  295.78	-1417.53	  230.81
     79.6423	  294.00	  295.72	-1424.47	  230.75
     79.6757	  333.00	  295.66	-1385.41	  230.69
     79.7092	  295.00	  295.60	-1423.35	  230.63
     79.7426	  308.00	  295.54	-1410.29	  230.58
     79.7760	  330.00	  295.48	-1388.23	  230.52
     79.8094	  268.00	  295.43	-1450.18	  230.46
     79.8428	  290.00	  295.37	-1428.12	  230.40
     79.8763	  321.00	  295.31	-1397.06	  230.34
     79.9097	  312.00	  295.25	-1406.00	  230.29
     79.9431	  302.00	  295.19	-1415.94	  230.23
     79.9765	  299.00	  295.14	-1418.89	  230.17
     80.0100	  323.00	  295.08	-1394.83	  230.11
     80.0434	  280.00	  295.02	-1437.77	  230.05
     80.0768	  316.00	  294.96	-1401.71	  230.00
     80.1102	  323.00	  294.90	-1394.65	  229.94
     80.1437	  304.00	  294.85	-1413.60	  229.88
     80.1771	  290.00	  294.79	-1427.54	  229.82
     80.2105	  312.00	  294.75	-1405.50	  229.79
     80.2439	  287.00	  294.73	-1430.48	  229.76
     80.2773	  294.00	  294.70	-1423.45	  229.73
     80.3108	  327.00	  294.68	-1390.43	  229.71
     80.3442	  289.00	  294.65	-1428.40	  229.68
     80.3776	  313.00	  294.62	-1404.37	  229.66
     80.4110	  269.00	  294.60	-1448.35	  229.63
     80.4445	  312.00	  294.57	-1405.32	  229.61
     80.4779	  308.00	  294.55	-1409.30	  229.58
     80.5113	  314.00	  294.52	-1403.27	  229.55
     80.5447	  303.00	  294.49	-1414.24	  229.53
     80.5781	  290.00	  294.47	-1427.22	  229.50
     80.6116	  317.00	  294.44	-1400.19	  229.48
     80.6450	  336.00	  294.42	-1381.17	  229.45
     80.6784	  310.00	  294.39	-1407.14	  229.42
     80.7118	  321.00	  294.36	-1396.11	  229.40
     80.7453	  283.00	  294.34	-1434.09	  229.37
     80.7787	  325.00	  294.31	-1392.06	  229.35
     80.8121	  321.00	  294.29	-1396.04	  229.32
     80.8455	  302.00	  294.26	-1415.01	  229.29
     80.8790	  282.00	  294.24	-1434.99	  229.27
     80.9124	  281.00	  294.21	-1435.96	  229.24
     80.9458	  314.00	  294.18	-1402.93	  229.22
     80.9792	  297.00	  294.16	-1419.91	  229.19
     81.0126	  285.00	  294.13	-1431.88	  229.17
     81.0461	  300.00	  294.11	-1416.86	  229.14
     81.0795	  314.00	  294.08	-1402.83	  229.11
     81.1129	  295.00	  294.05	-1421.80	  229.09
     81.1463	  297.00	  294.03	-1419.78	  229.06
     81.1798	  302.00	  294.00	-1414.75	  229.04
     81.2132	  274.00	  293.98	-1442.73	  229.01
     81.2466	  345.00	  293.95	-1371.70	  228.98
     81.2800	  292.00	  293.92	-1424.67	  228.96
     81.3134	  317.00	  293.90	-1399.65	  228.93
     81.3469	  320.00	  293.87	-1396.62	  228.91
     81.3803	  320.00	  293.85	-1396.60	  228.88
     81.4137	  317.00	  293.82	-1399.57	  228.85
     81.4471	  287.00	  293.80	-1429.55	  228.83
     81.4806	  306.00	  293.77	-1410.52	  228.80
     81.5140	  306.00	  293.74	-1410.49	  228.78
     81.5474	  317.00	  293.72	-1399.47	  228.75
     81.5808	  295.00	  293.69	-1421.44	  228.73
     81.6143	  289.00	  293.67	-1427.42	  228.70
     81.6477	  332.00	  293.64	-1384.39	  228.67
     81.6811	  318.00	  293.61	-1398.36	  228.65
     81.7145	  292.00	  293.59	-1424.34	  228.62
     81.7479	  265.00	  293.56	-1451.31	  228.60
     81.7814	  306.00	  293.54	-1410.29	  228.57
     81.8148	  303.00	  293.51	-1413.26	  228.54
     81.8482	  305.00	  293.48	-1411.23	  228.52
     81.8816	  281.00	  293.46	-1435.21	  228.49
     81.9151	  292.00	  293.43	-1424.18	  228.47
     81.9485	  291.00	  293.41	-1425.16	  228.44
     81.9819	  270.00	  293.38	-1446.13	  228.41
     82.0153	  270.00	  293.36	-1446.11	  228.39
     82.0487	  306.00	  293.33	-1410.08	  228.36
     82.0822	  286.00	  293.30	-1430.05	  228.34
     82.1156	  275.00	  293.28	-1441.03	  228.31
     82.1490	  305.00	  293.25	-1411.00	  228.29
     82.1824	  301.00	  293.23	-1414.98	  228.26
     82.2159	  302.00	  293.20	-1413.95	  228.23
     82.2493	  313.00	  293.17	-1402.92	  228.21
     82.2827	  297.00	  293.15	-1418.90	  228.18
     82.3161	  296.00	  293.12	-1419.87	  228.16
     82.3495	  283.00	  293.10	-1432.85	  228.13
     82.3830	  295.00	  293.07	-1420.82	  228.10
     82.4164	  318.00	  293.04	-1397.79	  228.08
     82.4498	  303.00	  293.02	-1412.77	  228.05
     82.4832	  301.00	  292.99	-1414.74	  228.03
     82.5167	  265.00	  292.97	-1450.72	  228.00
     82.5501	  306.00	  292.94	-1409.69	  227.97
     82.5835	  326.00	  292.92	-1389.67	  227.95
     82.6169	  296.00	  292.89	-1419.64	  227.92
     82.6503	  300.00	  292.86	-1415.61	  227.90
     82.6838	  306.00	  292.84	-1409.59	  227.87
     82.7172	  285.00	  292.81	-1430.56	  227.85
     82.7506	  293.00	  292.79	-1422.54	  227.82
     82.7840	  301.00	  292.76	-1414.51	  227.79
     82.8175	  304.00	  292.73	-1411.48	  227.77
     82.8509	  314.00	  292.71	-1401.46	  227.74
     82.8843	  294.00	  292.68	-1421.43	  227.72
     82.9177	  284.00	  292.66	-1431.41	  227.69
     82.9511	  295.00	  292.63	-1420.38	  227.66
     82.9846	  328.00	  292.60	-1387.35	  227.64
     83.0180	  305.00	  292.58	-1410.33	  227.61
     83.0514	  274.00	  292.55	-1441.30	  227.59
     83.0848	  281.00	  292.53	-1434.28	  227.56
     83.1183	  272.00	  292.50	-1443.25	  227.53
     83.1517	  315.00	  292.48	-1400.23	  227.51
     83.1851	  284.00	  292.45	-1431.20	  227.48
     83.2185	  263.00	  292.42	-1452.17	  227.46
     83.2520	  322.00	  292.40	-1393.15	  227.43
     83.2854	  299.00	  292.37	-1416.12	  227.41
     83.3188	  281.00	  292.35	-1434.10	  227.38
     83.3522	  275.00	  292.32	-1440.07	  227.35
     83.3856	  262.00	  292.29	-1453.04	  227.33
     83.4191	  325.00	  292.27	-1390.02	  227.30
     83.4525	  284.00	  292.24	-1430.99	  227.28
     83.4859	  310.00	  292.22	-1404.97	  227.25
     83.5193	  283.00	  292.19	-1431.94	  227.22
     83.5528	  310.00	  292.16	-1404.91	  227.20
     83.5862	  327.00	  292.14	-1387.89	  227.17
     83.6196	  300.00	  292.11	-1414.86	  227.15
     83.6530	  302.00	  292.09	-1412.84	  227.12
     83.6864	  293.00	  292.06	-1421.81	  227.09
     83.7199	  306.00	  292.04	-1408.79	  227.07
     83.7533	  304.00	  292.01	-1410.76	  227.04
     83.7867	  285.00	  291.98	-1429.73	  227.02
     83.8201	  299.00	  291.96	-1415.71	  226.99
     83.8536	  272.00	  291.93	-1442.68	  226.97
     83.8870	  335.00	  291.91	-1379.66	  226.94
     83.9204	  284.00	  291.88	-1430.63	  226.91
     83.9538	  310.00	  291.85	-1404.60	  226.89
     83.9873	  268.00	  291.83	-1446.58	  226.86
     84.0207	  294.00	  291.80	-1420.55	  226.84
     84.0541	  303.00	  291.78	-1411.53	  226.81
     84.0875	  313.00	  291.75	-1401.50	  226.78
     84.1209	  276.00	  291.72	-1438.47	  226.76
     84.1544	  293.00	  291.70	-1421.45	  226.73
     84.1878	  263.00	  291.67	-1451.42	  226.71
     84.2212	  285.00	  291.65	-1429.40	  226.68
     84.2546	  281.00	  291.62	-1433.37	  226.65
     84.2880	  300.00	  291.60	-1414.34	  226.63
     84.3215	  306.00	  291.57	-1408.32	  226.60
     84.3549	  310.00	  291.54	-1404.29	  226.58
     84.3883	  286.00	  291.52	-1428.27	  226.55
     84.4217	  268.00	  291.49	-1446.24	  226.53
     84.4552	  292.00	  291.47	-1422.22	  226.50
     84.4886	  287.00	  291.44	-1427.19	  226.47
     84.5220	  282.00	  291.41	-1432.16	  226.45
     84.5554	  275.00	  291.39	-1439.14	  226.42
     84.5889	  290.00	  291.36	-1424.11	  226.40
     84.6223	  255.00	  291.34	-1459.09	  226.37
     84.6557	  259.00	  291.31	-1455.06	  226.34
     84.6891	  307.00	  291.28	-1407.03	  226.32
     84.7225	  297.00	  291.26	-1417.01	  226.29
     84.7560	  308.00	  291.23	-1405.98	  226.27
     84.7894	  335.00	  291.21	-1378.96	  226.24
     84.8228	  303.00	  291.18	-1410.93	  226.21
     84.8562	  303.00	  291.15	-1410.91	  226.19
     84.8897	  291.00	  291.13	-1422.88	  226.16
     84.9231	  317.00	  291.10	-1396.85	  226.14
     84.9565	  291.00	  291.08	-1422.83	  226.11
     84.9899	  279.00	  291.05	-1434.80	  226.09
     85.0233	  297.00	  291.03	-1416.78	  226.06
     85.0568	  275.00	  291.00	-1438.75	  226.03
     85.0902	  308.00	  290.97	-1405.72	  226.01
     85.1236	  271.00	  290.95	-1442.70	  225.98
     85.1570	  286.00	  290.92	-1427.67	  225.96
     85.1905	  248.00	  290.90	-1465.65	  225.93
     85.2239	  334.00	  290.87	-1379.62	  225.90
     85.2573	  243.00	  290.84	-1470.59	  225.88
     85.2907	  313.00	  290.82	-1400.57	  225.85
     85.3242	  315.00	  290.79	-1398.54	  225.83
     85.3576	  303.00	  290.77	-1410.52	  225.80
     85.3910	  295.00	  290.74	-1418.49	  225.77
     85.4244	  313.00	  290.71	-1400.46	  225.75
     85.4578	  253.00	  290.69	-1460.44	  225.72
     85.4913	  296.00	  290.66	-1417.41	  225.70
     85.5247	  280.00	  290.64	-1433.39	  225.67
     85.5581	  290.00	  290.61	-1423.36	  225.65
     85.5915	  264.00	  290.59	-1449.34	  225.62
     85.6250	  284.00	  290.56	-1429.31	  225.59
     85.6584	  299.00	  290.53	-1414.28	  225.57
     85.6918	  316.00	  290.51	-1397.26	  225.54
     85.7252	  302.00	  290.48	-1411.23	  225.52
     85.7586	  295.00	  290.46	-1418.21	  225.49
     85.7921	  299.00	  290.43	-1414.18	  225.46
     85.8255	  291.00	  290.40	-1422.15	  225.44
     85.8589	  297.00	  290.38	-1416.13	  225.41
     85.8923	  286.00	  290.35	-1427.10	  225.39
     85.9258	  297.00	  290.32	-1416.07	  225.35
     85.9592	  279.00	  290.29	-1434.04	  225.32
     85.9926	  275.00	  290.26	-1438.01	  225.29
     86.0260	  289.00	  290.23	-1423.98	  225.26
     86.0594	  314.00	  290.19	-1398.94	  225.23
     86.0929	  314.00	  290.16	-1398.91	  225.20
     86.1263	  295.00	  290.13	-1417.88	  225.16
     86.1597	  283.00	  290.10	-1429.85	  225.13
     86.1931	  279.00	  290.07	-1433.82	  225.10
     86.2266	  271.00	  290.04	-1441.79	  225.07
     86.2600	  261.00	  290.00	-1451.75	  225.04
     86.2934	  304.00	  289.97	-1408.72	  225.01
     86.3268	  310.00	  289.94	-1402.69	  224.97
     86.3602	  277.00	  289.91	-1435.66	  224.94
     86.3937	  287.00	  289.88	-1425.63	  224.91
     86.4271	  293.00	  289.85	-1419.60	  224.88
     86.4605	  281.00	  289.81	-1431.56	  224.85
     86.4939	  290.00	  289.78	-1422.53	  224.82
     86.5274	  289.00	  289.75	-1423.50	  224.79
     86.5608	  274.00	  289.72	-1438.47	  224.75
     86.5942	  270.00	  289.69	-1442.44	  224.72
     86.6276	  318.00	  289.66	-1394.41	  224.69
     86.6610	  275.00	  289.62	-1437.37	  224.66
     86.6945	  273.00	  289.59	-1439.34	  224.63
     86.7279	  287.00	  289.56	-1425.31	  224.60
     86.7613	  295.00	  289.53	-1417.28	  224.56
     86.7947	  313.00	  289.50	-1399.25	  224.53
     86.8282	  303.00	  289.47	-1409.22	  224.50
     86.8616	  291.00	  289.43	-1421.18	  224.47
     86.8950	  292.00	  289.40	-1420.15	  224.44
     86.9284	  293.00	  289.37	-1419.12	  224.41
     86.9619	  265.00	  289.34	-1447.09	  224.37
     86.9953	  317.00	  289.31	-1395.06	  224.34
     87.0287	  284.00	  289.28	-1428.03	  224.31
     87.0621	  296.00	  289.25	-1416.00	  224.28
     87.0955	  290.00	  289.21	-1421.96	  224.25
     87.1290	  292.00	  289.18	-1419.93	  224.22
     87.1624	  276.00	  289.15	-1435.90	  224.18
     87.1958	  303.00	  289.12	-1408.87	  224.15
     87.2292	  287.00	  289.09	-1424.84	  224.12
     87.2627	  292.00	  289.06	-1419.81	  224.09
     87.2961	  304.00	  289.02	-1407.77	  224.06
     87.3295	  290.00	  288.99	-1421.74	  224.03
     87.3629	  253.00	  288.96	-1458.71	  223.99
     87.3963	  317.00	  288.93	-1394.68	  223.96
     87.4298	  264.00	  288.90	-1447.65	  223.93
     87.4632	  283.00	  288.87	-1428.62	  223.90
     87.4966	  291.00	  288.83	-1420.58	  223.87
     87.5300	  284.00	  288.80	-1427.55	  223.84
     87.5635	  304.00	  288.77	-1407.52	  223.80
     87.5969	  303.00	  288.74	-1408.49	  223.77
     87.6303	  330.00	  288.71	-1381.46	  223.74
     87.6637	  259.00	  288.68	-1452.43	  223.71
     87.6972	  283.00	  288.64	-1428.39	  223.68
     87.7306	  293.00	  288.61	-1418.36	  223.65
     87.7640	  259.00	  288.58	-1452.33	  223.61
     87.7974	  292.00	  288.55	-1419.30	  223.58
     87.8308	  272.00	  288.52	-1439.27	  223.55
     87.8643	  321.00	  288.49	-1390.24	  223.52
     87.8977	  312.00	  288.45	-1399.20	  223.49
     87.9311	  297.00	  288.42	-1414.17	  223.46
     87.9645	  294.00	  288.39	-1417.14	  223.42
     87.9979	  276.00	  288.36	-1435.11	  223.39
     88.0314	  265.00	  288.33	-1446.08	  223.36
     88.0648	  290.00	  288.30	-1421.05	  223.33
     88.0982	  273.00	  288.26	-1438.01	  223.30
     88.1316	  293.00	  288.23	-1417.98	  223.27
     88.1651	  301.00	  288.20	-1409.95	  223.23
     88.1985	  284.00	  288.17	-1426.92	  223.20
     88.2319	  295.00	  288.14	-1415.89	  223.17
     88.2653	  272.00	  288.11	-1438.86	  223.14
     88.2988	  255.00	  288.07	-1455.82	  223.11
     88.3322	  293.00	  288.04	-1417.79	  223.08
     88.3656	  281.00	  288.01	-1429.76	  223.04
     88.3990	  294.00	  287.98	-1416.73	  223.01
     88.4324	  292.00	  287.95	-1418.70	  222.98
     88.4659	  302.00	  287.92	-1408.67	  222.95
     88.4993	  301.00	  287.88	-1409.63	  222.92
     88.5327	  261.00	  287.85	-1449.60	  222.89
     88.5661	  311.00	  287.82	-1399.57	  222.86
     88.5996	  304.00	  287.79	-1406.54	  222.82
     88.6330	  292.00	  287.76	-1418.51	  222.79
     88.6664	  269.00	  287.73	-1441.48	  222.76
     88.6998	  301.00	  287.69	-1409.44	  222.73
     88.7332	  302.00	  287.66	-1408.41	  222.70
     88.7667	  299.00	  287.63	-1411.38	  222.67
     88.8001	  263.00	  287.60	-1447.35	  222.63
     88.8335	  316.00	  287.57	-1394.32	  222.60
     88.8669	  286.00	  287.54	-1424.29	  222.57
     88.9004	  272.00	  287.51	-1438.26	  222.54
     88.9338	  268.00	  287.47	-1442.22	  222.51
     88.9672	  270.00	  287.44	-1440.19	  222.48
     89.0006	  296.00	  287.41	-1414.16	  222.44
     89.0340	  273.00	  287.38	-1437.13	  222.41
     89.0675	  320.00	  287.35	-1390.10	  222.38
     89.1009	  294.00	  287.32	-1416.07	  222.35
     89.1343	  317.00	  287.28	-1393.03	  222.32
     89.1677	  266.00	  287.25	-1444.00	  222.29
     89.2012	  251.00	  287.22	-1458.97	  222.25
     89.2346	  264.00	  287.19	-1445.94	  222.22
     89.2680	  296.00	  287.16	-1413.91	  222.19
     89.3014	  244.00	  287.13	-1465.88	  222.16
     89.3349	  253.00	  287.09	-1456.84	  222.13
     89.3683	  290.00	  287.06	-1419.81	  222.10
     89.4017	  273.00	  287.03	-1436.78	  222.06
     89.4351	  308.00	  287.00	-1401.75	  222.03
     89.4685	  296.00	  286.97	-1413.72	  222.00
     89.5020	  283.00	  286.94	-1426.69	  221.97
     89.5354	  307.00	  286.90	-1402.65	  221.94
     89.5688	  281.00	  286.87	-1428.62	  221.91
     89.6022	  295.00	  286.84	-1414.59	  221.87
     89.6357	  286.00	  286.81	-1423.56	  221.84
     89.6691	  290.00	  286.78	-1419.53	  221.81
     89.7025	  279.00	  286.75	-1430.50	  221.78
     89.7359	  322.00	  286.71	-1387.46	  221.75
     89.7693	  302.00	  286.68	-1407.43	  221.72
     89.8028	  292.00	  286.65	-1417.40	  221.68
     89.8362	  306.00	  286.62	-1403.37	  221.65
     89.8696	  274.00	  286.59	-1435.34	  221.62
     89.9030	  293.00	  286.56	-1416.31	  221.59
     89.9365	  295.00	  286.52	-1414.27	  221.56
     89.9699	  282.00	  286.49	-1427.24	  221.53
     90.0033	  272.00	  286.46	-1437.21	  221.49
     90.0367	  260.00	  286.43	-1449.18	  221.46
     90.0701	  277.00	  286.40	-1432.15	  221.43
     90.1036	  281.00	  286.37	-1428.12	  221.40
     90.1370	  289.00	  286.33	-1420.08	  221.37
     90.1704	  295.00	  286.30	-1414.05	  221.34
     90.2038	  313.00	  286.27	-1396.02	  221.30
     90.2373	  295.00	  286.24	-1413.99	  221.27
     90.2707	  287.00	  286.21	-1421.96	  221.24
     90.3041	  275.00	  286.18	-1433.93	  221.21
     90.3375	  316.00	  286.14	-1392.89	  221.18
     90.3709	  293.00	  286.11	-1415.86	  221.15
     90.4044	  294.00	  286.08	-1414.83	  221.12
     90.4378	  318.00	  286.05	-1390.80	  221.08
     90.4712	  270.00	  286.02	-1438.77	  221.05
     90.5046	  262.00	  285.99	-1446.74	  221.02
     90.5381	  301.00	  285.95	-1407.70	  220.99
     90.5715	  289.00	  285.92	-1419.67	  220.96
     90.6049	  264.00	  285.89	-1444.64	  220.92
     90.6383	  308.00	  285.85	-1400.60	  220.88
     90.6718	  286.00	  293.50	-1430.25	  220.85
     90.7052	  263.00	  293.70	-1453.45	  220.81
     90.7386	  274.00	  293.90	-1442.65	  220.78
     90.7720	  274.00	  294.11	-1442.86	  220.74
     90.8054	  291.00	  294.34	-1426.09	  220.71
     90.8389	  308.00	  294.58	-1409.33	  220.67
     90.8723	  316.00	  294.83	-1401.58	  220.64
     90.9057	  299.00	  295.09	-1418.84	  220.60
     90.9391	  307.00	  295.37	-1411.12	  220.56
     90.9726	  312.00	  299.54	-1410.29	  220.53
     91.0060	  297.00	  299.97	-1425.72	  220.49
     91.0394	  294.00	  300.42	-1429.17	  220.46
     91.0728	  310.00	  300.89	-1413.64	  220.42
     91.1062	  311.00	  301.39	-1413.14	  220.39
     91.1397	  307.00	  301.92	-1417.67	  220.35
     91.1731	  343.00	  302.48	-1382.23	  220.31
     91.2065	  281.00	  303.07	-1444.82	  220.28
     91.2399	  306.00	  303.70	-1420.45	  220.24
     91.2734	  292.00	  304.36	-1435.11	  220.21
     91.3068	  317.00	  305.06	-1410.81	  220.17
     91.3402	  296.00	  305.81	-1432.56	  220.14
     91.3736	  325.00	  306.60	-1404.35	  220.10
     91.4071	  274.00	  307.44	-1456.19	  220.07
     91.4405	  328.00	  308.33	-1403.08	  220.03
     91.4739	  302.00	  309.28	-1430.03	  219.99
     91.5073	  308.00	  310.30	-1425.05	  219.96
     91.5407	  326.00	  311.38	-1408.13	  219.92
     91.5742	  324.00	  312.54	-1411.29	  219.89
     91.6076	  325.00	  313.78	-1411.53	  219.85
     91.6410	  334.00	  315.10	-1403.85	  219.82
     91.6744	  305.00	  316.52	-1434.27	  219.78
     91.7079	  301.00	  318.05	-1439.80	  219.75
     91.7413	  292.00	  319.69	-1450.44	  219.71
     91.7747	  312.00	  321.45	-1432.20	  219.67
     91.8081	  310.00	  323.35	-1436.10	  219.64
     91.8415	  316.00	  325.41	-1432.16	  219.60
     91.8750	  304.00	  327.63	-1446.38	  219.57
     91.9084	  347.00	  330.04	-1405.79	  219.53
     91.9418	  325.00	  332.65	-1430.40	  219.50
     91.9752	  308.00	  335.49	-1450.24	  219.46
     92.0087	  300.00	  338.58	-1461.33	  219.42
     92.0421	  340.00	  341.95	-1424.70	  219.39
     92.0755	  356.00	  345.63	-1412.38	  219.35
     92.1089	  346.00	  349.66	-1426.41	  219.32
     92.1423	  337.00	  354.08	-1439.83	  219.28
     92.1758	  336.00	  358.92	-1445.67	  219.25
     92.2092	  344.00	  364.25	-1443.00	  219.21
     92.2426	  348.00	  370.11	-1444.86	  219.18
     92.2760	  363.00	  376.56	-1436.31	  219.14
     92.3095	  358.00	  383.68	-1448.43	  219.10
     92.3429	  398.00	  391.53	-1416.28	  219.07
     92.3763	  404.00	  400.18	-1418.93	  219.03
     92.4097	  394.00	  409.71	-1438.46	  219.00
     92.4431	  368.00	  420.20	-1474.95	  218.96
     92.4766	  431.00	  431.71	-1423.46	  218.93
     92.5100	  371.00	  444.29	-1496.04	  218.89
     92.5434	  439.00	  457.97	-1441.72	  218.86
     92.5768	  447.00	  472.72	-1448.47	  218.82
     92.6103	  491.00	  488.47	-1420.22	  218.78
     92.6437	  489.00	  505.07	-1438.82	  218.75
     92.6771	  575.00	  522.23	-1369.98	  218.71
     92.7105	  594.00	  539.59	-1368.34	  218.68
     92.7439	  601.00	  556.65	-1378.40	  218.64
     92.7774	  588.00	  572.79	-1407.54	  218.61
     92.8108	  616.00	  587.35	-1394.10	  218.57
     92.8442	  708.00	  599.68	-1314.43	  218.54
     92.8776	  605.00	  609.27	-1427.02	  218.50
     92.9111	  641.00	  615.75	-1397.50	  218.46
     92.9445	  603.00	  619.02	-1438.77	  218.43
     92.9779	  650.00	  619.19	-1391.94	  218.39
     93.0113	  636.00	  616.56	-1403.31	  218.36
     93.0448	  647.00	  611.48	-1387.23	  218.32
     93.0782	  643.00	  604.31	-1384.06	  218.29
     93.1116	  649.00	  595.38	-1369.13	  218.25
     93.1450	  617.00	  584.89	-1390.64	  218.21
     93.1784	  641.00	  573.04	-1354.79	  218.18
     93.2119	  577.00	  560.01	-1405.76	  218.14
     93.2453	  611.00	  545.99	-1357.74	  218.11
     93.2787	  600.00	  531.25	-1354.00	  218.07
     93.3121	  516.00	  516.09	-1422.84	  218.04
     93.3456	  498.00	  500.81	-1425.56	  218.00
     93.3790	  503.00	  485.72	-1405.47	  217.97
     93.4124	  492.00	  471.09	-1401.84	  217.93
     93.4458	  438.00	  457.11	-1441.86	  217.89
     93.4792	  423.00	  443.93	-1443.68	  217.86
     93.5127	  448.00	  431.63	-1406.38	  217.82
     93.5461	  426.00	  420.24	-1416.99	  217.79
     93.5795	  420.00	  409.76	-1412.51	  217.75
     93.6129	  372.00	  400.17	-1450.92	  217.72
     93.6464	  344.00	  391.40	-1470.15	  217.68
     93.6798	  403.00	  383.41	-1403.16	  217.65
     93.7132	  364.00	  376.14	-1434.89	  217.61
     93.7466	  324.00	  369.52	-1468.27	  217.57
     93.7801	  352.00	  363.50	-1434.25	  217.54
     93.8135	  335.00	  358.02	-1445.77	  217.50
     93.8469	  307.00	  353.01	-1468.76	  217.47
     93.8803	  334.00	  348.45	-1437.20	  217.43
     93.9137	  332.00	  344.28	-1435.03	  217.40
     93.9472	  344.00	  340.46	-1419.21	  217.36
     93.9806	  315.00	  336.97	-1444.72	  217.33
     94.0140	  342.00	  333.75	-1414.50	  217.29
     94.0474	  304.00	  330.80	-1449.55	  217.25
     94.0808	  299.00	  328.07	-1451.82	  217.22
     94.1143	  327.00	  325.56	-1421.31	  217.18
     94.1477	  292.00	  323.23	-1453.98	  217.15
     94.1811	  295.00	  321.08	-1448.83	  217.11
     94.2145	  305.00	  319.08	-1436.83	  217.08
     94.2480	  290.00	  317.22	-1449.97	  217.04
     94.2814	  338.00	  315.49	-1400.24	  217.00
     94.3148	  287.00	  313.87	-1449.62	  216.97
     94.3482	  316.00	  312.37	-1419.12	  216.93
     94.3817	  289.00	  310.96	-1444.71	  216.90
     94.4151	  318.00	  309.64	-1414.39	  216.86
     94.4485	  320.00	  308.40	-1411.15	  216.83
     94.4819	  313.00	  307.23	-1416.98	  216.79
     94.5153	  304.00	  306.14	-1424.89	  216.76
     94.5488	  274.00	  305.11	-1453.86	  216.72
     94.5822	  273.00	  304.13	-1453.88	  216.68
     94.6156	  317.00	  303.22	-1408.97	  216.65
     94.6490	  312.00	  302.35	-1413.10	  216.61
     94.6825	  302.00	  301.53	-1422.28	  216.58
     94.7159	  272.00	  300.75	-1451.50	  216.54
     94.7493	  279.00	  300.01	-1443.76	  216.51
     94.7827	  282.00	  299.31	-1440.06	  216.47
     94.8161	  311.00	  298.64	-1410.39	  216.44
     94.8496	  287.00	  298.01	-1433.76	  216.40
     94.8830	  281.00	  297.41	-1439.16	  216.36
     94.9164	  282.00	  296.83	-1437.58	  216.33
     94.9498	  299.00	  296.28	-1420.03	  216.29
     94.9833	  280.00	  295.76	-1438.51	  216.26
     95.0167	  306.00	  295.26	-1412.01	  216.22
     95.0501	  270.00	  294.78	-1447.53	  216.19
     95.0835	  282.00	  294.32	-1435.07	  216.15
     95.1170	  333.00	  293.88	-1383.63	  216.11
     95.1504	  295.00	  285.98	-1413.73	  216.08
     95.1838	  283.00	  285.78	-1425.53	  216.04
     95.2172	  306.00	  285.60	-1402.35	  216.01
     95.2506	  322.00	  285.42	-1386.17	  215.97
     95.2841	  275.00	  285.25	-1433.00	  215.94
     95.3175	  299.00	  285.08	-1408.83	  215.90
     95.3509	  314.00	  284.92	-1393.67	  215.87
     95.3843	  265.00	  284.76	-1442.51	  215.83
     95.4178	  284.00	  284.61	-1423.36	  215.79
     95.4512	  296.00	  280.73	-1407.48	  215.76
     95.4846	  256.00	  280.69	-1447.44	  215.72
     95.5180	  275.00	  280.65	-1428.40	  215.69
     95.5514	  273.00	  280.62	-1430.37	  215.65
     95.5849	  281.00	  280.58	-1422.33	  215.62
     95.6183	  297.00	  280.55	-1406.30	  215.58
     95.6517	  271.00	  280.51	-1432.26	  215.55
     95.6851	  303.00	  280.48	-1400.23	  215.51
     95.7186	  302.00	  280.44	-1401.19	  215.47
     95.7520	  263.00	  280.40	-1440.15	  215.44
     95.7854	  283.00	  280.37	-1420.12	  215.40
     95.8188	  304.00	  280.33	-1399.08	  215.37
     95.8522	  272.00	  280.30	-1431.05	  215.33
     95.8857	  307.00	  280.26	-1396.01	  215.30
     95.9191	  260.00	  280.23	-1442.98	  215.26
     95.9525	  266.00	  280.19	-1436.94	  215.23
     95.9859	  273.00	  280.16	-1429.91	  215.19
     96.0194	  303.00	  280.12	-1399.87	  215.15
     96.0528	  268.00	  280.08	-1434.83	  215.12
     96.0862	  285.00	  280.05	-1417.80	  215.08
     96.1196	  300.00	  282.27	-1405.02	  215.05
     96.1531	  256.00	  282.30	-1449.05	  215.01
     96.1865	  311.00	  282.34	-1394.09	  214.98
     96.2199	  285.00	  282.37	-1420.12	  214.94
     96.2533	  277.00	  282.41	-1428.16	  214.90
     96.2867	  312.00	  282.45	-1393.20	  214.87
     96.3202	  291.00	  282.50	-1414.25	  214.83
     96.3536	  270.00	  282.55	-1435.30	  214.80
     96.3870	  261.00	  282.60	-1444.35	  214.76
     96.4204	  263.00	  283.77	-1443.52	  214.73
     96.4538	  260.00	  283.86	-1446.61	  214.69
     96.4873	  291.00	  283.97	-1415.72	  214.66
     96.5207	  304.00	  284.07	-1402.82	  214.62
     96.5541	  285.00	  284.19	-1421.94	  214.58
     96.5875	  280.00	  284.31	-1427.06	  214.55
     96.6210	  243.00	  284.44	-1464.19	  214.51
     96.6544	  306.00	  284.57	-1401.32	  214.48
     96.6878	  297.00	  284.72	-1410.47	  214.44
     96.7212	  286.00	  284.88	-1421.63	  214.41
     96.7547	  268.00	  285.05	-1439.80	  214.37
     96.7881	  282.00	  285.22	-1425.97	  214.33
     96.8215	  305.00	  285.41	-1403.16	  214.30
     96.8549	  276.00	  285.61	-1432.36	  214.26
     96.8883	  283.00	  285.83	-1425.58	  214.22
     96.9218	  325.00	  286.06	-1383.81	  214.18
     96.9552	  292.00	  286.30	-1417.05	  214.15
     96.9886	  296.00	  286.57	-1413.32	  214.11
     97.0220	  266.00	  286.85	-1443.60	  214.07
     97.0555	  302.00	  287.15	-1407.90	  214.03
     97.0889	  252.00	  287.48	-1458.23	  213.99
     97.1223	  296.00	  287.83	-1414.58	  213.96
     97.1557	  284.00	  288.20	-1426.95	  213.92
     97.1891	  286.00	  288.61	-1425.36	  213.88
     97.2226	  282.00	  289.04	-1429.79	  213.84
     97.2560	  301.00	  289.51	-1411.26	  213.80
     97.2894	  306.00	  290.02	-1406.77	  213.77
     97.3228	  279.00	  290.57	-1434.32	  213.73
     97.3563	  266.00	  291.16	-1447.91	  213.69
     97.3897	  277.00	  291.80	-1437.55	  213.65
     97.4231	  269.00	  292.49	-1446.24	  213.61
     97.4565	  293.00	  293.25	-1423.00	  213.58
     97.4900	  292.00	  294.07	-1424.82	  213.54
     97.5234	  314.00	  294.96	-1403.71	  213.50
     97.5568	  302.00	  295.93	-1416.68	  213.46
     97.5902	  304.00	  296.99	-1415.74	  213.42
     97.6236	  289.00	  298.14	-1431.89	  213.39
     97.6571	  301.00	  299.40	-1421.15	  213.35
     97.6905	  310.00	  300.78	-1413.53	  213.31
     97.7239	  273.00	  302.29	-1452.04	  213.27
     97.7573	  283.00	  303.94	-1443.69	  213.23
     97.7908	  280.00	  305.75	-1448.50	  213.20
     97.8242	  286.00	  307.73	-1444.48	  213.16
     97.8576	  297.00	  309.90	-1435.65	  213.12
     97.8910	  287.00	  312.26	-1448.01	  213.08
     97.9244	  315.00	  314.84	-1422.59	  213.04
     97.9579	  314.00	  317.64	-1426.39	  213.01
     97.9913	  306.00	  320.67	-1437.42	  212.97
     98.0247	  322.00	  323.93	-1424.68	  212.93
     98.0581	  321.00	  327.41	-1429.16	  212.89
     98.0916	  313.00	  331.10	-1440.85	  212.85
     98.1250	  332.00	  334.96	-1425.71	  212.82
     98.1584	  349.00	  338.93	-1412.68	  212.78
     98.1918	  355.00	  342.94	-1410.69	  212.74
     98.2253	  371.00	  346.89	-1398.64	  212.70
     98.2587	  362.00	  350.66	-1411.41	  212.66
     98.2921	  337.00	  354.14	-1439.89	  212.63
     98.3255	  379.00	  357.19	-1400.94	  212.59
     98.3589	  364.00	  359.70	-1418.45	  212.55
     98.3924	  390.00	  361.59	-1394.34	  212.51
     98.4258	  369.00	  362.81	-1416.56	  212.47
     98.4592	  392.00	  363.35	-1394.10	  212.44
     98.4926	  358.00	  363.25	-1428.00	  212.40
     98.5260	  398.00	  362.56	-1387.31	  212.36
     98.5595	  404.00	  361.35	-1380.10	  212.32
     98.5929	  395.00	  359.71	-1387.46	  212.28
     98.6263	  387.00	  357.68	-1393.43	  212.25
     98.6597	  374.00	  355.31	-1404.06	  212.21
     98.6932	  379.00	  352.65	-1396.40	  212.17
     98.7266	  362.00	  349.72	-1410.47	  212.13
     98.7600	  389.00	  346.56	-1380.31	  212.10
     98.7934	  382.00	  343.21	-1383.96	  212.06
     98.8269	  349.00	  339.72	-1413.47	  212.02
     98.8603	  346.00	  336.16	-1412.91	  211.98
     98.8937	  336.00	  332.58	-1419.33	  211.94
     98.9271	  344.00	  329.04	-1407.79	  211.91
     98.9605	  313.00	  325.60	-1435.35	  211.87
     98.9940	  318.00	  322.28	-1427.03	  211.83
     99.0274	  318.00	  319.13	-1423.88	  211.79
     99.0608	  293.00	  316.16	-1445.91	  211.75
     99.0942	  317.00	  313.38	-1419.13	  211.72
     99.1277	  302.00	  310.80	-1431.55	  211.68
     99.1611	  306.00	  308.40	-1425.15	  211.64
     99.1945	  300.00	  306.19	-1428.94	  211.60
     99.2279	  299.00	  304.15	-1427.90	  211.56
     99.2613	  283.00	  302.27	-1442.02	  211.53
     99.2948	  280.00	  300.55	-1443.30	  211.49
     99.3282	  282.00	  298.96	-1439.71	  211.45
     99.3616	  266.00	  297.50	-1454.25	  211.41
     99.3950	  266.00	  296.16	-1452.91	  211.37
     99.4285	  301.00	  294.93	-1416.68	  211.34
     99.4619	  289.00	  293.79	-1427.54	  211.30
     99.4953	  296.00	  292.74	-1419.49	  211.26
     99.5287	  290.00	  291.76	-1424.51	  211.22
     99.5621	  268.00	  290.87	-1445.62	  211.18
     99.5956	  258.00	  290.03	-1454.78	  211.15
     99.6290	  261.00	  289.26	-1451.01	  211.11
     99.6624	  291.00	  288.54	-1420.29	  211.07
     99.6958	  268.00	  287.87	-1442.62	  211.03
     99.7293	  301.00	  287.24	-1408.99	  210.99
     99.7627	  271.00	  286.66	-1438.41	  210.96
     99.7961	  290.00	  286.11	-1418.86	  210.92
     99.8295	  290.00	  285.60	-1418.35	  210.88
     99.8630	  261.00	  285.12	-1446.87	  210.84
     99.8964	  274.00	  284.67	-1433.42	  210.80
     99.9298	  262.00	  284.24	-1444.99	  210.77
     99.9632	  311.00	  283.84	-1395.59	  210.73
     99.9966	  265.00	  283.46	-1441.21	  210.69
    100.0301	  297.00	  283.10	-1408.85	  210.65
    100.0635	  232.00	  282.76	-1473.51	  210.61
    100.0969	  312.00	  282.44	-1393.19	  210.58
    100.1303	  254.00	  282.13	-1450.88	  210.54
    100.1638	  284.00	  281.84	-1420.59	  210.50
    100.1972	  264.00	  281.57	-1440.32	  210.46
    100.2306	  283.00	  281.30	-1421.05	  210.42
    100.2640	  266.00	  281.05	-1437.80	  210.39
    100.2974	  258.00	  280.81	-1445.56	  210.35
    100.3309	  275.00	  280.58	-1428.33	  210.31
    100.3643	  269.00	  280.36	-1434.11	  210.27
    100.3977	  308.00	  280.15	-1394.90	  210.23
    100.4311	  258.00	  279.94	-1444.69	  210.20
    100.4646	  258.00	  279.75	-1444.50	  210.16
    100.4980	  250.00	  279.56	-1452.31	  210.12
    100.5314	  254.00	  279.38	-1448.13	  210.08
    100.5648	  268.00	  279.21	-1433.96	  210.04
    100.5982	  269.00	  279.04	-1432.79	  210.01
    100.6317	  300.00	  278.88	-1401.63	  209.97
    100.6651	  259.00	  278.72	-1442.47	  209.93
    100.6985	  263.00	  276.36	-1436.11	  209.89
    100.7319	  266.00	  276.27	-1433.02	  209.86
    100.7654	  281.00	  276.19	-1417.94	  209.82
    100.7988	  270.00	  276.11	-1428.86	  209.78
    100.8322	  283.00	  276.03	-1415.78	  209.74
    100.8656	  275.00	  275.95	-1423.70	  209.70
    100.8990	  251.00	  275.87	-1447.62	  209.67
    100.9325	  271.00	  275.80	-1427.55	  209.63
    100.9659	  274.00	  275.73	-1424.48	  209.59
    100.9993	  280.00	  275.66	-1418.41	  209.55
    101.0327	  287.00	  274.48	-1410.23	  209.51
    101.0662	  282.00	  274.44	-1415.19	  209.48
    101.0996	  287.00	  274.40	-1410.15	  209.44
    101.1330	  301.00	  274.37	-1396.12	  209.40
    101.1664	  253.00	  274.33	-1444.08	  209.36
    101.1999	  250.00	  274.29	-1447.04	  209.32
    101.2333	  266.00	  274.25	-1431.00	  209.29
    101.2667	  297.00	  274.21	-1399.96	  209.25
    101.3001	  268.00	  274.18	-1428.93	  209.21
    101.3335	  283.00	  274.14	-1413.89	  209.17
    101.3670	  284.00	  274.10	-1412.85	  209.13
    101.4004	  308.00	  274.06	-1388.81	  209.10
    101.4338	  273.00	  274.02	-1423.77	  209.06
    101.4672	  292.00	  273.99	-1404.74	  209.02
    101.5007	  283.00	  273.95	-1413.70	  208.98
    101.5341	  262.00	  273.91	-1434.66	  208.94
    101.5675	  279.00	  273.87	-1417.62	  208.91
    101.6009	  275.00	  273.83	-1421.58	  208.87
    101.6343	  289.00	  273.80	-1407.55	  208.83
    101.6678	  294.00	  273.76	-1402.51	  208.79
    101.7012	  273.00	  273.72	-1423.47	  208.75
    101.7346	  271.00	  273.68	-1425.43	  208.72
    101.7680	  269.00	  273.64	-1427.39	  208.68
    101.8015	  302.00	  273.61	-1394.36	  208.64
    101.8349	  294.00	  273.57	-1402.32	  208.60
    101.8683	  263.00	  273.53	-1433.28	  208.56
    101.9017	  265.00	  273.49	-1431.24	  208.53
    101.9352	  275.00	  273.45	-1421.20	  208.49
    101.9686	  277.00	  273.42	-1419.17	  208.45
    102.0020	  281.00	  273.38	-1415.13	  208.41
    102.0354	  275.00	  273.34	-1421.09	  208.37
    102.0688	  258.00	  273.30	-1438.05	  208.34
    102.1023	  268.00	  273.26	-1428.01	  208.30
    102.1357	  284.00	  273.23	-1411.98	  208.26
    102.1691	  276.00	  273.19	-1419.94	  208.22
    102.2025	  260.00	  273.15	-1435.90	  208.18
    102.2360	  266.00	  273.11	-1429.86	  208.15
    102.2694	  281.00	  273.07	-1414.82	  208.11
    102.3028	  254.00	  273.04	-1441.79	  208.07
    102.3362	  264.00	  273.00	-1431.75	  208.03
    102.3696	  276.00	  272.96	-1419.71	  207.99
    102.4031	  239.00	  272.92	-1456.67	  207.96
    102.4365	  286.00	  272.89	-1409.64	  207.92
    102.4699	  277.00	  272.85	-1418.60	  207.88
    102.5033	  271.00	  272.81	-1424.56	  207.84
    102.5368	  265.00	  272.77	-1430.52	  207.81
    102.5702	  228.00	  272.73	-1467.48	  207.77
    102.6036	  307.00	  272.70	-1388.45	  207.73
    102.6370	  295.00	  272.67	-1400.42	  207.70
    102.6704	  281.00	  272.64	-1414.39	  207.67
    102.7039	  259.00	  272.62	-1436.37	  207.65
    102.7373	  291.00	  272.59	-1404.34	  207.62
    102.7707	  275.00	  272.57	-1420.32	  207.60
    102.8041	  254.00	  272.54	-1441.29	  207.58
    102.8376	  253.00	  272.52	-1442.27	  207.55
    102.8710	  254.00	  272.49	-1441.24	  207.53
    102.9044	  251.00	  272.47	-1444.22	  207.50
    102.9378	  261.00	  272.44	-1434.19	  207.48
    102.9712	  260.00	  272.42	-1435.17	  207.45
    103.0047	  282.00	  272.39	-1413.14	  207.43
    103.0381	  285.00	  272.37	-1410.12	  207.40
    103.0715	  259.00	  272.34	-1436.09	  207.38
    103.1049	  269.00	  272.32	-1426.07	  207.35
    103.1384	  274.00	  272.29	-1421.04	  207.33
    103.1718	  308.00	  272.27	-1387.02	  207.30
    103.2052	  270.00	  272.24	-1424.99	  207.28
    103.2386	  284.00	  272.22	-1410.97	  207.25
    103.2720	  251.00	  272.19	-1443.94	  207.23
    103.3055	  290.00	  272.17	-1404.92	  207.20
    103.3389	  274.00	  272.15	-1420.90	  207.18
    103.3723	  277.00	  272.12	-1417.87	  207.15
    103.4057	  231.00	  272.10	-1463.85	  207.13
    103.4392	  251.00	  272.07	-1443.82	  207.10
    103.4726	  275.00	  272.05	-1419.80	  207.08
    103.5060	  272.00	  272.02	-1422.77	  207.06
    103.5394	  276.00	  272.00	-1418.75	  207.03
    103.5729	  283.00	  271.97	-1411.72	  207.01
    103.6063	  286.00	  271.95	-1408.70	  206.98
    103.6397	  254.00	  271.92	-1440.67	  206.96
    103.6731	  262.00	  271.90	-1432.65	  206.93
    103.7065	  268.00	  271.87	-1426.62	  206.91
    103.7400	  266.00	  271.85	-1428.60	  206.88
    103.7734	  277.00	  271.82	-1417.57	  206.86
    103.8068	  275.00	  271.80	-1419.55	  206.83
    103.8402	  258.00	  271.77	-1436.52	  206.81
    103.8737	  270.00	  271.75	-1424.50	  206.78
    103.9071	  284.00	  271.72	-1410.47	  206.76
    103.9405	  253.00	  271.70	-1441.45	  206.73
    103.9739	  243.00	  271.68	-1451.43	  206.71
    104.0073	  261.00	  271.65	-1433.40	  206.68
    104.0408	  251.00	  271.63	-1443.38	  206.66
    104.0742	  275.00	  271.60	-1419.35	  206.63
    104.1076	  271.00	  271.58	-1423.33	  206.61
    104.1410	  258.00	  271.55	-1436.30	  206.58
    104.1745	  250.00	  271.53	-1444.28	  206.56
    104.2079	  262.00	  271.50	-1432.25	  206.54
    104.2413	  241.00	  271.48	-1453.23	  206.51
    104.2747	  283.00	  271.45	-1411.20	  206.49
    104.3082	  271.00	  271.43	-1423.18	  206.46
    104.3416	  270.00	  271.40	-1424.15	  206.44
    104.3750	  294.00	  271.38	-1400.13	  206.41
    104.4084	  251.00	  271.35	-1443.10	  206.39
    104.4418	  259.00	  271.33	-1435.08	  206.36
    104.4753	  271.00	  271.30	-1423.05	  206.34
    104.5087	  281.00	  271.28	-1413.03	  206.31
    104.5421	  256.00	  271.25	-1438.00	  206.29
    104.5755	  254.00	  271.23	-1439.98	  206.26
    104.6089	  262.00	  271.20	-1431.95	  206.24
    104.6424	  295.00	  271.18	-1398.93	  206.21
    104.6758	  301.00	  271.16	-1392.91	  206.19
    104.7092	  250.00	  271.13	-1443.88	  206.16
    104.7426	  259.00	  271.11	-1434.86	  206.14
    104.7761	  254.00	  271.08	-1439.83	  206.11
    104.8095	  264.00	  271.06	-1429.81	  206.09
    104.8429	  250.00	  271.03	-1443.78	  206.07
    104.8763	  282.00	  271.01	-1411.76	  206.04
    104.9098	  301.00	  270.98	-1392.73	  206.02
    104.9432	  276.00	  270.96	-1417.71	  205.99
    104.9766	  266.00	  270.93	-1427.68	  205.97
    105.0100	  284.00	  270.91	-1409.66	  205.94
    105.0434	  265.00	  270.88	-1428.63	  205.92
    105.0769	  265.00	  270.86	-1428.61	  205.89
    105.1103	  246.00	  270.83	-1447.58	  205.87
    105.1437	  290.00	  270.81	-1403.56	  205.84
    105.1771	  303.00	  270.78	-1390.53	  205.82
    105.2106	  299.00	  270.76	-1394.51	  205.79
    105.2440	  242.00	  270.73	-1451.48	  205.77
    105.2774	  255.00	  270.71	-1438.46	  205.74
    105.3108	  275.00	  270.68	-1418.43	  205.72
    105.3442	  290.00	  270.66	-1403.41	  205.69
    105.3777	  255.00	  270.64	-1438.39	  205.67
    105.4111	  294.00	  270.61	-1399.36	  205.64
    105.4445	  250.00	  270.59	-1443.34	  205.62
    105.4779	  235.00	  270.56	-1458.31	  205.59
    105.5114	  273.00	  270.54	-1420.29	  205.57
    105.5448	  258.00	  270.51	-1435.26	  205.55
    105.5782	  265.00	  270.49	-1428.24	  205.52
    105.6116	  294.00	  270.46	-1399.21	  205.50
    105.6451	  251.00	  270.44	-1442.19	  205.47
    105.6785	  272.00	  270.41	-1421.16	  205.45
    105.7119	  264.00	  270.39	-1429.14	  205.42
    105.7453	  274.00	  270.36	-1419.11	  205.40
    105.7787	  304.00	  270.34	-1389.09	  205.37
    105.8122	  255.00	  270.31	-1438.06	  205.35
    105.8456	  284.00	  270.29	-1409.04	  205.32
    105.8790	  263.00	  270.26	-1430.01	  205.30
    105.9124	  259.00	  270.24	-1433.99	  205.27
    105.9459	  258.00	  270.21	-1434.96	  205.25
    105.9793	  294.00	  270.19	-1398.94	  205.22
    106.0127	  252.00	  270.16	-1440.91	  205.20
    106.0461	  261.00	  270.14	-1431.89	  205.17
    106.0795	  273.00	  270.12	-1419.87	  205.15
    106.1130	  292.00	  270.09	-1400.84	  205.12
    106.1464	  260.00	  270.07	-1432.82	  205.10
    106.1798	  269.00	  270.04	-1423.79	  205.07
    106.2132	  274.00	  270.02	-1418.77	  205.05
    106.2467	  266.00	  269.99	-1426.74	  205.03
    106.2801	  268.00	  269.97	-1424.72	  205.00
    106.3135	  268.00	  269.94	-1424.69	  204.98
    106.3469	  263.00	  269.92	-1429.67	  204.95
    106.3803	  263.00	  269.89	-1429.64	  204.93
    106.4138	  265.00	  269.87	-1427.62	  204.90
    106.4472	  239.00	  269.84	-1453.59	  204.88
    106.4806	  268.00	  269.82	-1424.57	  204.85
    106.5140	  269.00	  269.79	-1423.54	  204.83
    106.5475	  262.00	  269.77	-1430.52	  204.80
    106.5809	  270.00	  269.74	-1422.49	  204.78
    106.6143	  258.00	  269.72	-1434.47	  204.75
    106.6477	  280.00	  269.69	-1412.44	  204.73
    106.6812	  264.00	  269.67	-1428.42	  204.70
    106.7146	  229.00	  269.64	-1463.39	  204.68
    106.7480	  263.00	  269.62	-1429.37	  204.65
    106.7814	  273.00	  269.60	-1419.35	  204.63
    106.8148	  266.00	  269.57	-1426.32	  204.60
    106.8483	  263.00	  269.55	-1429.30	  204.58
    106.8817	  271.00	  269.52	-1421.27	  204.55
    106.9151	  273.00	  269.50	-1419.25	  204.53
    106.9485	  243.00	  269.47	-1449.22	  204.51
    106.9819	  252.00	  269.45	-1440.20	  204.48
    107.0154	  261.00	  269.42	-1431.17	  204.46
    107.0488	  281.00	  269.40	-1411.15	  204.43
    107.0822	  268.00	  269.37	-1424.12	  204.41
    107.1156	  301.00	  269.35	-1391.10	  204.38
    107.1491	  228.00	  269.32	-1464.07	  204.36
    107.1825	  266.00	  269.30	-1426.05	  204.33
    107.2159	  266.00	  269.27	-1426.02	  204.31
    107.2493	  265.00	  269.25	-1427.00	  204.28
    107.2828	  266.00	  269.22	-1425.97	  204.26
    107.3162	  266.00	  269.20	-1425.95	  204.23
    107.3496	  248.00	  269.17	-1443.92	  204.21
    107.3830	  283.00	  269.15	-1408.90	  204.18
    107.4164	  264.00	  269.12	-1427.87	  204.16
    107.4499	  287.00	  269.10	-1404.85	  204.13
    107.4833	  240.00	  269.08	-1451.83	  204.11
    107.5167	  274.00	  269.05	-1417.80	  204.08
    107.5501	  277.00	  269.03	-1414.78	  204.06
    107.5836	  242.00	  269.00	-1449.75	  204.03
    107.6170	  259.00	  268.98	-1432.73	  204.01
    107.6504	  263.00	  268.95	-1428.70	  203.99
    107.6838	  255.00	  268.93	-1436.68	  203.96
    107.7172	  253.00	  268.90	-1438.65	  203.94
    107.7507	  241.00	  268.88	-1450.63	  203.91
    107.7841	  244.00	  268.85	-1447.60	  203.89
    107.8175	  274.00	  268.83	-1417.58	  203.86
    107.8509	  264.00	  268.80	-1427.55	  203.84
    107.8844	  262.00	  268.78	-1429.53	  203.81
    107.9178	  282.00	  268.75	-1409.50	  203.79
    107.9512	  258.00	  268.73	-1433.48	  203.76
    107.9846	  276.00	  268.70	-1415.45	  203.74
    108.0181	  261.00	  268.68	-1430.43	  203.71
    108.0515	  251.00	  268.65	-1440.40	  203.69
    108.0849	  263.00	  268.63	-1428.38	  203.66
    108.1183	  227.00	  268.60	-1464.35	  203.64
    108.1517	  253.00	  268.58	-1438.33	  203.61
    108.1852	  287.00	  268.56	-1404.31	  203.59
    108.2186	  221.00	  268.53	-1470.28	  203.56
    108.2520	  270.00	  268.51	-1421.26	  203.54
    108.2854	  264.00	  268.48	-1427.23	  203.51
    108.3189	  254.00	  268.46	-1437.21	  203.49
    108.3523	  241.00	  268.43	-1450.18	  203.47
    108.3857	  293.00	  268.41	-1398.16	  203.44
    108.4191	  268.00	  268.38	-1423.13	  203.42
    108.4525	  245.00	  268.36	-1446.11	  203.39
    108.4860	  263.00	  268.33	-1428.08	  203.37
    108.5194	  266.00	  268.31	-1425.06	  203.34
    108.5528	  253.00	  268.28	-1438.03	  203.32
    108.5862	  280.00	  268.26	-1411.01	  203.29
    108.6197	  270.00	  268.25	-1421.00	  203.28
    108.6531	  252.00	  268.23	-1438.98	  203.27
    108.6865	  284.00	  268.22	-1406.97	  203.25
    108.7199	  312.00	  268.20	-1378.95	  203.24
    108.7533	  276.00	  268.19	-1414.94	  203.22
    108.7868	  238.00	  268.18	-1452.93	  203.21
    108.8202	  238.00	  268.16	-1452.91	  203.20
    108.8536	  256.00	  268.15	-1434.90	  203.18
    108.8870	  301.00	  268.13	-1389.89	  203.17
    108.9205	  233.00	  268.12	-1457.87	  203.15
    108.9539	  264.00	  268.11	-1426.86	  203.14
    108.9873	  264.00	  268.09	-1426.84	  203.13
    109.0207	  246.00	  268.08	-1444.83	  203.11
    109.0541	  262.00	  268.07	-1428.82	  203.10
    109.0876	  252.00	  268.05	-1438.80	  203.09
    109.1210	  259.00	  268.04	-1431.79	  203.07
    109.1544	  263.00	  268.02	-1427.77	  203.06
    109.1878	  266.00	  268.01	-1424.76	  203.04
    109.2213	  283.00	  268.00	-1407.75	  203.03
    109.2547	  272.00	  267.98	-1418.73	  203.02
    109.2881	  222.00	  267.97	-1468.72	  203.00
    109.3215	  263.00	  267.95	-1427.70	  202.99
    109.3549	  294.00	  267.94	-1396.69	  202.97
    109.3884	  239.00	  267.93	-1451.68	  202.96
    109.4218	  243.00	  267.91	-1447.66	  202.95
    109.4552	  239.00	  267.90	-1451.65	  202.93
    109.4886	  259.00	  267.88	-1431.63	  202.92
    109.5221	  277.00	  267.87	-1413.62	  202.90
    109.5555	  283.00	  267.86	-1407.61	  202.89
    109.5889	  293.00	  267.84	-1397.59	  202.88
    109.6223	  283.00	  267.83	-1407.58	  202.86
    109.6558	  256.00	  267.82	-1434.57	  202.85
    109.6892	  274.00	  267.80	-1416.55	  202.84
    109.7226	  265.00	  267.79	-1425.54	  202.82
    109.7560	  265.00	  267.77	-1425.52	  202.81
    109.7894	  279.00	  267.76	-1411.51	  202.79
    109.8229	  239.00	  267.75	-1451.50	  202.78
    109.8563	  299.00	  267.73	-1391.48	  202.77
    109.8897	  249.00	  267.72	-1441.47	  202.75
    109.9231	  249.00	  267.70	-1441.45	  202.74
    109.9566	  295.00	  267.69	-1395.44	  202.72
    109.9900	  261.00	  267.68	-1429.43	  202.71
    110.0234	  241.00	  267.66	-1449.41	  202.70
    110.0568	  270.00	  267.65	-1420.40	  202.68
    110.0902	  292.00	  267.63	-1398.38	  202.67
    110.1237	  260.00	  267.62	-1430.37	  202.65
    110.1571	  281.00	  267.61	-1409.36	  202.64
    110.1905	  284.00	  267.59	-1406.34	  202.63
    110.2239	  280.00	  267.58	-1410.33	  202.61
    110.2574	  230.00	  267.57	-1460.32	  202.60
    110.2908	  246.00	  267.55	-1444.30	  202.59
    110.3242	  274.00	  267.54	-1416.29	  202.57
    110.3576	  277.00	  267.52	-1413.27	  202.56
    110.3911	  262.00	  267.51	-1428.26	  202.54
    110.4245	  253.00	  267.50	-1437.25	  202.53
    110.4579	  256.00	  267.48	-1434.23	  202.52
    110.4913	  279.00	  267.47	-1411.22	  202.50
    110.5247	  277.00	  267.45	-1413.20	  202.49
    110.5582	  270.00	  267.44	-1420.19	  202.47
    110.5916	  246.00	  267.43	-1444.18	  202.46
    110.6250	  244.00	  267.41	-1446.16	  202.45
    110.6584	  263.00	  267.40	-1427.15	  202.43
    110.6919	  265.00	  267.38	-1425.13	  202.42
    110.7253	  248.00	  267.37	-1442.12	  202.40
    110.7587	  250.00	  267.36	-1440.11	  202.39
    110.7921	  292.00	  267.34	-1398.09	  202.38
    110.8255	  246.00	  267.33	-1444.08	  202.36
    110.8590	  258.00	  267.32	-1432.07	  202.35
    110.8924	  271.00	  267.30	-1419.05	  202.34
    110.9258	  270.00	  267.29	-1420.04	  202.32
    110.9592	  253.00	  267.27	-1437.02	  202.31
    110.9927	  301.00	  267.26	-1389.01	  202.29
    111.0261	  277.00	  267.25	-1413.00	  202.28
    111.0595	  268.00	  267.23	-1421.98	  202.27
    111.0929	  263.00	  267.22	-1426.97	  202.25
    111.1263	  270.00	  267.20	-1419.95	  202.24
    111.1598	  266.00	  267.19	-1423.94	  202.22
    111.1932	  269.00	  267.18	-1420.93	  202.21
    111.2266	  275.00	  267.16	-1414.91	  202.20
    111.2600	  265.00	  267.15	-1424.90	  202.18
    111.2935	  276.00	  267.13	-1413.88	  202.17
    111.3269	  279.00	  267.12	-1410.87	  202.15
    111.3603	  265.00	  267.11	-1424.86	  202.14
    111.3937	  270.00	  267.09	-1419.84	  202.13
    111.4271	  258.00	  267.08	-1431.83	  202.11
    111.4606	  235.00	  267.07	-1454.82	  202.10
    111.4940	  252.00	  267.05	-1437.80	  202.09
    111.5274	  230.00	  267.04	-1459.79	  202.07
    111.5608	  246.00	  267.02	-1443.77	  202.06
    111.5943	  264.00	  267.01	-1425.76	  202.04
    111.6277	  272.00	  267.00	-1417.75	  202.03
    111.6611	  290.00	  266.98	-1399.73	  202.02
    111.6945	  239.00	  266.97	-1450.72	  202.00
    111.7280	  238.00	  266.95	-1451.70	  201.99
    111.7614	  281.00	  266.94	-1408.69	  201.97
    111.7948	  239.00	  266.93	-1450.68	  201.96
    111.8282	  258.00	  266.91	-1431.66	  201.95
    111.8616	  281.00	  266.90	-1408.65	  201.93
    111.8951	  243.00	  266.88	-1446.63	  201.92
    111.9285	  269.00	  266.87	-1420.62	  201.90
    111.9619	  268.00	  266.86	-1421.61	  201.89
    111.9953	  250.00	  266.84	-1439.59	  201.88
    112.0288	  234.00	  266.83	-1455.58	  201.86
    112.0622	  251.00	  266.82	-1438.57	  201.85
    112.0956	  285.00	  266.80	-1404.55	  201.84
    112.1290	  289.00	  266.79	-1400.54	  201.82
    112.1624	  255.00	  266.77	-1434.52	  201.81
    112.1959	  269.00	  266.76	-1420.51	  201.79
    112.2293	  263.00	  266.75	-1426.50	  201.78
    112.2627	  258.00	  266.73	-1431.48	  201.77
    112.2961	  248.00	  266.72	-1441.47	  201.75
    112.3296	  273.00	  266.70	-1416.45	  201.74
    112.3630	  248.00	  266.69	-1441.44	  201.72
    112.3964	  254.00	  266.68	-1435.43	  201.71
    112.4298	  271.00	  266.66	-1418.41	  201.70
    112.4632	  249.00	  266.65	-1440.40	  201.68
    112.4967	  245.00	  266.63	-1444.38	  201.67
    112.5301	  219.00	  266.62	-1470.37	  201.65
    112.5635	  262.00	  266.61	-1427.36	  201.64
    112.5969	  272.00	  266.59	-1417.34	  201.63
    112.6304	  264.00	  266.58	-1425.33	  201.61
    112.6638	  262.00	  266.57	-1427.32	  201.60
    112.6972	  274.00	  266.55	-1415.30	  201.59
    112.7306	  286.00	  266.54	-1403.29	  201.57
    112.7641	  251.00	  266.52	-1438.27	  201.56
    112.7975	  259.00	  266.51	-1430.26	  201.54
    112.8309	  211.00	  266.50	-1478.25	  201.53
    112.8643	  269.00	  266.48	-1420.23	  201.52
    112.8977	  280.00	  266.47	-1409.22	  201.50
    112.9312	  245.00	  266.45	-1444.20	  201.49
    112.9646	  294.00	  266.44	-1395.19	  201.47
    112.9980	  249.00	  266.43	-1440.18	  201.46
    113.0314	  254.00	  266.41	-1435.16	  201.45
    113.0648	  232.00	  266.40	-1457.15	  201.43
    113.0983	  268.00	  266.38	-1421.13	  201.42
    113.1317	  252.00	  266.37	-1437.12	  201.40
    113.1651	  260.00	  266.36	-1429.11	  201.39
    113.1985	  273.00	  266.34	-1416.09	  201.38
    113.2320	  248.00	  266.33	-1441.08	  201.36
    113.2654	  254.00	  266.32	-1435.07	  201.35
    113.2988	  256.00	  266.30	-1433.05	  201.34
    113.3322	  268.00	  266.29	-1421.04	  201.32
    113.3657	  239.00	  266.27	-1450.02	  201.31
    113.3991	  246.00	  266.26	-1443.01	  201.29
    113.4325	  280.00	  266.25	-1409.00	  201.28
    113.4659	  244.00	  266.23	-1444.98	  201.27
    113.4993	  290.00	  266.22	-1398.97	  201.25
    113.5328	  262.00	  266.20	-1426.95	  201.24
    113.5662	  271.00	  266.19	-1417.94	  201.22
    113.5996	  258.00	  266.18	-1430.93	  201.21
    113.6330	  263.00	  266.16	-1425.91	  201.20
    113.6665	  251.00	  266.15	-1437.90	  201.18
    113.6999	  290.00	  266.13	-1398.88	  201.17
    113.7333	  246.00	  266.12	-1442.87	  201.15
    113.7667	  250.00	  266.11	-1438.86	  201.14
    113.8001	  248.00	  266.09	-1440.84	  201.13
    113.8336	  270.00	  266.08	-1418.83	  201.11
    113.8670	  256.00	  266.07	-1432.82	  201.10
    113.9004	  283.00	  266.05	-1405.80	  201.08
    113.9338	  276.00	  266.02	-1412.77	  201.05
    113.9673	  270.00	  265.98	-1418.73	  201.01
    114.0007	  239.00	  265.95	-1449.70	  200.98
    114.0341	  260.00	  265.91	-1428.66	  200.95
    114.0675	  259.00	  265.88	-1429.63	  200.91
    114.1010	  254.00	  265.84	-1434.59	  200.88
    114.1344	  264.00	  265.81	-1424.56	  200.84
    114.1678	  217.00	  265.78	-1471.53	  200.81
    114.2012	  256.00	  265.74	-1432.49	  200.78
    114.2346	  308.00	  265.71	-1380.46	  200.74
    114.2681	  250.00	  265.67	-1438.42	  200.71
    114.3015	  284.00	  265.64	-1404.39	  200.67
    114.3349	  274.00	  265.61	-1414.36	  200.64
    114.3683	  243.00	  265.57	-1445.32	  200.60
    114.4018	  282.00	  265.54	-1406.29	  200.57
    114.4352	  231.00	  265.50	-1457.25	  200.54
    114.4686	  261.00	  265.47	-1427.22	  200.50
    114.5020	  241.00	  265.43	-1447.18	  200.47
    114.5354	  252.00	  265.40	-1436.15	  200.43
    114.5689	  240.00	  265.37	-1448.12	  200.40
    114.6023	  255.00	  265.33	-1433.08	  200.37
    114.6357	  262.00	  265.30	-1426.05	  200.33
    114.6691	  256.00	  265.26	-1432.01	  200.30
    114.7026	  240.00	  265.23	-1447.98	  200.26
    114.7360	  235.00	  265.20	-1452.95	  200.23
    114.7694	  249.00	  265.16	-1438.91	  200.19
    114.8028	  265.00	  265.13	-1422.88	  200.16
    114.8363	  256.00	  265.09	-1431.84	  200.13
    114.8697	  252.00	  265.06	-1435.81	  200.09
    114.9031	  240.00	  265.02	-1447.77	  200.06
    114.9365	  268.00	  264.99	-1419.74	  200.02
    114.9699	  269.00	  264.96	-1418.71	  199.99
    115.0034	  270.00	  264.92	-1417.67	  199.96
    115.0368	  265.00	  264.89	-1422.64	  199.92
    115.0702	  255.00	  264.85	-1432.60	  199.89
    115.1036	  275.00	  264.82	-1412.57	  199.85
    115.1371	  222.00	  264.79	-1465.54	  199.82
    115.1705	  251.00	  264.75	-1436.50	  199.78
    115.2039	  228.00	  264.72	-1459.47	  199.75
    115.2373	  255.00	  264.68	-1432.43	  199.72
    115.2707	  240.00	  264.65	-1447.40	  199.68
    115.3042	  250.00	  264.61	-1437.36	  199.65
    115.3376	  262.00	  264.58	-1425.33	  199.61
    115.3710	  269.00	  264.55	-1418.30	  199.58
    115.4044	  250.00	  264.51	-1437.26	  199.55
    115.4379	  233.00	  264.48	-1454.23	  199.51
    115.4713	  264.00	  264.44	-1423.19	  199.48
    115.5047	  246.00	  264.41	-1441.16	  199.44
    115.5381	  243.00	  264.38	-1444.12	  199.41
    115.5715	  268.00	  264.34	-1419.09	  199.37
    115.6050	  259.00	  264.31	-1428.06	  199.34
    115.6384	  251.00	  264.27	-1436.02	  199.31
    115.6718	  279.00	  264.24	-1407.99	  199.27
    115.7052	  255.00	  264.20	-1431.95	  199.24
    115.7387	  264.00	  264.17	-1422.92	  199.20
    115.7721	  243.00	  264.14	-1443.89	  199.17
    115.8055	  237.00	  264.10	-1449.85	  199.14
    115.8389	  260.00	  264.07	-1426.82	  199.10
    115.8723	  239.00	  264.03	-1447.78	  199.07
    115.9058	  254.00	  264.00	-1432.75	  199.03
    115.9392	  244.00	  263.97	-1442.72	  199.00
    115.9726	  276.00	  263.93	-1410.68	  198.96
    116.0060	  246.00	  263.90	-1440.65	  198.93
    116.0395	  289.00	  263.86	-1397.61	  198.90
    116.0729	  260.00	  263.83	-1426.58	  198.86
    116.1063	  258.00	  263.79	-1428.54	  198.83
    116.1397	  256.00	  263.76	-1430.51	  198.79
    116.1731	  246.00	  263.73	-1440.48	  198.76
    116.2066	  235.00	  263.69	-1451.44	  198.73
    116.2400	  256.00	  263.66	-1430.41	  198.69
    116.2734	  265.00	  263.62	-1421.37	  198.66
    116.3068	  291.00	  263.59	-1395.34	  198.62
    116.3403	  297.00	  263.56	-1389.31	  198.59
    116.3737	  281.00	  263.52	-1405.27	  198.55
    116.4071	  260.00	  263.49	-1426.24	  198.52
    116.4405	  277.00	  263.45	-1409.20	  198.49
    116.4740	  249.00	  263.42	-1437.17	  198.45
    116.5074	  261.00	  263.38	-1425.13	  198.42
    116.5408	  252.00	  263.35	-1434.10	  198.38
    116.5742	  250.00	  263.32	-1436.07	  198.35
    116.6076	  254.00	  263.28	-1432.03	  198.32
    116.6411	  256.00	  263.25	-1430.00	  198.28
    116.6745	  252.00	  263.21	-1433.96	  198.25
    116.7079	  262.00	  263.18	-1423.93	  198.21
    116.7413	  281.00	  263.15	-1404.90	  198.18
    116.7748	  270.00	  263.11	-1415.86	  198.14
    116.8082	  271.00	  263.08	-1414.83	  198.11
    116.8416	  265.00	  263.04	-1420.79	  198.08
    116.8750	  297.00	  263.01	-1388.76	  198.04
    116.9084	  260.00	  262.97	-1425.72	  198.01
    116.9419	  276.00	  262.94	-1409.69	  197.97
    116.9753	  253.00	  262.91	-1432.66	  197.94
    117.0087	  282.00	  262.87	-1403.62	  197.91
    117.0421	  241.00	  262.84	-1444.59	  197.87
    117.0756	  254.00	  262.80	-1431.55	  197.84
    117.1090	  269.00	  262.77	-1416.52	  197.80
    117.1424	  290.00	  262.74	-1395.48	  197.77
    117.1758	  231.00	  262.70	-1454.45	  197.73
    117.2093	  255.00	  262.67	-1430.42	  197.70
    117.2427	  232.00	  262.63	-1453.38	  197.67
    117.2761	  256.00	  262.60	-1429.35	  197.63
    117.3095	  240.00	  262.56	-1445.31	  197.60
    117.3429	  218.00	  262.53	-1467.28	  197.56
    117.3764	  284.00	  262.50	-1401.25	  197.53
    117.4098	  283.00	  262.46	-1402.21	  197.50
    117.4432	  249.00	  262.43	-1436.18	  197.46
    117.4766	  259.00	  262.39	-1426.14	  197.43
    117.5100	  231.00	  262.36	-1454.11	  197.39
    117.5435	  261.00	  262.32	-1424.07	  197.36
    117.5769	  285.00	  262.29	-1400.04	  197.32
    117.6103	  269.00	  262.26	-1416.01	  197.29
    117.6437	  290.00	  262.22	-1394.97	  197.26
    117.6772	  281.00	  262.19	-1403.94	  197.22
    117.7106	  268.00	  262.15	-1416.90	  197.19
    117.7440	  279.00	  262.12	-1405.87	  197.15
    117.7774	  283.00	  262.09	-1401.84	  197.12
    117.8109	  271.00	  262.05	-1413.80	  197.09
    117.8443	  250.00	  262.02	-1434.77	  197.05
    117.8777	  261.00	  261.98	-1423.73	  197.02
    117.9111	  275.00	  261.95	-1409.70	  196.98
    117.9445	  256.00	  261.91	-1428.67	  196.95
    117.9780	  233.00	  261.88	-1451.63	  196.91
    118.0114	  269.00	  261.85	-1415.60	  196.88
    118.0448	  301.00	  261.81	-1383.56	  196.85
    118.0782	  277.00	  261.78	-1407.53	  196.81
    118.1117	  254.00	  261.74	-1430.49	  196.78
    118.1451	  292.00	  261.71	-1392.46	  196.74
    118.1785	  265.00	  261.68	-1419.43	  196.71
    118.2119	  259.00	  261.64	-1425.39	  196.68
    118.2453	  296.00	  261.61	-1388.36	  196.64
    118.2788	  260.00	  261.57	-1424.32	  196.61
    118.3122	  250.00	  261.54	-1434.29	  196.57
    118.3456	  313.00	  261.50	-1371.26	  196.54
    118.3790	  252.00	  261.47	-1432.22	  196.50
    118.4125	  275.00	  261.44	-1409.19	  196.47
    118.4459	  250.00	  261.40	-1434.15	  196.44
    118.4793	  249.00	  261.37	-1435.12	  196.40
    118.5127	  275.00	  261.33	-1409.08	  196.37
    118.5462	  258.00	  261.30	-1426.05	  196.33
    118.5796	  276.00	  261.27	-1408.02	  196.30
    118.6130	  258.00	  261.23	-1425.98	  196.27
    118.6464	  229.00	  261.20	-1454.95	  196.23
    118.6798	  275.00	  261.16	-1408.91	  196.20
    118.7133	  251.00	  261.13	-1432.88	  196.16
    118.7467	  243.00	  261.09	-1440.84	  196.13
    118.7801	  250.00	  261.06	-1433.81	  196.09
    118.8135	  262.00	  261.03	-1421.78	  196.06
    118.8470	  254.00	  260.99	-1429.74	  196.03
    118.8804	  279.00	  260.96	-1404.71	  195.99
    118.9138	  283.00	  260.92	-1400.67	  195.96
    118.9472	  271.00	  260.89	-1412.64	  195.92
    118.9806	  269.00	  261.98	-1415.73	  195.89
    119.0141	  260.00	  261.97	-1424.72	  195.86
    119.0475	  272.00	  261.96	-1412.71	  195.82
    119.0809	  274.00	  261.95	-1410.70	  195.79
    119.1143	  262.00	  261.95	-1422.70	  195.75
    119.1478	  292.00	  261.94	-1392.69	  195.72
    119.1812	  249.00	  261.94	-1435.69	  195.68
    119.2146	  254.00	  261.93	-1430.68	  195.65
    119.2480	  266.00	  261.93	-1418.68	  195.62
    119.2814	  260.00	  261.93	-1424.68	  195.58
    119.3149	  254.00	  261.93	-1430.68	  195.55
    119.3483	  251.00	  261.93	-1433.68	  195.51
    119.3817	  279.00	  261.93	-1405.68	  195.48
    119.4151	  263.00	  261.93	-1421.68	  195.45
    119.4486	  239.00	  262.50	-1446.25	  195.41
    119.4820	  273.00	  262.51	-1412.26	  195.38
    119.5154	  251.00	  262.54	-1434.29	  195.34
    119.5488	  258.00	  262.56	-1427.31	  195.31
    119.5822	  260.00	  262.58	-1425.33	  195.27
    119.6157	  230.00	  262.61	-1455.36	  195.24
    119.6491	  259.00	  262.64	-1426.39	  195.21
    119.6825	  268.00	  262.67	-1417.42	  195.17
    119.7159	  268.00	  262.71	-1417.46	  195.14
    119.7494	  264.00	  262.74	-1421.49	  195.10
    119.7828	  261.00	  262.78	-1424.53	  195.07
    119.8162	  262.00	  262.83	-1423.58	  195.04
    119.8496	  262.00	  262.87	-1423.62	  195.00
    119.8830	  254.00	  262.92	-1431.67	  194.97
    119.9165	  265.00	  262.98	-1420.73	  194.93
    119.9499	  253.00	  263.03	-1432.78	  194.90
    119.9833	  273.00	  263.26	-1413.01	  194.90
     44.4714	        	        	        	        	       0	(  1  1  1)	  0  1
     44.5867	        	        	        	        	       0	(  1  1  1)	  0  2
     51.8226	        	        	        	        	       0	(  2  0  0)	  0  1
     51.9597	        	        	        	        	       0	(  2  0  0)	  0  2
     76.3466	        	        	        	        	       0	(  2  2  0)	  0  1
     76.5685	        	        	        	        	       0	(  2  2  0)	  0  2
     92.8956	        	        	        	        	       0	(  3  1  1)	  0  1
     93.1926	        	        	        	        	       0	(  3  1  1)	  0  2
     98.3976	        	        	        	        	       0	(  2  2  2)	  0  1
     98.7248	        	        	        	        	       0	(  2  2  2)	  0  2
    121.8811	        	        	        	        	       0	(  4  0  0)	  0  1
    122.3906	        	        	        	        	       0	(  4  0  0)	  0  2
    144.5636	        	        	        	        	       0	(  3  3  1)	  0  1
