 Ni   Chi2:  2.8255  CELL:    3.52434   3.52434   3.52434   90.0000   90.0000   90.0000   SPGR: 225                    TEMP:      0.00
  1   3291     1.54060     1.54439     0.00000    -0.05259     0.00000    0
    16     0     1
       0.00000      35.00000
 2Theta	Yobs	Ycal	Yobs-Ycal	Backg	Posr	(hkl)	K
     20.0231	 1239.00	  563.60	-1863.75	  465.90
     20.0565	 1257.00	  563.60	-1863.75	  465.90
     20.0900	 1298.00	  563.60	-1863.75	  465.90
     20.1234	 1218.00	  563.60	-1863.75	  465.90
     20.1568	 1257.00	  563.60	-1863.75	  465.90
     20.1902	 1243.00	  563.60	-1863.75	  465.90
     20.2236	 1240.00	  563.60	-1863.75	  465.90
     20.2571	 1172.00	  563.60	-1863.75	  465.90
     20.2905	 1265.00	  563.60	-1863.75	  465.90
     20.3239	 1270.00	  563.60	-1863.75	  465.90
     20.3573	 1303.00	  563.60	-1863.75	  465.90
     20.3908	 1291.00	  563.60	-1863.75	  465.90
     20.4242	 1265.00	  563.60	-1863.75	  465.90
     20.4576	 1220.00	  563.60	-1863.75	  465.90
     20.4910	 1276.00	  563.60	-1863.75	  465.90
     20.5245	 1288.00	  563.60	-1863.75	  465.90
     20.5579	 1259.00	  563.60	-1863.75	  465.90
     20.5913	 1191.00	  563.60	-1863.75	  465.90
     20.6247	 1228.00	  563.60	-1863.75	  465.90
     20.6581	 1295.00	  563.60	-1863.75	  465.90
     20.6916	 1201.00	  563.60	-1863.75	  465.90
     20.7250	 1269.00	  563.60	-1863.75	  465.90
     20.7584	 1214.00	  563.60	-1863.75	  465.90
     20.7918	 1299.00	  563.60	-1863.75	  465.90
     20.8253	 1233.00	  563.60	-1863.75	  465.90
     20.8587	 1204.00	  563.60	-1863.75	  465.90
     20.8921	 1196.00	  563.60	-1863.75	  465.90
     20.9255	 1165.00	  563.60	-1863.75	  465.90
     20.9589	 1223.00	  563.60	-1863.75	  465.90
     20.9924	 1204.00	  563.60	-1863.75	  465.90
     21.0258	 1247.00	  563.60	-1863.75	  465.90
     21.0592	 1193.00	  563.60	-1863.75	  465.90
     21.0926	 1213.00	  563.60	-1863.75	  465.90
     21.1261	 1108.00	  563.60	-1863.75	  465.90
     21.1595	 1165.00	  563.60	-1863.75	  465.90
     21.1929	 1173.00	  563.60	-1863.75	  465.90
     21.2263	 1110.00	  563.60	-1863.75	  465.90
     21.2597	 1187.00	  563.60	-1863.75	  465.90
     21.2932	 1166.00	  563.60	-1863.75	  465.90
     21.3266	 1094.00	  563.60	-1863.75	  465.90
     21.3600	 1095.00	  563.60	-1863.75	  465.90
     21.3934	 1202.00	  563.60	-1863.75	  465.90
     21.4269	 1118.00	  563.60	-1863.75	  465.90
     21.4603	 1104.00	  563.60	-1863.75	  465.90
     21.4937	 1146.00	  563.60	-1863.75	  465.90
     21.5271	 1101.00	  563.60	-1863.75	  465.90
     21.5605	 1139.00	  563.60	-1863.75	  465.90
     21.5940	 1121.00	  563.60	-1863.75	  465.90
     21.6274	 1097.00	  563.60	-1863.75	  465.90
     21.6608	 1089.00	  563.60	-1863.75	  465.90
     21.6942	 1149.00	  563.60	-1863.75	  465.90
     21.7277	 1041.00	  563.60	-1863.75	  465.90
     21.7611	 1026.00	  563.60	-1863.75	  465.90
     21.7945	 1118.00	  563.60	-1863.75	  465.90
     21.8279	 1075.00	  563.60	-1863.75	  465.90
     21.8614	 1145.00	  563.60	-1863.75	  465.90
     21.8948	 1026.00	  563.60	-1863.75	  465.90
     21.9282	 1076.00	  563.60	-1863.75	  465.90
     21.9616	 1051.00	  563.60	-1863.75	  465.90
     21.9950	 1084.00	  563.60	-1863.75	  465.90
     22.0285	 1065.00	  563.60	-1863.75	  465.90
     22.0619	 1083.00	  563.60	-1863.75	  465.90
     22.0953	  966.00	  563.60	-1863.75	  465.90
     22.1287	 1038.00	  563.60	-1863.75	  465.90
     22.1622	 1114.00	  563.60	-1863.75	  465.90
     22.1956	 1059.00	  563.60	-1863.75	  465.90
     22.2290	 1077.00	  563.60	-1863.75	  465.90
     22.2624	 1011.00	  563.60	-1863.75	  465.90
     22.2958	  974.00	  563.60	-1863.75	  465.90
     22.3293	  961.00	  563.60	-1863.75	  465.90
     22.3627	  967.00	  563.60	-1863.75	  465.90
     22.3961	  980.00	  563.60	-1863.75	  465.90
     22.4295	  971.00	  563.60	-1863.75	  465.90
     22.4630	  911.00	  563.60	-1863.75	  465.90
     22.4964	  995.00	  563.60	-1863.75	  465.90
     22.5298	 1010.00	  563.60	-1863.75	  465.90
     22.5632	  962.00	  563.60	-1863.75	  465.90
     22.5966	  991.00	  563.60	-1863.75	  465.90
     22.6301	  969.00	  563.60	-1863.75	  465.90
     22.6635	  967.00	  563.60	-1863.75	  465.90
     22.6969	  960.00	  563.60	-1863.75	  465.90
     22.7303	  979.00	  563.60	-1863.75	  465.90
     22.7638	  949.00	  563.60	-1863.75	  465.90
     22.7972	  963.00	  563.60	-1863.75	  465.90
     22.8306	  929.00	  563.60	-1863.75	  465.90
     22.8640	  895.00	  563.60	-1863.75	  465.90
     22.8974	  942.00	  563.60	-1863.75	  465.90
     22.9309	  894.00	  563.60	-1863.75	  465.90
     22.9643	  867.00	  563.60	-1863.75	  465.90
     22.9977	  895.00	  563.60	-1863.75	  465.90
     23.0311	  949.00	  563.60	-1863.75	  465.90
     23.0646	  908.00	  563.60	-1863.75	  465.90
     23.0980	  931.00	  563.60	-1863.75	  465.90
     23.1314	  901.00	  563.60	-1863.75	  465.90
     23.1648	  843.00	  563.60	-1863.75	  465.90
     23.1983	  913.00	  563.60	-1863.75	  465.90
     23.2317	  851.00	  563.60	-1863.75	  465.90
     23.2651	  910.00	  563.60	-1863.75	  465.90
     23.2985	  888.00	  563.60	-1863.75	  465.90
     23.3319	  918.00	  563.60	-1863.75	  465.90
     23.3654	  884.00	  563.60	-1863.75	  465.90
     23.3988	  920.00	  563.60	-1863.75	  465.90
     23.4322	  873.00	  563.60	-1863.75	  465.90
     23.4656	  878.00	  563.60	-1863.75	  465.90
     23.4991	  914.00	  563.60	-1863.75	  465.90
     23.5325	  878.00	  563.60	-1863.75	  465.90
     23.5659	  893.00	  563.60	-1863.75	  465.90
     23.5993	  891.00	  563.60	-1863.75	  465.90
     23.6327	  809.00	  563.60	-1863.75	  465.90
     23.6662	  766.00	  563.60	-1863.75	  465.90
     23.6996	  851.00	  563.60	-1863.75	  465.90
     23.7330	  871.00	  563.60	-1863.75	  465.90
     23.7664	  884.00	  563.60	-1863.75	  465.90
     23.7999	  848.00	  563.60	-1863.75	  465.90
     23.8333	  869.00	  563.60	-1863.75	  465.90
     23.8667	  807.00	  563.60	-1863.75	  465.90
     23.9001	  855.00	  563.60	-1863.75	  465.90
     23.9335	  816.00	  563.60	-1863.75	  465.90
     23.9670	  822.00	  563.60	-1863.75	  465.90
     24.0004	  797.00	  563.60	-1863.75	  465.90
     24.0338	  795.00	  563.60	-1863.75	  465.90
     24.0672	  768.00	  563.60	-1863.75	  465.90
     24.1007	  828.00	  563.60	-1863.75	  465.90
     24.1341	  796.00	  563.60	-1863.75	  465.90
     24.1675	  784.00	  563.60	-1863.75	  465.90
     24.2009	  821.00	  563.60	-1863.75	  465.90
     24.2344	  811.00	  563.60	-1863.75	  465.90
     24.2678	  761.00	  563.60	-1863.75	  465.90
     24.3012	  851.00	  563.60	-1863.75	  465.90
     24.3346	  777.00	  563.60	-1863.75	  465.90
     24.3680	  771.00	  563.60	-1863.75	  465.90
     24.4015	  816.00	  563.60	-1863.75	  465.90
     24.4349	  826.00	  563.60	-1863.75	  465.90
     24.4683	  754.00	  563.60	-1863.75	  465.90
     24.5017	  726.00	  563.60	-1863.75	  465.90
     24.5352	  786.00	  563.60	-1863.75	  465.90
     24.5686	  810.00	  563.60	-1863.75	  465.90
     24.6020	  776.00	  563.60	-1863.75	  465.90
     24.6354	  783.00	  563.60	-1863.75	  465.90
     24.6688	  792.00	  563.60	-1863.75	  465.90
     24.7023	  742.00	  563.60	-1863.75	  465.90
     24.7357	  752.00	  563.60	-1863.75	  465.90
     24.7691	  788.00	  563.60	-1863.75	  465.90
     24.8025	  778.00	  563.60	-1863.75	  465.90
     24.8360	  752.00	  563.60	-1863.75	  465.90
     24.8694	  743.00	  563.60	-1863.75	  465.90
     24.9028	  725.00	  563.60	-1863.75	  465.90
     24.9362	  740.00	  563.60	-1863.75	  465.90
     24.9696	  745.00	  563.60	-1863.75	  465.90
     25.0031	  705.00	  563.60	-1863.75	  465.90
     25.0365	  792.00	  563.60	-1863.75	  465.90
     25.0699	  730.00	  563.60	-1863.75	  465.90
     25.1033	  727.00	  563.60	-1863.75	  465.90
     25.1368	  686.00	  563.60	-1863.75	  465.90
     25.1702	  760.00	  563.60	-1863.75	  465.90
     25.2036	  695.00	  563.60	-1863.75	  465.90
     25.2370	  746.00	  563.60	-1863.75	  465.90
     25.2705	  724.00	  563.60	-1863.75	  465.90
     25.3039	  723.00	  563.60	-1863.75	  465.90
     25.3373	  691.00	  563.60	-1863.75	  465.90
     25.3707	  729.00	  563.60	-1863.75	  465.90
     25.4041	  682.00	  563.60	-1863.75	  465.90
     25.4376	  714.00	  563.60	-1863.75	  465.90
     25.4710	  726.00	  563.60	-1863.75	  465.90
     25.5044	  730.00	  563.60	-1863.75	  465.90
     25.5378	  729.00	  563.60	-1863.75	  465.90
     25.5713	  701.00	  563.60	-1863.75	  465.90
     25.6047	  693.00	  563.60	-1863.75	  465.90
     25.6381	  703.00	  563.60	-1863.75	  465.90
     25.6715	  686.00	  563.60	-1863.75	  465.90
     25.7049	  691.00	  563.60	-1863.75	  465.90
     25.7384	  703.00	  563.60	-1863.75	  465.90
     25.7718	  705.00	  563.60	-1863.75	  465.90
     25.8052	  722.00	  563.60	-1863.75	  465.90
     25.8386	  658.00	  563.60	-1863.75	  465.90
     25.8721	  768.00	  563.60	-1863.75	  465.90
     25.9055	  735.00	  563.60	-1863.75	  465.90
     25.9389	  709.00	  563.60	-1863.75	  465.90
     25.9723	  670.00	  563.60	-1863.75	  465.90
     26.0057	  658.00	  563.60	-1863.75	  465.90
     26.0392	  697.00	  563.60	-1863.75	  465.90
     26.0726	  677.00	  563.60	-1863.75	  465.90
     26.1060	  666.00	  563.60	-1863.75	  465.90
     26.1394	  686.00	  563.60	-1863.75	  465.90
     26.1729	  664.00	  563.60	-1863.75	  465.90
     26.2063	  658.00	  563.60	-1863.75	  465.90
     26.2397	  701.00	  563.60	-1863.75	  465.90
     26.2731	  660.00	  563.60	-1863.75	  465.90
     26.3065	  629.00	  563.60	-1863.75	  465.90
     26.3400	  633.00	  563.60	-1863.75	  465.90
     26.3734	  665.00	  563.60	-1863.75	  465.90
     26.4068	  677.00	  563.60	-1863.75	  465.90
     26.4402	  688.00	  563.60	-1863.75	  465.90
     26.4737	  667.00	  563.60	-1863.75	  465.90
     26.5071	  631.00	  563.60	-1863.75	  465.90
     26.5405	  661.00	  563.60	-1863.75	  465.90
     26.5739	  663.00	  563.60	-1863.75	  465.90
     26.6074	  668.00	  563.60	-1863.75	  465.90
     26.6408	  695.00	  563.60	-1863.75	  465.90
     26.6742	  672.00	  563.60	-1863.75	  465.90
     26.7076	  635.00	  563.60	-1863.75	  465.90
     26.7410	  662.00	  563.60	-1863.75	  465.90
     26.7745	  621.00	  563.60	-1863.75	  465.90
     26.8079	  643.00	  563.60	-1863.75	  465.90
     26.8413	  644.00	  563.60	-1863.75	  465.90
     26.8747	  691.00	  563.60	-1863.75	  465.90
     26.9082	  694.00	  563.60	-1863.75	  465.90
     26.9416	  680.00	  563.60	-1863.75	  465.90
     26.9750	  595.00	  563.60	-1863.75	  465.90
     27.0084	  643.00	  563.60	-1863.75	  465.90
     27.0418	  682.00	  563.60	-1863.75	  465.90
     27.0753	  656.00	  563.60	-1863.75	  465.90
     27.1087	  594.00	  563.60	-1863.75	  465.90
     27.1421	  609.00	  563.60	-1863.75	  465.90
     27.1755	  617.00	  563.60	-1863.75	  465.90
     27.2090	  636.00	  563.60	-1863.75	  465.90
     27.2424	  649.00	  563.60	-1863.75	  465.90
     27.2758	  651.00	  563.60	-1863.75	  465.90
     27.3092	  615.00	  563.60	-1863.75	  465.90
     27.3426	  604.00	  563.60	-1863.75	  465.90
     27.3761	  631.00	  563.60	-1863.75	  465.90
     27.4095	  692.00	  563.60	-1863.75	  465.90
     27.4429	  621.00	  563.60	-1863.75	  465.90
     27.4763	  677.00	  563.60	-1863.75	  465.90
     27.5098	  614.00	  563.60	-1863.75	  465.90
     27.5432	  605.00	  563.60	-1863.75	  465.90
     27.5766	  630.00	  563.60	-1863.75	  465.90
     27.6100	  613.00	  563.60	-1863.75	  465.90
     27.6434	  610.00	  563.60	-1863.75	  465.90
     27.6769	  633.00	  563.60	-1863.75	  465.90
     27.7103	  601.00	  563.60	-1863.75	  465.90
     27.7437	  680.00	  563.60	-1863.75	  465.90
     27.7771	  687.00	  563.60	-1863.75	  465.90
     27.8106	  684.00	  563.60	-1863.75	  465.90
     27.8440	  622.00	  563.60	-1863.75	  465.90
     27.8774	  623.00	  563.60	-1863.75	  465.90
     27.9108	  624.00	  563.60	-1863.75	  465.90
     27.9443	  637.00	  563.60	-1863.75	  465.90
     27.9777	  617.00	  563.60	-1863.75	  465.90
     28.0111	  653.00	  563.60	-1863.75	  465.90
     28.0445	  575.00	  563.60	-1863.75	  465.90
     28.0779	  642.00	  563.60	-1863.75	  465.90
     28.1114	  629.00	  563.60	-1863.75	  465.90
     28.1448	  606.00	  563.60	-1863.75	  465.90
     28.1782	  624.00	  563.60	-1863.75	  465.90
     28.2116	  605.00	  563.60	-1863.75	  465.90
     28.2451	  581.00	  563.60	-1863.75	  465.90
     28.2785	  586.00	  563.60	-1863.75	  465.90
     28.3119	  629.00	  563.60	-1863.75	  465.90
     28.3453	  635.00	  563.60	-1863.75	  465.90
     28.3787	  640.00	  563.60	-1863.75	  465.90
     28.4122	  600.00	  563.60	-1863.75	  465.90
     28.4456	  583.00	  563.60	-1863.75	  465.90
     28.4790	  631.00	  563.60	-1863.75	  465.90
     28.5124	  559.00	  563.60	-1863.75	  465.90
     28.5459	  616.00	  563.60	-1863.75	  465.90
     28.5793	  646.00	  563.60	-1863.75	  465.90
     28.6127	  580.00	  563.60	-1863.75	  465.90
     28.6461	  629.00	  563.60	-1863.75	  465.90
     28.6795	  640.00	  563.60	-1863.75	  465.90
     28.7130	  619.00	  563.60	-1863.75	  465.90
     28.7464	  577.00	  563.60	-1863.75	  465.90
     28.7798	  635.00	  563.60	-1863.75	  465.90
     28.8132	  593.00	  563.60	-1863.75	  465.90
     28.8467	  617.00	  563.60	-1863.75	  465.90
     28.8801	  550.00	  563.60	-1863.75	  465.90
     28.9135	  590.00	  563.60	-1863.75	  465.90
     28.9469	  593.00	  563.60	-1863.75	  465.90
     28.9804	  616.00	  563.60	-1863.75	  465.90
     29.0138	  634.00	  563.60	-1863.75	  465.90
     29.0472	  611.00	  563.60	-1863.75	  465.90
     29.0806	  626.00	  563.60	-1863.75	  465.90
     29.1140	  631.00	  563.60	-1863.75	  465.90
     29.1475	  608.00	  563.60	-1863.75	  465.90
     29.1809	  623.00	  563.60	-1863.75	  465.90
     29.2143	  626.00	  563.60	-1863.75	  465.90
     29.2477	  641.00	  563.60	-1863.75	  465.90
     29.2812	  568.00	  563.60	-1863.75	  465.90
     29.3146	  617.00	  563.60	-1863.75	  465.90
     29.3480	  629.00	  563.60	-1863.75	  465.90
     29.3814	  588.00	  563.60	-1863.75	  465.90
     29.4148	  629.00	  563.60	-1863.75	  465.90
     29.4483	  603.00	  563.60	-1863.75	  465.90
     29.4817	  599.00	  563.60	-1863.75	  465.90
     29.5151	  619.00	  563.60	-1863.75	  465.90
     29.5485	  580.00	  563.60	-1863.75	  465.90
     29.5820	  532.00	  563.60	-1863.75	  465.90
     29.6154	  551.00	  563.60	-1863.75	  465.90
     29.6488	  604.00	  563.60	-1863.75	  465.90
     29.6822	  611.00	  563.60	-1863.75	  465.90
     29.7156	  612.00	  563.60	-1863.75	  465.90
     29.7491	  540.00	  563.60	-1863.75	  465.90
     29.7825	  574.00	  563.60	-1863.75	  465.90
     29.8159	  582.00	  563.60	-1863.75	  465.90
     29.8493	  590.00	  563.60	-1863.75	  465.90
     29.8828	  565.00	  563.60	-1863.75	  465.90
     29.9162	  590.00	  563.60	-1863.75	  465.90
     29.9496	  612.00	  563.60	-1863.75	  465.90
     29.9830	  583.00	  563.60	-1863.75	  465.90
     30.0164	  534.00	  563.60	-1863.75	  465.90
     30.0499	  537.00	  563.60	-1863.75	  465.90
     30.0833	  651.00	  563.60	-1863.75	  465.90
     30.1167	  561.00	  563.60	-1863.75	  465.90
     30.1501	  612.00	  563.60	-1863.75	  465.90
     30.1836	  591.00	  563.60	-1863.75	  465.90
     30.2170	  563.00	  563.60	-1863.75	  465.90
     30.2504	  564.00	  563.60	-1863.75	  465.90
     30.2838	  550.00	  563.60	-1863.75	  465.90
     30.3173	  544.00	  563.60	-1863.75	  465.90
     30.3507	  599.00	  563.60	-1863.75	  465.90
     30.3841	  590.00	  563.60	-1863.75	  465.90
     30.4175	  583.00	  563.60	-1863.75	  465.90
     30.4509	  572.00	  563.60	-1863.75	  465.90
     30.4844	  578.00	  563.60	-1863.75	  465.90
     30.5178	  615.00	  563.60	-1863.75	  465.90
     30.5512	  570.00	  563.60	-1863.75	  465.90
     30.5846	  589.00	  563.60	-1863.75	  465.90
     30.6181	  602.00	  563.60	-1863.75	  465.90
     30.6515	  579.00	  563.60	-1863.75	  465.90
     30.6849	  604.00	  563.60	-1863.75	  465.90
     30.7183	  579.00	  563.60	-1863.75	  465.90
     30.7517	  584.00	  563.60	-1863.75	  465.90
     30.7852	  571.00	  563.60	-1863.75	  465.90
     30.8186	  584.00	  563.60	-1863.75	  465.90
     30.8520	  572.00	  563.60	-1863.75	  465.90
     30.8854	  602.00	  563.60	-1863.75	  465.90
     30.9189	  582.00	  563.60	-1863.75	  465.90
     30.9523	  551.00	  563.60	-1863.75	  465.90
     30.9857	  574.00	  563.60	-1863.75	  465.90
     31.0191	  560.00	  563.60	-1863.75	  465.90
     31.0525	  544.00	  563.60	-1863.75	  465.90
     31.0860	  554.00	  563.60	-1863.75	  465.90
     31.1194	  539.00	  563.60	-1863.75	  465.90
     31.1528	  594.00	  563.60	-1863.75	  465.90
     31.1862	  637.00	  563.60	-1863.75	  465.90
     31.2197	  560.00	  563.60	-1863.75	  465.90
     31.2531	  592.00	  563.60	-1863.75	  465.90
     31.2865	  636.00	  563.60	-1863.75	  465.90
     31.3199	  582.00	  563.60	-1863.75	  465.90
     31.3534	  570.00	  563.60	-1863.75	  465.90
     31.3868	  551.00	  563.60	-1863.75	  465.90
     31.4202	  586.00	  563.60	-1863.75	  465.90
     31.4536	  532.00	  563.60	-1863.75	  465.90
     31.4870	  539.00	  563.60	-1863.75	  465.90
     31.5205	  604.00	  563.60	-1863.75	  465.90
     31.5539	  563.00	  563.60	-1863.75	  465.90
     31.5873	  534.00	  563.60	-1863.75	  465.90
     31.6207	  584.00	  563.60	-1863.75	  465.90
     31.6542	  620.00	  563.60	-1863.75	  465.90
     31.6876	  567.00	  563.60	-1863.75	  465.90
     31.7210	  575.00	  563.60	-1863.75	  465.90
     31.7544	  594.00	  563.60	-1863.75	  465.90
     31.7878	  539.00	  563.60	-1863.75	  465.90
     31.8213	  591.00	  563.60	-1863.75	  465.90
     31.8547	  559.00	  563.60	-1863.75	  465.90
     31.8881	  547.00	  563.60	-1863.75	  465.90
     31.9215	  520.00	  563.60	-1863.75	  465.90
     31.9550	  561.00	  563.60	-1863.75	  465.90
     31.9884	  561.00	  563.60	-1863.75	  465.90
     32.0218	  602.00	  563.60	-1863.75	  465.90
     32.0552	  564.00	  563.60	-1863.75	  465.90
     32.0886	  592.00	  563.60	-1863.75	  465.90
     32.1221	  590.00	  563.60	-1863.75	  465.90
     32.1555	  551.00	  563.60	-1863.75	  465.90
     32.1889	  560.00	  563.60	-1863.75	  465.90
     32.2223	  580.00	  563.60	-1863.75	  465.90
     32.2558	  560.00	  563.60	-1863.75	  465.90
     32.2892	  542.00	  563.60	-1863.75	  465.90
     32.3226	  537.00	  563.60	-1863.75	  465.90
     32.3560	  567.00	  563.60	-1863.75	  465.90
     32.3895	  572.00	  563.60	-1863.75	  465.90
     32.4229	  546.00	  563.60	-1863.75	  465.90
     32.4563	  559.00	  563.60	-1863.75	  465.90
     32.4897	  578.00	  563.60	-1863.75	  465.90
     32.5231	  561.00	  563.60	-1863.75	  465.90
     32.5566	  555.00	  563.60	-1863.75	  465.90
     32.5900	  603.00	  563.60	-1863.75	  465.90
     32.6234	  591.00	  563.60	-1863.75	  465.90
     32.6568	  569.00	  563.60	-1863.75	  465.90
     32.6903	  602.00	  563.60	-1863.75	  465.90
     32.7237	  573.00	  563.60	-1863.75	  465.90
     32.7571	  542.00	  563.60	-1863.75	  465.90
     32.7905	  549.00	  563.60	-1863.75	  465.90
     32.8239	  558.00	  563.60	-1863.75	  465.90
     32.8574	  567.00	  563.60	-1863.75	  465.90
     32.8908	  557.00	  563.60	-1863.75	  465.90
     32.9242	  550.00	  563.60	-1863.75	  465.90
     32.9576	  602.00	  563.60	-1863.75	  465.90
     32.9911	  548.00	  563.60	-1863.75	  465.90
     33.0245	  595.00	  563.60	-1863.75	  465.90
     33.0579	  550.00	  563.60	-1863.75	  465.90
     33.0913	  563.00	  563.60	-1863.75	  465.90
     33.1247	  511.00	  563.60	-1863.75	  465.90
     33.1582	  580.00	  563.60	-1863.75	  465.90
     33.1916	  569.00	  563.60	-1863.75	  465.90
     33.2250	  562.00	  563.60	-1863.75	  465.90
     33.2584	  518.00	  563.60	-1863.75	  465.90
     33.2919	  539.00	  563.60	-1863.75	  465.90
     33.3253	  583.00	  563.60	-1863.75	  465.90
     33.3587	  547.00	  563.60	-1863.75	  465.90
     33.3921	  577.00	  563.60	-1863.75	  465.90
     33.4255	  605.00	  563.60	-1863.75	  465.90
     33.4590	  578.00	  563.60	-1863.75	  465.90
     33.4924	  546.00	  563.60	-1863.75	  465.90
     33.5258	  569.00	  563.60	-1863.75	  465.90
     33.5592	  522.00	  563.60	-1863.75	  465.90
     33.5927	  571.00	  563.60	-1863.75	  465.90
     33.6261	  575.00	  563.60	-1863.75	  465.90
     33.6595	  559.00	  563.60	-1863.75	  465.90
     33.6929	  528.00	  563.60	-1863.75	  465.90
     33.7264	  574.00	  563.60	-1863.75	  465.90
     33.7598	  575.00	  563.60	-1863.75	  465.90
     33.7932	  531.00	  563.60	-1863.75	  465.90
     33.8266	  583.00	  563.60	-1863.75	  465.90
     33.8600	  550.00	  563.60	-1863.75	  465.90
     33.8935	  543.00	  563.60	-1863.75	  465.90
     33.9269	  586.00	  563.60	-1863.75	  465.90
     33.9603	  540.00	  563.60	-1863.75	  465.90
     33.9937	  536.00	  563.60	-1863.75	  465.90
     34.0272	  586.00	  563.60	-1863.75	  465.90
     34.0606	  585.00	  563.60	-1863.75	  465.90
     34.0940	  583.00	  563.60	-1863.75	  465.90
     34.1274	  537.00	  563.60	-1863.75	  465.90
     34.1608	  575.00	  563.60	-1863.75	  465.90
     34.1943	  577.00	  563.60	-1863.75	  465.90
     34.2277	  565.00	  563.60	-1863.75	  465.90
     34.2611	  571.00	  563.60	-1863.75	  465.90
     34.2945	  564.00	  563.60	-1863.75	  465.90
     34.3280	  557.00	  563.60	-1863.75	  465.90
     34.3614	  594.00	  563.60	-1863.75	  465.90
     34.3948	  543.00	  563.60	-1863.75	  465.90
     34.4282	  555.00	  563.60	-1863.75	  465.90
     34.4616	  577.00	  563.60	-1863.75	  465.90
     34.4951	  570.00	  563.60	-1863.75	  465.90
     34.5285	  577.00	  563.60	-1863.75	  465.90
     34.5619	  514.00	  563.60	-1863.75	  465.90
     34.5953	  552.00	  563.60	-1863.75	  465.90
     34.6288	  522.00	  563.60	-1863.75	  465.90
     34.6622	  559.00	  563.60	-1863.75	  465.90
     34.6956	  595.00	  563.60	-1863.75	  465.90
     34.7290	  573.00	  563.60	-1863.75	  465.90
     34.7625	  570.00	  563.60	-1863.75	  465.90
     34.7959	  575.00	  563.60	-1863.75	  465.90
     34.8293	  539.00	  563.60	-1863.75	  465.90
     34.8627	  582.00	  563.60	-1863.75	  465.90
     34.8961	  552.00	  563.60	-1863.75	  465.90
     34.9296	  562.00	  563.60	-1863.75	  465.90
     34.9630	  609.00	  563.60	-1863.75	  465.90
     34.9964	  581.00	  563.60	-1863.75	  465.90
     35.0298	  559.00	  563.60	-1868.35	  465.90
     35.0633	  580.00	  563.60	-1847.35	  465.90
     35.0967	  534.00	  563.60	-1893.35	  465.90
     35.1301	  551.00	  563.60	-1876.35	  465.90
     35.1635	  552.00	  563.60	-1875.35	  465.90
     35.1969	  542.00	  563.60	-1885.35	  465.90
     35.2304	  580.00	  563.60	-1847.35	  465.90
     35.2638	  541.00	  563.60	-1886.35	  465.90
     35.2972	  568.00	  563.60	-1859.35	  465.90
     35.3306	  590.00	  563.60	-1837.35	  465.90
     35.3641	  548.00	  563.60	-1879.35	  465.90
     35.3975	  548.00	  563.60	-1879.35	  465.90
     35.4309	  507.00	  563.60	-1920.35	  465.90
     35.4643	  547.00	  563.60	-1880.35	  465.90
     35.4977	  527.00	  563.60	-1900.35	  465.90
     35.5312	  548.00	  563.60	-1879.35	  465.90
     35.5646	  591.00	  563.60	-1836.35	  465.90
     35.5980	  585.00	  563.60	-1842.35	  465.90
     35.6314	  617.00	  563.60	-1810.35	  465.90
     35.6649	  554.00	  563.60	-1873.35	  465.90
     35.6983	  560.00	  563.60	-1867.35	  465.90
     35.7317	  565.00	  563.60	-1862.35	  465.90
     35.7651	  553.00	  563.60	-1874.35	  465.90
     35.7985	  563.00	  563.60	-1864.35	  465.90
     35.8320	  558.00	  563.62	-1869.37	  465.92
     35.8654	  571.00	  563.80	-1856.55	  466.10
     35.8988	  562.00	  563.97	-1865.72	  466.27
     35.9322	  569.00	  564.14	-1858.89	  466.44
     35.9657	  518.00	  564.32	-1910.07	  466.62
     35.9991	  562.00	  564.49	-1866.24	  466.79
     36.0325	  582.00	  564.67	-1846.42	  466.97
     36.0659	  595.00	  564.84	-1833.59	  467.14
     36.0993	  548.00	  565.01	-1880.76	  467.31
     36.1328	  552.00	  565.19	-1876.94	  467.49
     36.1662	  595.00	  565.36	-1834.11	  467.66
     36.1996	  537.00	  565.54	-1892.29	  467.84
     36.2330	  584.00	  565.71	-1845.46	  468.01
     36.2665	  522.00	  565.88	-1907.63	  468.18
     36.2999	  620.00	  566.06	-1809.81	  468.36
     36.3333	  601.00	  566.23	-1828.98	  468.53
     36.3667	  598.00	  566.41	-1832.16	  468.71
     36.4002	  594.00	  566.58	-1836.33	  468.88
     36.4336	  550.00	  566.75	-1880.50	  469.05
     36.4670	  541.00	  566.93	-1889.68	  469.23
     36.5004	  578.00	  567.10	-1852.85	  469.40
     36.5338	  588.00	  567.28	-1843.03	  469.58
     36.5673	  603.00	  567.45	-1828.20	  469.75
     36.6007	  551.00	  567.62	-1880.37	  469.92
     36.6341	  562.00	  567.80	-1869.55	  470.10
     36.6675	  582.00	  567.97	-1849.72	  470.27
     36.7010	  584.00	  568.15	-1847.90	  470.45
     36.7344	  595.00	  568.32	-1837.07	  470.62
     36.7678	  621.00	  568.49	-1811.24	  470.79
     36.8012	  601.00	  568.67	-1831.42	  470.97
     36.8346	  609.00	  568.84	-1823.59	  471.14
     36.8681	  553.00	  569.02	-1879.77	  471.32
     36.9015	  501.00	  569.19	-1931.94	  471.49
     36.9349	  595.00	  569.36	-1838.11	  471.66
     36.9683	  558.00	  569.54	-1875.29	  471.84
     37.0018	  562.00	  569.71	-1871.46	  472.01
     37.0352	  564.00	  569.89	-1869.64	  472.19
     37.0686	  568.00	  570.06	-1865.81	  472.36
     37.1020	  616.00	  570.23	-1817.98	  472.53
     37.1355	  548.00	  570.41	-1886.16	  472.71
     37.1689	  603.00	  570.58	-1831.33	  472.88
     37.2023	  598.00	  570.76	-1836.51	  473.06
     37.2357	  629.00	  570.93	-1805.68	  473.23
     37.2691	  586.00	  571.10	-1848.85	  473.40
     37.3026	  559.00	  571.28	-1876.03	  473.58
     37.3360	  621.00	  571.45	-1814.20	  473.75
     37.3694	  537.00	  571.63	-1898.38	  473.93
     37.4028	  585.00	  571.80	-1850.55	  474.10
     37.4363	  547.00	  571.97	-1888.72	  474.27
     37.4697	  565.00	  572.15	-1870.90	  474.45
     37.5031	  586.00	  572.32	-1850.07	  474.62
     37.5365	  586.00	  572.50	-1850.25	  474.80
     37.5699	  581.00	  572.67	-1855.42	  474.97
     37.6034	  602.00	  572.84	-1834.59	  475.14
     37.6368	  570.00	  573.02	-1866.77	  475.32
     37.6702	  586.00	  573.19	-1850.94	  475.49
     37.7036	  582.00	  573.37	-1855.12	  475.67
     37.7371	  552.00	  573.54	-1885.29	  475.84
     37.7705	  521.00	  573.71	-1916.46	  476.01
     37.8039	  603.00	  573.89	-1834.64	  476.19
     37.8373	  563.00	  574.06	-1874.81	  476.36
     37.8707	  588.00	  574.24	-1849.99	  476.54
     37.9042	  565.00	  574.41	-1873.16	  476.71
     37.9376	  546.00	  574.58	-1892.33	  476.88
     37.9710	  559.00	  574.76	-1879.51	  477.06
     38.0044	  573.00	  574.93	-1865.68	  477.23
     38.0379	  548.00	  575.11	-1890.86	  477.41
     38.0713	  539.00	  575.28	-1900.03	  477.58
     38.1047	  553.00	  575.45	-1886.20	  477.75
     38.1381	  542.00	  575.63	-1897.38	  477.93
     38.1715	  617.00	  575.80	-1822.55	  478.10
     38.2050	  575.00	  575.98	-1864.73	  478.28
     38.2384	  565.00	  576.15	-1874.90	  478.45
     38.2718	  589.00	  576.32	-1851.07	  478.62
     38.3052	  555.00	  576.50	-1885.25	  478.80
     38.3387	  588.00	  576.67	-1852.42	  478.97
     38.3721	  580.00	  576.85	-1860.60	  479.15
     38.4055	  564.00	  577.02	-1876.77	  479.32
     38.4389	  571.00	  577.19	-1869.94	  479.49
     38.4724	  560.00	  577.37	-1881.12	  479.67
     38.5058	  599.00	  577.54	-1842.29	  479.84
     38.5392	  549.00	  577.72	-1892.47	  480.02
     38.5726	  540.00	  577.89	-1901.64	  480.19
     38.6060	  596.00	  578.06	-1845.81	  480.36
     38.6395	  624.00	  578.24	-1817.99	  480.54
     38.6729	  579.00	  578.41	-1863.16	  480.71
     38.7063	  526.00	  578.59	-1916.34	  480.89
     38.7397	  592.00	  578.76	-1850.51	  481.06
     38.7732	  578.00	  578.93	-1864.68	  481.23
     38.8066	  567.00	  579.11	-1875.86	  481.41
     38.8400	  583.00	  579.28	-1860.03	  481.58
     38.8734	  582.00	  579.46	-1861.21	  481.76
     38.9068	  569.00	  579.63	-1874.38	  481.93
     38.9403	  552.00	  579.81	-1891.56	  482.11
     38.9737	  569.00	  580.03	-1874.78	  482.33
     39.0071	  544.00	  580.25	-1900.00	  482.55
     39.0405	  542.00	  580.48	-1902.23	  482.78
     39.0740	  572.00	  580.70	-1872.45	  483.00
     39.1074	  561.00	  580.92	-1883.67	  483.22
     39.1408	  563.00	  581.15	-1881.90	  483.45
     39.1742	  560.00	  581.37	-1885.12	  483.67
     39.2076	  558.00	  581.59	-1887.34	  483.89
     39.2411	  567.00	  581.82	-1878.57	  484.12
     39.2745	  542.00	  582.04	-1903.79	  484.34
     39.3079	  594.00	  582.26	-1852.01	  484.56
     39.3413	  561.00	  582.49	-1885.24	  484.79
     39.3748	  534.00	  582.71	-1912.46	  485.01
     39.4082	  601.00	  582.93	-1845.68	  485.23
     39.4416	  564.00	  583.16	-1882.91	  485.46
     39.4750	  565.00	  583.38	-1882.13	  485.68
     39.5084	  599.00	  583.60	-1848.35	  485.90
     39.5419	  572.00	  583.83	-1875.58	  486.13
     39.5753	  590.00	  584.05	-1857.80	  486.35
     39.6087	  580.00	  584.27	-1868.02	  486.57
     39.6421	  599.00	  584.50	-1849.25	  486.79
     39.6756	  548.00	  584.72	-1900.47	  487.02
     39.7090	  633.00	  584.94	-1815.69	  487.24
     39.7424	  577.00	  585.17	-1871.92	  487.46
     39.7758	  574.00	  585.39	-1875.14	  487.69
     39.8093	  537.00	  585.61	-1912.36	  487.91
     39.8427	  574.00	  585.84	-1875.58	  488.13
     39.8761	  574.00	  586.06	-1875.81	  488.36
     39.9095	  612.00	  586.28	-1838.03	  488.58
     39.9429	  588.00	  586.51	-1862.25	  488.80
     39.9764	  601.00	  586.73	-1849.48	  489.03
     40.0098	  584.00	  586.95	-1866.70	  489.25
     40.0432	  602.00	  587.18	-1848.92	  489.47
     40.0766	  562.00	  587.40	-1889.15	  489.70
     40.1101	  583.00	  587.62	-1868.37	  489.92
     40.1435	  558.00	  587.84	-1893.59	  490.14
     40.1769	  558.00	  588.07	-1893.82	  490.37
     40.2103	  561.00	  588.29	-1891.04	  490.59
     40.2437	  584.00	  588.51	-1868.26	  490.81
     40.2772	  588.00	  588.74	-1864.49	  491.04
     40.3106	  569.00	  588.96	-1883.71	  491.26
     40.3440	  592.00	  589.18	-1860.93	  491.48
     40.3774	  562.00	  589.41	-1891.16	  491.71
     40.4109	  564.00	  589.63	-1889.38	  491.93
     40.4443	  572.00	  589.85	-1881.60	  492.15
     40.4777	  553.00	  590.08	-1900.83	  492.38
     40.5111	  592.00	  590.30	-1862.05	  492.60
     40.5445	  544.00	  590.52	-1910.27	  492.82
     40.5780	  541.00	  590.75	-1913.50	  493.05
     40.6114	  600.00	  590.97	-1854.72	  493.27
     40.6448	  592.00	  591.19	-1862.94	  493.49
     40.6782	  555.00	  591.42	-1900.17	  493.72
     40.7117	  553.00	  591.64	-1902.39	  493.94
     40.7451	  540.00	  591.86	-1915.61	  494.16
     40.7785	  559.00	  592.09	-1896.84	  494.39
     40.8119	  586.00	  592.31	-1870.06	  494.61
     40.8454	  598.00	  592.53	-1858.28	  494.83
     40.8788	  605.00	  592.76	-1851.51	  495.06
     40.9122	  581.00	  592.98	-1875.73	  495.28
     40.9456	  549.00	  593.20	-1907.95	  495.50
     40.9790	  611.00	  593.43	-1846.18	  495.73
     41.0125	  574.00	  593.65	-1883.40	  495.95
     41.0459	  563.00	  593.87	-1894.62	  496.17
     41.0793	  570.00	  594.10	-1887.85	  496.40
     41.1127	  588.00	  594.32	-1870.07	  496.62
     41.1462	  541.00	  594.54	-1917.29	  496.84
     41.1796	  616.00	  594.77	-1842.52	  497.07
     41.2130	  559.00	  594.99	-1899.74	  497.29
     41.2464	  532.00	  595.21	-1926.96	  497.51
     41.2798	  613.00	  595.44	-1846.19	  497.74
     41.3133	  604.00	  595.66	-1855.41	  497.96
     41.3467	  598.00	  595.88	-1861.63	  498.18
     41.3801	  540.00	  596.11	-1919.86	  498.41
     41.4135	  592.00	  596.33	-1868.08	  498.63
     41.4470	  603.00	  596.55	-1857.30	  498.85
     41.4804	  604.00	  596.78	-1856.53	  499.08
     41.5138	  537.00	  597.00	-1923.75	  499.30
     41.5472	  589.00	  597.22	-1871.97	  499.52
     41.5807	  594.00	  597.45	-1867.20	  499.75
     41.6141	  595.00	  597.67	-1866.42	  499.97
     41.6475	  568.00	  597.89	-1893.64	  500.19
     41.6809	  604.00	  598.12	-1857.87	  500.42
     41.7143	  600.00	  598.34	-1862.09	  500.64
     41.7478	  527.00	  598.56	-1935.31	  500.86
     41.7812	  560.00	  598.72	-1902.47	  501.02
     41.8146	  584.00	  598.76	-1878.51	  501.06
     41.8480	  619.00	  598.80	-1843.55	  501.10
     41.8815	  564.00	  598.84	-1898.59	  501.14
     41.9149	  548.00	  598.89	-1914.64	  501.19
     41.9483	  561.00	  598.93	-1901.68	  501.23
     41.9817	  588.00	  598.97	-1874.72	  501.27
     42.0151	  555.00	  599.01	-1907.76	  501.31
     42.0486	  568.00	  599.06	-1894.81	  501.36
     42.0820	  616.00	  599.10	-1846.85	  501.40
     42.1154	  611.00	  599.14	-1851.89	  501.44
     42.1488	  542.00	  599.18	-1920.93	  501.48
     42.1823	  632.00	  599.23	-1830.98	  501.53
     42.2157	  579.00	  599.27	-1884.02	  501.57
     42.2491	  616.00	  610.56	-1858.31	  501.61
     42.2825	  541.00	  610.96	-1933.71	  501.65
     42.3159	  606.00	  611.37	-1869.12	  501.70
     42.3494	  631.00	  617.33	-1850.08	  501.74
     42.3828	  522.00	  617.94	-1959.69	  501.78
     42.4162	  604.00	  618.59	-1878.34	  501.82
     42.4496	  649.00	  619.26	-1834.01	  501.87
     42.4831	  614.00	  619.97	-1869.72	  501.91
     42.5165	  664.00	  620.71	-1820.46	  501.95
     42.5499	  601.00	  621.49	-1884.24	  501.99
     42.5833	  608.00	  622.31	-1878.06	  502.04
     42.6167	  634.00	  623.17	-1852.92	  502.08
     42.6502	  595.00	  624.07	-1892.82	  502.12
     42.6836	  621.00	  625.02	-1867.77	  502.16
     42.7170	  627.00	  626.03	-1862.78	  502.21
     42.7504	  637.00	  627.09	-1853.84	  502.25
     42.7839	  622.00	  628.21	-1869.96	  502.29
     42.8173	  631.00	  629.40	-1862.15	  502.33
     42.8507	  634.00	  630.66	-1860.41	  502.38
     42.8841	  623.00	  631.99	-1872.74	  502.42
     42.9175	  623.00	  633.41	-1874.16	  502.46
     42.9510	  637.00	  634.92	-1861.67	  502.50
     42.9844	  619.00	  636.53	-1881.28	  502.55
     43.0178	  626.00	  638.25	-1876.00	  502.59
     43.0512	  644.00	  640.09	-1859.84	  502.63
     43.0847	  619.00	  642.06	-1886.81	  502.67
     43.1181	  665.00	  644.17	-1842.92	  502.72
     43.1515	  655.00	  646.44	-1855.19	  502.76
     43.1849	  673.00	  648.88	-1839.63	  502.80
     43.2184	  656.00	  651.52	-1859.27	  502.84
     43.2518	  658.00	  654.37	-1860.11	  502.89
     43.2852	  692.00	  657.45	-1829.20	  502.93
     43.3186	  708.00	  660.81	-1816.56	  502.97
     43.3520	  667.00	  664.46	-1861.21	  503.01
     43.3855	  670.00	  668.45	-1862.19	  503.06
     43.4189	  654.00	  672.81	-1882.56	  503.10
     43.4523	  629.00	  677.60	-1912.35	  503.14
     43.4857	  636.00	  682.87	-1910.62	  503.18
     43.5192	  677.00	  688.70	-1875.45	  503.23
     43.5526	  635.00	  695.16	-1923.91	  503.27
     43.5860	  686.00	  702.35	-1880.10	  503.31
     43.6194	  666.00	  710.39	-1908.14	  503.35
     43.6528	  646.00	  719.41	-1937.15	  503.40
     43.6863	  657.00	  729.57	-1936.32	  503.44
     43.7197	  626.00	  741.09	-1978.84	  503.48
     43.7531	  649.00	  754.21	-1968.96	  503.52
     43.7865	  726.00	  769.25	-1907.00	  503.57
     43.8200	  717.00	  786.60	-1933.35	  503.61
     43.8534	  764.00	  806.75	-1906.50	  503.65
     43.8868	  753.00	  830.34	-1941.09	  503.70
     43.9202	  698.00	  857.89	-2023.64	  503.43
     43.9536	  754.00	  890.75	-2000.50	  503.13
     43.9871	  808.00	  930.41	-1986.16	  502.83
     44.0205	  846.00	  978.85	-1996.60	  502.53
     44.0539	  891.00	 1038.80	-2011.55	  502.24
     44.0873	 1020.00	 1114.20	-1957.95	  501.94
     44.1208	 1147.00	 1211.00	-1927.75	  501.64
     44.1542	 1265.00	 1338.59	-1937.34	  501.34
     44.1876	 1453.00	 1512.40	-1923.15	  501.04
     44.2210	 1765.00	 1757.78	-1856.53	  500.75
     44.2544	 2040.00	 2114.37	-1938.12	  500.45
     44.2879	 2587.00	 2639.19	-1915.94	  500.15
     44.3213	 3412.00	 3402.43	-1854.18	  499.85
     44.3547	 4381.00	 4461.77	-1944.52	  499.56
     44.3881	 5643.00	 5766.65	-1987.40	  499.26
     44.4216	 6710.00	 6961.57	-2115.32	  498.96
     44.4550	 6990.00	 7455.00	-2328.75	  498.66
     44.4884	 7023.00	 7168.40	-2009.15	  498.37
     44.5218	 6627.00	 6583.56	-1820.31	  498.07
     44.5553	 5817.00	 5868.36	-1915.11	  497.77
     44.5887	 4905.00	 4925.77	-1884.52	  497.47
     44.6221	 3995.00	 3907.28	-1776.03	  497.17
     44.6555	 3065.00	 3044.42	-1843.17	  496.88
     44.6889	 2495.00	 2405.29	-1774.04	  496.58
     44.7224	 1846.00	 1956.64	-1974.39	  496.28
     44.7558	 1570.00	 1645.89	-1939.64	  495.98
     44.7892	 1302.00	 1428.62	-1990.37	  495.69
     44.8226	 1176.00	 1272.95	-1960.70	  495.39
     44.8561	  982.00	 1157.80	-2039.55	  495.09
     44.8895	  973.00	 1069.93	-1960.68	  494.79
     44.9229	  845.00	 1001.09	-2019.84	  494.49
     44.9563	  818.00	  946.03	-1991.78	  494.20
     44.9897	  740.00	  901.24	-2024.99	  493.90
     45.0232	  713.00	  864.32	-2015.07	  493.60
     45.0566	  663.00	  833.51	-2034.26	  493.30
     45.0900	  663.00	  807.53	-2008.28	  493.01
     45.1234	  689.00	  785.41	-1960.16	  492.71
     45.1569	  706.00	  766.43	-1924.18	  492.41
     45.1903	  691.00	  750.00	-1922.75	  492.11
     45.2237	  630.00	  735.68	-1969.43	  491.81
     45.2571	  663.00	  723.13	-1923.88	  491.52
     45.2906	  631.00	  712.05	-1944.80	  491.22
     45.3240	  620.00	  702.23	-1945.98	  490.92
     45.3574	  606.00	  693.46	-1951.21	  490.62
     45.3908	  652.00	  685.61	-1897.36	  490.33
     45.4242	  588.00	  678.55	-1954.30	  490.03
     45.4577	  642.00	  672.16	-1893.91	  489.73
     45.4911	  625.00	  666.37	-1905.11	  489.43
     45.5245	  595.00	  661.09	-1929.84	  489.13
     45.5579	  611.00	  656.27	-1909.02	  488.84
     45.5914	  610.00	  651.85	-1905.60	  488.54
     45.6248	  574.00	  647.78	-1937.53	  488.24
     45.6582	  600.00	  644.03	-1907.78	  487.94
     45.6916	  561.00	  640.56	-1943.31	  487.65
     45.7250	  591.00	  637.34	-1910.09	  487.35
     45.7585	  546.00	  634.35	-1952.10	  487.05
     45.7919	  544.00	  631.56	-1951.31	  486.75
     45.8253	  622.00	  628.96	-1870.70	  486.46
     45.8587	  586.00	  626.51	-1904.26	  486.16
     45.8922	  533.00	  624.22	-1954.97	  485.86
     45.9256	  568.00	  622.07	-1917.82	  485.56
     45.9590	  565.00	  620.04	-1918.79	  485.26
     45.9924	  527.00	  618.12	-1954.87	  484.97
     46.0258	  574.00	  616.07	-1905.82	  484.43
     46.0593	  553.00	  613.80	-1924.55	  483.58
     46.0927	  593.00	  611.62	-1882.37	  482.73
     46.1261	  603.00	  609.51	-1870.26	  481.88
     46.1595	  568.00	  607.48	-1903.23	  481.03
     46.1930	  539.00	  605.52	-1930.27	  480.17
     46.2264	  528.00	  603.62	-1939.37	  479.32
     46.2598	  541.00	  601.79	-1924.53	  478.47
     46.2932	  555.00	  600.00	-1908.75	  477.62
     46.3266	  547.00	  598.26	-1915.01	  476.77
     46.3601	  565.00	  596.58	-1895.33	  475.92
     46.3935	  579.00	  594.93	-1879.68	  475.07
     46.4269	  585.00	  593.33	-1872.08	  474.22
     46.4603	  527.00	  591.76	-1928.51	  473.37
     46.4938	  598.00	  590.23	-1855.98	  472.52
     46.5272	  589.00	  588.73	-1863.48	  471.67
     46.5606	  573.00	  587.26	-1878.01	  470.82
     46.5940	  542.00	  585.82	-1907.57	  469.97
     46.6274	  552.00	  584.41	-1896.16	  469.12
     46.6609	  600.00	  583.03	-1846.78	  468.26
     46.6943	  526.00	  571.01	-1908.76	  467.41
     46.7277	  539.00	  569.98	-1894.73	  466.56
     46.7611	  517.00	  568.96	-1915.71	  465.71
     46.7946	  562.00	  562.56	-1864.31	  464.86
     46.8280	  555.00	  561.71	-1870.46	  464.01
     46.8614	  553.00	  560.86	-1871.61	  463.16
     46.8948	  562.00	  560.01	-1861.76	  462.31
     46.9283	  536.00	  559.16	-1886.91	  461.46
     46.9617	  509.00	  558.31	-1913.06	  460.61
     46.9951	  534.00	  557.46	-1887.21	  459.76
     47.0285	  540.00	  556.61	-1880.36	  458.91
     47.0619	  522.00	  555.76	-1897.51	  458.06
     47.0954	  547.00	  554.91	-1871.66	  457.21
     47.1288	  546.00	  554.06	-1871.81	  456.36
     47.1622	  564.00	  553.20	-1852.95	  455.50
     47.1956	  511.00	  552.35	-1905.10	  454.65
     47.2291	  529.00	  551.50	-1886.25	  453.80
     47.2625	  533.00	  550.65	-1881.40	  452.95
     47.2959	  542.00	  549.80	-1871.55	  452.10
     47.3293	  520.00	  548.95	-1892.70	  451.25
     47.3627	  482.00	  548.10	-1929.85	  450.40
     47.3962	  562.00	  547.25	-1849.00	  449.55
     47.4296	  526.00	  546.40	-1884.15	  448.70
     47.4630	  493.00	  545.55	-1916.30	  447.85
     47.4964	  550.00	  544.70	-1858.45	  447.00
     47.5299	  575.00	  543.85	-1832.60	  446.15
     47.5633	  521.00	  543.00	-1885.75	  445.30
     47.5967	  521.00	  542.15	-1884.90	  444.45
     47.6301	  540.00	  541.30	-1865.05	  443.59
     47.6636	  536.00	  540.44	-1868.19	  442.74
     47.6970	  522.00	  539.59	-1881.34	  441.89
     47.7304	  523.00	  538.96	-1879.71	  441.26
     47.7638	  541.00	  538.44	-1861.19	  440.74
     47.7972	  501.00	  537.91	-1900.66	  440.21
     47.8307	  532.00	  537.39	-1869.14	  439.69
     47.8641	  491.00	  536.87	-1909.62	  439.17
     47.8975	  479.00	  536.35	-1921.10	  438.65
     47.9309	  505.00	  535.83	-1894.58	  438.13
     47.9644	  519.00	  535.30	-1880.05	  437.60
     47.9978	  570.00	  534.78	-1828.53	  437.08
     48.0312	  502.00	  534.26	-1896.01	  436.56
     48.0646	  534.00	  533.74	-1863.49	  436.04
     48.0980	  536.00	  533.22	-1860.97	  435.52
     48.1315	  534.00	  532.69	-1862.44	  434.99
     48.1649	  531.00	  532.17	-1864.92	  434.47
     48.1983	  506.00	  531.65	-1889.40	  433.95
     48.2317	  522.00	  531.13	-1872.88	  433.43
     48.2652	  516.00	  530.61	-1878.36	  432.91
     48.2986	  511.00	  530.08	-1882.83	  432.38
     48.3320	  561.00	  529.56	-1832.31	  431.86
     48.3654	  519.00	  529.04	-1873.79	  431.34
     48.3988	  519.00	  528.52	-1873.27	  430.82
     48.4323	  502.00	  528.00	-1889.75	  430.30
     48.4657	  498.00	  527.47	-1893.22	  429.77
     48.4991	  475.00	  526.95	-1915.70	  429.25
     48.5325	  483.00	  526.43	-1907.18	  428.73
     48.5660	  512.00	  525.91	-1877.66	  428.21
     48.5994	  539.00	  525.39	-1850.14	  427.69
     48.6328	  526.00	  524.86	-1862.61	  427.16
     48.6662	  510.00	  524.34	-1878.09	  426.64
     48.6996	  485.00	  523.82	-1902.57	  426.12
     48.7331	  508.00	  523.30	-1879.05	  425.60
     48.7665	  496.00	  522.78	-1890.53	  425.08
     48.7999	  502.00	  522.25	-1884.00	  424.55
     48.8333	  487.00	  521.73	-1898.48	  424.03
     48.8668	  557.00	  521.21	-1827.96	  423.51
     48.9002	  485.00	  520.69	-1899.44	  422.99
     48.9336	  482.00	  520.17	-1901.92	  422.47
     48.9670	  532.00	  519.64	-1851.39	  421.94
     49.0005	  512.00	  519.12	-1870.87	  421.42
     49.0339	  507.00	  518.60	-1875.35	  420.90
     49.0673	  469.00	  518.08	-1912.83	  420.38
     49.1007	  510.00	  517.56	-1871.31	  419.86
     49.1341	  521.00	  517.03	-1859.78	  419.33
     49.1676	  516.00	  516.51	-1864.26	  418.81
     49.2010	  505.00	  515.99	-1874.74	  418.29
     49.2344	  519.00	  515.47	-1860.22	  417.77
     49.2678	  511.00	  514.92	-1867.67	  417.22
     49.3013	  555.00	  514.14	-1822.89	  416.44
     49.3347	  528.00	  513.36	-1849.11	  415.66
     49.3681	  527.00	  512.58	-1849.33	  414.88
     49.4015	  485.00	  511.80	-1890.55	  414.10
     49.4349	  543.00	  511.02	-1831.77	  413.32
     49.4684	  539.00	  510.24	-1834.99	  412.54
     49.5018	  524.00	  509.46	-1849.21	  411.76
     49.5352	  541.00	  508.68	-1831.43	  410.98
     49.5686	  507.00	  507.90	-1864.65	  410.20
     49.6021	  499.00	  507.12	-1871.87	  409.42
     49.6355	  599.00	  512.38	-1777.13	  408.64
     49.6689	  502.00	  511.79	-1873.54	  407.86
     49.7023	  561.00	  511.21	-1813.96	  407.08
     49.7357	  511.00	  510.64	-1863.39	  406.30
     49.7692	  490.00	  513.08	-1886.83	  405.52
     49.8026	  495.00	  512.63	-1881.38	  404.74
     49.8360	  529.00	  512.19	-1846.94	  403.96
     49.8694	  503.00	  511.77	-1872.52	  403.18
     49.9029	  490.00	  511.37	-1885.12	  402.40
     49.9363	  496.00	  510.99	-1878.74	  401.62
     49.9697	  499.00	  510.63	-1875.38	  400.84
     50.0031	  548.00	  510.29	-1826.04	  400.06
     50.0366	  510.00	  509.98	-1863.73	  399.28
     50.0700	  528.00	  509.69	-1845.44	  398.50
     50.1034	  460.00	  509.44	-1913.19	  397.72
     50.1368	  499.00	  509.21	-1873.96	  396.94
     50.1702	  500.00	  509.02	-1872.77	  396.17
     50.2037	  508.00	  508.86	-1864.61	  395.39
     50.2371	  514.00	  508.75	-1858.50	  394.61
     50.2705	  483.00	  508.68	-1889.42	  393.83
     50.3039	  524.00	  508.65	-1848.40	  393.05
     50.3374	  471.00	  508.67	-1901.42	  392.27
     50.3708	  496.00	  508.75	-1876.50	  391.49
     50.4042	  536.00	  508.89	-1836.64	  390.71
     50.4376	  528.00	  509.10	-1844.85	  389.93
     50.4710	  553.00	  509.38	-1820.13	  389.15
     50.5045	  519.00	  509.74	-1854.49	  388.37
     50.5379	  536.00	  510.19	-1837.94	  387.59
     50.5713	  521.00	  511.29	-1854.04	  387.37
     50.6047	  512.00	  512.50	-1864.25	  387.14
     50.6382	  546.00	  513.83	-1831.58	  386.92
     50.6716	  571.00	  515.30	-1808.05	  386.69
     50.7050	  492.00	  516.92	-1888.67	  386.47
     50.7384	  516.00	  518.70	-1866.45	  386.24
     50.7718	  533.00	  520.68	-1851.43	  386.02
     50.8053	  553.00	  522.87	-1833.62	  385.79
     50.8387	  584.00	  525.31	-1805.06	  385.57
     50.8721	  511.00	  528.02	-1880.77	  385.34
     50.9055	  520.00	  531.06	-1874.81	  385.12
     50.9390	  524.00	  534.46	-1874.21	  384.89
     50.9724	  562.00	  538.29	-1840.04	  384.67
     51.0058	  553.00	  542.60	-1853.35	  384.44
     51.0392	  570.00	  547.50	-1841.25	  384.22
     51.0726	  555.00	  553.07	-1861.82	  383.99
     51.1061	  567.00	  559.43	-1856.18	  383.77
     51.1395	  582.00	  566.76	-1848.51	  383.54
     51.1729	  651.00	  575.22	-1787.97	  383.32
     51.2063	  611.00	  585.07	-1837.82	  383.09
     51.2398	  602.00	  596.62	-1858.37	  382.87
     51.2732	  675.00	  610.26	-1799.01	  382.64
     51.3066	  686.00	  626.51	-1804.26	  382.41
     51.3400	  711.00	  646.07	-1798.82	  382.19
     51.3735	  820.00	  669.87	-1713.62	  381.96
     51.4069	  801.00	  699.24	-1761.99	  381.74
     51.4403	  895.00	  736.06	-1704.81	  381.51
     51.4737	  963.00	  783.16	-1683.91	  381.29
     51.5071	 1054.00	  844.90	-1654.65	  381.06
     51.5406	 1178.00	  927.77	-1613.52	  380.84
     51.5740	 1383.00	 1041.52	-1522.27	  380.61
     51.6074	 1566.00	 1199.68	-1497.43	  380.39
     51.6408	 1786.00	 1419.53	-1497.28	  380.16
     51.6743	 2208.00	 1719.70	-1375.45	  379.94
     51.7077	 2394.00	 2108.21	-1577.96	  379.71
     51.7411	 2758.00	 2552.04	-1657.79	  379.49
     51.7745	 2980.00	 2933.52	-1817.27	  379.26
     51.8079	 3076.00	 3093.33	-1881.08	  379.04
     51.8414	 3036.00	 3012.00	-1839.75	  378.81
     51.8748	 2895.00	 2826.34	-1795.09	  378.59
     51.9082	 2833.00	 2622.66	-1653.41	  378.36
     51.9416	 2467.00	 2371.29	-1768.04	  378.14
     51.9751	 2227.00	 2052.18	-1688.93	  377.91
     52.0085	 1968.00	 1720.85	-1616.60	  377.69
     52.0419	 1779.00	 1436.13	-1520.88	  377.46
     52.0753	 1540.00	 1215.91	-1539.66	  377.24
     52.1087	 1365.00	 1052.95	-1551.70	  377.01
     52.1422	 1191.00	  934.03	-1606.78	  376.79
     52.1756	  976.00	  846.85	-1734.60	  376.56
     52.2090	  933.00	  781.99	-1712.74	  376.33
     52.2424	  812.00	  732.76	-1784.51	  376.11
     52.2759	  815.00	  694.51	-1743.26	  375.88
     52.3093	  748.00	  664.13	-1779.88	  375.66
     52.3427	  705.00	  639.56	-1798.31	  375.43
     52.3761	  639.00	  619.37	-1844.12	  375.21
     52.4096	  673.00	  602.56	-1793.31	  374.98
     52.4430	  585.00	  588.41	-1867.16	  374.76
     52.4764	  627.00	  576.37	-1813.12	  374.53
     52.5098	  567.00	  566.05	-1862.80	  374.31
     52.5432	  539.00	  557.13	-1881.88	  374.08
     52.5767	  553.00	  549.35	-1860.10	  373.86
     52.6101	  542.00	  542.54	-1864.29	  373.63
     52.6435	  590.00	  536.53	-1810.27	  373.41
     52.6769	  553.00	  531.19	-1841.94	  373.18
     52.7104	  520.00	  526.43	-1870.18	  372.96
     52.7438	  522.00	  522.16	-1863.91	  372.73
     52.7772	  514.00	  518.32	-1868.07	  372.51
     52.8106	  502.00	  514.84	-1876.59	  372.28
     52.8440	  568.00	  511.68	-1807.43	  372.06
     52.8775	  493.00	  508.80	-1879.55	  371.83
     52.9109	  487.00	  506.17	-1882.92	  371.61
     52.9443	  507.00	  503.75	-1860.50	  371.38
     52.9777	  509.00	  501.50	-1856.25	  371.14
     53.0112	  491.00	  499.43	-1872.18	  370.90
     53.0446	  529.00	  497.50	-1832.25	  370.66
     53.0780	  456.00	  495.71	-1903.46	  370.42
     53.1114	  501.00	  494.04	-1856.79	  370.18
     53.1448	  483.00	  492.48	-1873.23	  369.94
     53.1783	  450.00	  491.02	-1904.77	  369.70
     53.2117	  493.00	  489.64	-1860.39	  369.47
     53.2451	  491.00	  488.35	-1861.10	  369.23
     53.2785	  498.00	  487.12	-1852.87	  368.99
     53.3120	  517.00	  485.97	-1832.72	  368.75
     53.3454	  499.00	  484.87	-1849.62	  368.51
     53.3788	  522.00	  483.83	-1825.58	  368.27
     53.4122	  455.00	  482.84	-1891.59	  368.03
     53.4456	  542.00	  481.90	-1803.65	  367.79
     53.4791	  480.00	  481.00	-1864.75	  367.55
     53.5125	  459.00	  480.13	-1884.88	  367.31
     53.5459	  462.00	  479.31	-1881.06	  367.07
     53.5793	  505.00	  478.52	-1837.27	  366.83
     53.6128	  456.00	  477.75	-1885.50	  366.59
     53.6462	  514.00	  477.02	-1826.77	  366.36
     53.6796	  510.00	  476.32	-1830.07	  366.12
     53.7130	  465.00	  475.63	-1874.38	  365.88
     53.7465	  443.00	  474.98	-1895.73	  365.64
     53.7799	  450.00	  474.34	-1888.09	  365.40
     53.8133	  509.00	  473.72	-1828.47	  365.16
     53.8467	  485.00	  473.12	-1851.87	  364.92
     53.8801	  488.00	  472.54	-1848.29	  364.68
     53.9136	  481.00	  471.98	-1854.73	  364.44
     53.9470	  444.00	  471.43	-1891.18	  364.20
     53.9804	  472.00	  470.90	-1862.65	  363.96
     54.0138	  488.00	  464.66	-1840.41	  363.72
     54.0473	  461.00	  464.32	-1867.07	  363.48
     54.0807	  455.00	  463.98	-1872.73	  363.25
     54.1141	  468.00	  463.65	-1859.40	  363.01
     54.1475	  465.00	  460.47	-1859.22	  362.77
     54.1809	  448.00	  460.23	-1875.98	  362.53
     54.2144	  508.00	  459.99	-1815.74	  362.29
     54.2478	  457.00	  459.75	-1866.50	  362.05
     54.2812	  421.00	  459.51	-1902.26	  361.81
     54.3146	  467.00	  459.27	-1856.02	  361.57
     54.3481	  480.00	  459.03	-1842.78	  361.33
     54.3815	  486.00	  458.79	-1836.54	  361.09
     54.4149	  470.00	  458.55	-1852.30	  360.85
     54.4483	  466.00	  458.31	-1856.06	  360.61
     54.4818	  490.00	  458.07	-1831.82	  360.37
     54.5152	  502.00	  457.84	-1819.58	  360.13
     54.5486	  474.00	  457.60	-1847.35	  359.90
     54.5820	  477.00	  457.36	-1844.11	  359.66
     54.6154	  475.00	  457.12	-1845.87	  359.42
     54.6489	  445.00	  456.88	-1875.63	  359.18
     54.6823	  470.00	  456.64	-1850.39	  358.94
     54.7157	  505.00	  456.40	-1815.15	  358.70
     54.7491	  485.00	  456.16	-1834.91	  358.46
     54.7825	  468.00	  455.92	-1851.67	  358.22
     54.8160	  449.00	  455.68	-1870.43	  357.98
     54.8494	  438.00	  455.44	-1881.19	  357.74
     54.8828	  464.00	  455.20	-1854.95	  357.50
     54.9162	  455.00	  454.96	-1863.71	  357.26
     54.9497	  461.00	  454.72	-1857.47	  357.02
     54.9831	  460.00	  454.49	-1858.24	  356.79
     55.0165	  471.00	  454.25	-1847.00	  356.55
     55.0499	  460.00	  454.01	-1857.76	  356.31
     55.0834	  472.00	  453.77	-1845.52	  356.07
     55.1168	  503.00	  453.53	-1814.28	  355.83
     55.1502	  451.00	  453.29	-1866.04	  355.59
     55.1836	  470.00	  453.05	-1846.80	  355.35
     55.2170	  416.00	  452.87	-1900.62	  355.17
     55.2505	  464.00	  452.78	-1852.53	  355.08
     55.2839	  443.00	  452.70	-1873.45	  355.00
     55.3173	  439.00	  452.62	-1877.37	  354.92
     55.3507	  445.00	  452.54	-1871.29	  354.84
     55.3842	  440.00	  452.46	-1876.21	  354.75
     55.4176	  451.00	  452.37	-1865.12	  354.67
     55.4510	  465.00	  452.29	-1851.04	  354.59
     55.4844	  487.00	  452.21	-1828.96	  354.51
     55.5178	  472.00	  452.13	-1843.88	  354.43
     55.5513	  480.00	  452.04	-1835.79	  354.34
     55.5847	  428.00	  451.96	-1887.71	  354.26
     55.6181	  433.00	  451.88	-1882.63	  354.18
     55.6515	  455.00	  451.80	-1860.55	  354.10
     55.6850	  456.00	  451.71	-1859.46	  354.01
     55.7184	  446.00	  451.63	-1869.38	  353.93
     55.7518	  456.00	  451.55	-1859.30	  353.85
     55.7852	  441.00	  451.47	-1874.22	  353.77
     55.8186	  460.00	  451.39	-1855.13	  353.68
     55.8521	  438.00	  451.30	-1877.05	  353.60
     55.8855	  481.00	  451.22	-1833.97	  353.52
     55.9189	  493.00	  451.14	-1821.89	  353.44
     55.9523	  481.00	  451.06	-1833.81	  353.36
     55.9858	  451.00	  450.97	-1863.72	  353.27
     56.0192	  429.00	  450.89	-1885.64	  353.19
     56.0526	  497.00	  450.81	-1817.56	  353.11
     56.0860	  434.00	  450.73	-1880.48	  353.03
     56.1195	  456.00	  450.64	-1858.39	  352.94
     56.1529	  449.00	  450.56	-1865.31	  352.86
     56.1863	  414.00	  450.48	-1900.23	  352.78
     56.2197	  438.00	  450.40	-1876.15	  352.70
     56.2531	  474.00	  450.31	-1840.06	  352.61
     56.2866	  461.00	  450.23	-1852.98	  352.53
     56.3200	  440.00	  450.15	-1873.90	  352.45
     56.3534	  468.00	  450.07	-1845.82	  352.37
     56.3868	  452.00	  449.99	-1861.74	  352.29
     56.4203	  441.00	  449.90	-1872.65	  352.20
     56.4537	  418.00	  449.82	-1895.57	  352.12
     56.4871	  476.00	  449.74	-1837.49	  352.04
     56.5205	  448.00	  449.66	-1865.41	  351.96
     56.5539	  449.00	  449.57	-1864.32	  351.87
     56.5874	  430.00	  449.49	-1883.24	  351.79
     56.6208	  455.00	  449.41	-1858.16	  351.71
     56.6542	  416.00	  449.33	-1897.08	  351.63
     56.6876	  428.00	  449.24	-1884.99	  351.54
     56.7211	  421.00	  449.16	-1891.91	  351.46
     56.7545	  460.00	  449.08	-1852.83	  351.38
     56.7879	  447.00	  449.00	-1865.75	  351.30
     56.8213	  428.00	  448.92	-1884.67	  351.22
     56.8547	  461.00	  448.83	-1851.58	  351.13
     56.8882	  450.00	  448.75	-1862.50	  351.05
     56.9216	  460.00	  448.67	-1852.42	  350.97
     56.9550	  482.00	  448.59	-1830.34	  350.89
     56.9884	  433.00	  448.50	-1879.25	  350.80
     57.0219	  413.00	  448.42	-1899.17	  350.72
     57.0553	  450.00	  448.34	-1862.09	  350.64
     57.0887	  447.00	  448.26	-1865.01	  350.56
     57.1221	  424.00	  448.17	-1887.92	  350.47
     57.1555	  444.00	  448.09	-1867.84	  350.39
     57.1890	  448.00	  448.01	-1863.76	  350.31
     57.2224	  428.00	  447.93	-1883.68	  350.23
     57.2558	  418.00	  447.85	-1893.59	  350.14
     57.2892	  475.00	  447.76	-1836.51	  350.06
     57.3227	  435.00	  447.68	-1876.43	  349.98
     57.3561	  433.00	  447.60	-1878.35	  349.90
     57.3895	  448.00	  447.52	-1863.27	  349.82
     57.4229	  437.00	  447.43	-1874.18	  349.73
     57.4564	  419.00	  447.35	-1892.10	  349.65
     57.4898	  383.00	  447.27	-1928.02	  349.57
     57.5232	  413.00	  447.19	-1897.94	  349.49
     57.5566	  443.00	  447.10	-1867.85	  349.40
     57.5900	  455.00	  447.02	-1855.77	  349.32
     57.6235	  420.00	  446.94	-1890.69	  349.24
     57.6569	  419.00	  446.86	-1891.61	  349.16
     57.6903	  452.00	  446.78	-1858.52	  349.07
     57.7237	  406.00	  446.69	-1904.44	  348.99
     57.7572	  455.00	  446.61	-1855.36	  348.91
     57.7906	  452.00	  446.53	-1858.28	  348.83
     57.8240	  493.00	  446.45	-1817.20	  348.75
     57.8574	  399.00	  446.36	-1911.11	  348.66
     57.8908	  425.00	  446.28	-1885.03	  348.58
     57.9243	  456.00	  446.20	-1853.95	  348.50
     57.9577	  433.00	  446.12	-1876.87	  348.42
     57.9911	  416.00	  446.03	-1893.78	  348.33
     58.0245	  427.00	  445.95	-1882.70	  348.25
     58.0580	  451.00	  445.87	-1858.62	  348.17
     58.0914	  419.00	  445.79	-1890.54	  348.09
     58.1248	  443.00	  445.70	-1866.45	  348.00
     58.1582	  483.00	  445.62	-1826.37	  347.92
     58.1917	  420.00	  445.54	-1889.29	  347.84
     58.2251	  444.00	  445.46	-1865.21	  347.76
     58.2585	  400.00	  445.38	-1909.13	  347.68
     58.2919	  444.00	  445.29	-1865.04	  347.59
     58.3253	  408.00	  445.21	-1900.96	  347.51
     58.3588	  468.00	  445.13	-1840.88	  347.43
     58.3922	  403.00	  445.05	-1905.80	  347.35
     58.4256	  448.00	  444.96	-1860.71	  347.26
     58.4590	  438.00	  444.88	-1870.63	  347.18
     58.4925	  409.00	  444.80	-1899.55	  347.10
     58.5259	  417.00	  444.72	-1891.47	  347.02
     58.5593	  447.00	  444.63	-1861.38	  346.93
     58.5927	  424.00	  444.55	-1884.30	  346.85
     58.6261	  439.00	  444.47	-1869.22	  346.77
     58.6596	  434.00	  444.39	-1874.14	  346.69
     58.6930	  386.00	  444.31	-1922.06	  346.60
     58.7264	  478.00	  444.22	-1829.97	  346.52
     58.7598	  450.00	  444.14	-1857.89	  346.44
     58.7933	  488.00	  444.06	-1819.81	  346.36
     58.8267	  416.00	  443.98	-1891.73	  346.28
     58.8601	  437.00	  443.89	-1870.64	  346.19
     58.8935	  449.00	  443.81	-1858.56	  346.11
     58.9269	  444.00	  443.73	-1863.48	  346.03
     58.9604	  389.00	  443.65	-1918.40	  345.95
     58.9938	  438.00	  443.56	-1869.31	  345.86
     59.0272	  487.00	  443.48	-1820.23	  345.78
     59.0606	  428.00	  443.40	-1879.15	  345.70
     59.0941	  465.00	  443.32	-1842.07	  345.62
     59.1275	  456.00	  443.24	-1850.98	  345.53
     59.1609	  472.00	  443.15	-1834.90	  345.45
     59.1943	  419.00	  443.07	-1887.82	  345.37
     59.2277	  458.00	  442.99	-1848.74	  345.29
     59.2612	  445.00	  442.91	-1861.66	  345.21
     59.2946	  441.00	  442.82	-1865.57	  345.12
     59.3280	  458.00	  442.74	-1848.49	  345.04
     59.3614	  443.00	  442.66	-1863.41	  344.96
     59.3949	  420.00	  442.58	-1886.33	  344.88
     59.4283	  404.00	  442.49	-1902.24	  344.79
     59.4617	  450.00	  442.41	-1856.16	  344.71
     59.4951	  426.00	  442.33	-1880.08	  344.63
     59.5285	  472.00	  442.25	-1834.00	  344.55
     59.5620	  409.00	  442.16	-1896.91	  344.46
     59.5954	  456.00	  442.08	-1849.83	  344.38
     59.6288	  448.00	  442.00	-1857.75	  344.30
     59.6622	  430.00	  441.92	-1875.67	  344.22
     59.6957	  419.00	  441.83	-1886.58	  344.13
     59.7291	  438.00	  441.75	-1867.50	  344.05
     59.7625	  420.00	  441.67	-1885.42	  343.97
     59.7959	  385.00	  441.58	-1920.33	  343.88
     59.8294	  447.00	  441.50	-1858.25	  343.80
     59.8628	  417.00	  441.42	-1888.17	  343.72
     59.8962	  433.00	  441.33	-1872.08	  343.63
     59.9296	  415.00	  441.25	-1890.00	  343.55
     59.9630	  465.00	  441.17	-1839.92	  343.47
     59.9965	  423.00	  441.08	-1881.83	  343.38
     60.0299	  437.00	  441.00	-1867.75	  343.30
     60.0633	  418.00	  440.92	-1886.67	  343.22
     60.0967	  439.00	  440.83	-1865.58	  343.13
     60.1302	  416.00	  440.75	-1888.50	  343.05
     60.1636	  421.00	  440.67	-1883.42	  342.97
     60.1970	  428.00	  440.58	-1876.33	  342.88
     60.2304	  455.00	  440.50	-1849.25	  342.80
     60.2638	  443.00	  440.42	-1861.17	  342.72
     60.2973	  390.00	  440.33	-1914.08	  342.63
     60.3307	  467.00	  440.25	-1837.00	  342.55
     60.3641	  416.00	  440.17	-1887.92	  342.47
     60.3975	  450.00	  440.09	-1853.83	  342.38
     60.4310	  437.00	  440.00	-1866.75	  342.30
     60.4644	  444.00	  439.92	-1859.67	  342.22
     60.4978	  409.00	  439.84	-1894.59	  342.14
     60.5312	  455.00	  439.75	-1848.50	  342.05
     60.5647	  460.00	  439.67	-1843.42	  341.97
     60.5981	  472.00	  439.59	-1831.34	  341.89
     60.6315	  404.00	  439.50	-1899.25	  341.80
     60.6649	  434.00	  439.42	-1869.17	  341.72
     60.6983	  415.00	  439.34	-1888.09	  341.64
     60.7318	  431.00	  439.25	-1872.00	  341.55
     60.7652	  449.00	  439.17	-1853.92	  341.47
     60.7986	  423.00	  439.09	-1879.84	  341.39
     60.8320	  455.00	  439.00	-1847.75	  341.30
     60.8654	  433.00	  438.92	-1869.67	  341.22
     60.8989	  479.00	  438.84	-1823.59	  341.14
     60.9323	  410.00	  438.75	-1892.50	  341.05
     60.9657	  428.00	  438.67	-1874.42	  340.97
     60.9991	  419.00	  438.59	-1883.34	  340.89
     61.0326	  414.00	  438.50	-1888.25	  340.80
     61.0660	  447.00	  438.42	-1855.17	  340.72
     61.0994	  407.00	  438.34	-1895.09	  340.64
     61.1328	  410.00	  438.25	-1892.00	  340.55
     61.1663	  420.00	  438.17	-1881.92	  340.47
     61.1997	  429.00	  438.09	-1872.84	  340.39
     61.2331	  452.00	  438.00	-1849.75	  340.30
     61.2665	  451.00	  437.92	-1850.67	  340.22
     61.2999	  479.00	  437.84	-1822.59	  340.14
     61.3334	  454.00	  437.75	-1847.50	  340.05
     61.3668	  417.00	  437.67	-1884.42	  339.97
     61.4002	  404.00	  437.59	-1897.34	  339.89
     61.4336	  440.00	  437.51	-1861.26	  339.80
     61.4671	  455.00	  437.42	-1846.17	  339.72
     61.5005	  448.00	  437.34	-1853.09	  339.64
     61.5339	  405.00	  437.26	-1896.01	  339.56
     61.5673	  443.00	  437.17	-1857.92	  339.47
     61.6007	  415.00	  437.09	-1885.84	  339.39
     61.6342	  428.00	  437.01	-1872.76	  339.31
     61.6676	  450.00	  436.92	-1850.67	  339.22
     61.7010	  419.00	  436.84	-1881.59	  339.14
     61.7344	  419.00	  436.76	-1881.51	  339.06
     61.7679	  424.00	  436.67	-1876.42	  338.97
     61.8013	  435.00	  436.59	-1865.34	  338.89
     61.8347	  404.00	  436.51	-1896.26	  338.81
     61.8681	  458.00	  436.42	-1842.17	  338.72
     61.9016	  446.00	  436.34	-1854.09	  338.64
     61.9350	  408.00	  436.26	-1892.01	  338.56
     61.9684	  455.00	  436.17	-1844.92	  338.47
     62.0018	  408.00	  436.09	-1891.84	  338.39
     62.0352	  460.00	  436.01	-1839.76	  338.31
     62.0687	  413.00	  435.92	-1886.67	  338.22
     62.1021	  423.00	  435.84	-1876.59	  338.14
     62.1355	  428.00	  435.76	-1871.51	  338.06
     62.1689	  416.00	  435.67	-1883.42	  337.97
     62.2024	  421.00	  435.59	-1878.34	  337.89
     62.2358	  418.00	  435.51	-1881.26	  337.81
     62.2692	  452.00	  435.42	-1847.17	  337.72
     62.3026	  436.00	  435.34	-1863.09	  337.64
     62.3360	  470.00	  435.26	-1829.01	  337.56
     62.3695	  462.00	  435.18	-1836.92	  337.47
     62.4029	  430.00	  435.09	-1868.84	  337.39
     62.4363	  420.00	  435.01	-1878.76	  337.31
     62.4697	  405.00	  434.93	-1893.68	  337.23
     62.5032	  418.00	  434.84	-1880.59	  337.14
     62.5366	  471.00	  434.76	-1827.51	  337.06
     62.5700	  415.00	  434.68	-1883.43	  336.98
     62.6034	  456.00	  434.59	-1842.34	  336.89
     62.6368	  456.00	  434.51	-1842.26	  336.81
     62.6703	  433.00	  434.43	-1865.18	  336.73
     62.7037	  418.00	  434.34	-1880.09	  336.64
     62.7371	  459.00	  434.26	-1839.01	  336.56
     62.7705	  411.00	  434.18	-1886.93	  336.48
     62.8040	  458.00	  434.09	-1839.84	  336.39
     62.8374	  477.00	  434.01	-1820.76	  336.31
     62.8708	  414.00	  433.95	-1883.70	  336.25
     62.9042	  459.00	  433.89	-1838.64	  336.19
     62.9377	  445.00	  433.84	-1852.59	  336.14
     62.9711	  418.00	  433.78	-1879.53	  336.08
     63.0045	  407.00	  433.73	-1890.48	  336.03
     63.0379	  450.00	  433.67	-1847.42	  335.97
     63.0713	  475.00	  433.62	-1822.37	  335.92
     63.1048	  428.00	  433.56	-1869.31	  335.86
     63.1382	  420.00	  433.51	-1877.26	  335.81
     63.1716	  465.00	  433.45	-1832.20	  335.75
     63.2050	  418.00	  433.40	-1879.14	  335.69
     63.2384	  410.00	  433.34	-1887.09	  335.64
     63.2719	  430.00	  433.28	-1867.03	  335.58
     63.3053	  404.00	  433.23	-1892.98	  335.53
     63.3387	  417.00	  433.17	-1879.92	  335.47
     63.3721	  437.00	  433.12	-1859.87	  335.42
     63.4056	  451.00	  433.06	-1845.81	  335.36
     63.4390	  424.00	  433.01	-1872.76	  335.31
     63.4724	  400.00	  432.95	-1896.70	  335.25
     63.5058	  377.00	  432.90	-1919.65	  335.20
     63.5393	  375.00	  432.84	-1921.59	  335.14
     63.5727	  433.00	  432.78	-1863.53	  335.08
     63.6061	  460.00	  432.73	-1836.48	  335.03
     63.6395	  427.00	  432.67	-1869.42	  334.97
     63.6729	  406.00	  432.62	-1890.37	  334.92
     63.7064	  440.00	  432.56	-1856.31	  334.86
     63.7398	  426.00	  432.51	-1870.26	  334.81
     63.7732	  378.00	  432.45	-1918.20	  334.75
     63.8066	  395.00	  432.40	-1901.15	  334.70
     63.8401	  440.00	  432.34	-1856.09	  334.64
     63.8735	  452.00	  432.29	-1844.04	  334.59
     63.9069	  418.00	  432.23	-1877.98	  334.53
     63.9403	  426.00	  432.17	-1869.92	  334.47
     63.9737	  383.00	  432.12	-1912.87	  334.42
     64.0072	  397.00	  432.06	-1898.81	  334.36
     64.0406	  390.00	  432.01	-1905.76	  334.31
     64.0740	  414.00	  431.95	-1881.70	  334.25
     64.1074	  431.00	  431.90	-1864.65	  334.20
     64.1409	  429.00	  431.84	-1866.59	  334.14
     64.1743	  431.00	  431.79	-1864.54	  334.09
     64.2077	  416.00	  431.73	-1879.48	  334.03
     64.2411	  405.00	  431.68	-1890.43	  333.97
     64.2746	  426.00	  431.62	-1869.37	  333.92
     64.3080	  394.00	  431.56	-1901.31	  333.86
     64.3414	  419.00	  431.51	-1876.26	  333.81
     64.3748	  433.00	  431.45	-1862.20	  333.75
     64.4082	  404.00	  431.40	-1891.15	  333.70
     64.4417	  398.00	  431.34	-1897.09	  333.64
     64.4751	  402.00	  431.29	-1893.04	  333.59
     64.5085	  424.00	  431.23	-1870.98	  333.53
     64.5419	  411.00	  431.18	-1883.93	  333.48
     64.5754	  435.00	  431.12	-1859.87	  333.42
     64.6088	  408.00	  431.07	-1886.81	  333.36
     64.6422	  444.00	  431.01	-1850.76	  333.31
     64.6756	  428.00	  430.95	-1866.70	  333.25
     64.7090	  414.00	  430.90	-1880.65	  333.20
     64.7425	  434.00	  430.84	-1860.59	  333.14
     64.7759	  451.00	  430.79	-1843.54	  333.09
     64.8093	  390.00	  430.73	-1904.48	  333.03
     64.8427	  396.00	  430.68	-1898.43	  332.98
     64.8762	  415.00	  430.62	-1879.37	  332.92
     64.9096	  415.00	  430.57	-1879.32	  332.87
     64.9430	  425.00	  430.51	-1869.26	  332.81
     64.9764	  433.00	  430.45	-1861.20	  332.75
     65.0098	  454.00	  430.40	-1840.15	  332.70
     65.0433	  430.00	  430.34	-1864.09	  332.64
     65.0767	  424.00	  430.29	-1870.04	  332.59
     65.1101	  405.00	  430.23	-1888.98	  332.53
     65.1435	  397.00	  430.18	-1896.93	  332.48
     65.1770	  420.00	  430.12	-1873.87	  332.42
     65.2104	  450.00	  430.07	-1843.82	  332.37
     65.2438	  397.00	  430.01	-1896.76	  332.31
     65.2772	  385.00	  429.96	-1908.71	  332.26
     65.3106	  411.00	  429.90	-1882.65	  332.20
     65.3441	  428.00	  429.84	-1865.59	  332.14
     65.3775	  468.00	  429.79	-1825.54	  332.09
     65.4109	  426.00	  429.73	-1867.48	  332.03
     65.4443	  427.00	  429.68	-1866.43	  331.98
     65.4778	  397.00	  429.62	-1896.37	  331.92
     65.5112	  460.00	  429.57	-1833.32	  331.87
     65.5446	  416.00	  429.51	-1877.26	  331.81
     65.5780	  429.00	  429.46	-1864.21	  331.76
     65.6115	  400.00	  429.40	-1893.15	  331.70
     65.6449	  415.00	  429.35	-1878.09	  331.64
     65.6783	  424.00	  429.29	-1869.04	  331.59
     65.7117	  435.00	  429.23	-1857.98	  331.53
     65.7451	  416.00	  429.18	-1876.93	  331.48
     65.7786	  426.00	  429.12	-1866.87	  331.42
     65.8120	  397.00	  429.07	-1895.82	  331.37
     65.8454	  411.00	  429.01	-1881.76	  331.31
     65.8788	  440.00	  428.96	-1852.71	  331.26
     65.9123	  425.00	  428.90	-1867.65	  331.20
     65.9457	  420.00	  428.85	-1872.60	  331.15
     65.9791	  431.00	  428.79	-1861.54	  331.09
     66.0125	  394.00	  428.73	-1898.48	  331.03
     66.0459	  387.00	  428.68	-1905.43	  330.98
     66.0794	  380.00	  428.62	-1912.37	  330.92
     66.1128	  400.00	  428.52	-1892.27	  330.82
     66.1462	  402.00	  428.37	-1890.12	  330.67
     66.1796	  421.00	  428.21	-1870.96	  330.51
     66.2131	  438.00	  428.06	-1853.81	  330.36
     66.2465	  451.00	  427.91	-1840.66	  330.21
     66.2799	  459.00	  427.75	-1832.50	  330.05
     66.3133	  420.00	  427.60	-1871.35	  329.90
     66.3467	  429.00	  427.45	-1862.20	  329.75
     66.3802	  451.00	  427.29	-1840.04	  329.59
     66.4136	  399.00	  427.14	-1891.89	  329.44
     66.4470	  388.00	  426.99	-1902.74	  329.29
     66.4804	  407.00	  426.84	-1883.59	  329.14
     66.5139	  417.00	  426.68	-1873.43	  328.98
     66.5473	  421.00	  426.53	-1869.28	  328.83
     66.5807	  421.00	  426.38	-1869.13	  328.68
     66.6141	  423.00	  426.22	-1866.97	  328.52
     66.6476	  437.00	  426.07	-1852.82	  328.37
     66.6810	  402.00	  425.92	-1887.67	  328.22
     66.7144	  436.00	  425.76	-1853.51	  328.06
     66.7478	  411.00	  425.61	-1878.36	  327.91
     66.7812	  423.00	  425.46	-1866.21	  327.76
     66.8147	  406.00	  425.30	-1883.05	  327.60
     66.8481	  450.00	  425.15	-1838.90	  327.45
     66.8815	  395.00	  425.00	-1893.75	  327.30
     66.9149	  429.00	  424.84	-1859.59	  327.14
     66.9484	  425.00	  424.69	-1863.44	  326.99
     66.9818	  366.00	  424.54	-1922.29	  326.84
     67.0152	  408.00	  424.39	-1880.14	  326.69
     67.0486	  428.00	  424.23	-1859.98	  326.53
     67.0820	  403.00	  424.08	-1884.83	  326.38
     67.1155	  436.00	  423.93	-1851.68	  326.23
     67.1489	  376.00	  423.77	-1911.52	  326.07
     67.1823	  408.00	  423.62	-1879.37	  325.92
     67.2157	  434.00	  423.47	-1853.22	  325.77
     67.2492	  423.00	  423.31	-1864.06	  325.61
     67.2826	  415.00	  423.16	-1871.91	  325.46
     67.3160	  408.00	  423.01	-1878.76	  325.31
     67.3494	  424.00	  422.85	-1862.60	  325.15
     67.3828	  413.00	  422.70	-1873.45	  325.00
     67.4163	  386.00	  422.55	-1900.30	  324.85
     67.4497	  399.00	  422.39	-1887.14	  324.69
     67.4831	  380.00	  422.24	-1905.99	  324.54
     67.5165	  378.00	  422.09	-1907.84	  324.39
     67.5500	  437.00	  421.94	-1848.69	  324.24
     67.5834	  404.00	  421.78	-1881.53	  324.08
     67.6168	  418.00	  421.63	-1867.38	  323.93
     67.6502	  439.00	  421.48	-1846.23	  323.78
     67.6836	  362.00	  421.32	-1923.07	  323.62
     67.7171	  421.00	  421.17	-1863.92	  323.47
     67.7505	  414.00	  421.02	-1870.77	  323.32
     67.7839	  420.00	  420.86	-1864.61	  323.16
     67.8173	  393.00	  420.71	-1891.46	  323.01
     67.8508	  435.00	  420.56	-1849.31	  322.86
     67.8842	  410.00	  420.40	-1874.15	  322.70
     67.9176	  380.00	  420.25	-1904.00	  322.55
     67.9510	  440.00	  420.10	-1843.85	  322.40
     67.9845	  382.00	  419.94	-1901.69	  322.24
     68.0179	  409.00	  419.79	-1874.54	  322.09
     68.0513	  392.00	  419.64	-1891.39	  321.94
     68.0847	  379.00	  419.49	-1904.24	  321.79
     68.1181	  428.00	  419.33	-1855.08	  321.63
     68.1516	  418.00	  419.18	-1864.93	  321.48
     68.1850	  361.00	  419.03	-1921.78	  321.33
     68.2184	  419.00	  418.87	-1863.62	  321.17
     68.2518	  408.00	  418.72	-1874.47	  321.02
     68.2853	  410.00	  418.57	-1872.32	  320.87
     68.3187	  410.00	  418.41	-1872.16	  320.71
     68.3521	  407.00	  418.26	-1875.01	  320.56
     68.3855	  407.00	  418.11	-1874.86	  320.41
     68.4189	  387.00	  417.95	-1894.70	  320.25
     68.4524	  436.00	  417.80	-1845.55	  320.10
     68.4858	  396.00	  417.65	-1885.40	  319.95
     68.5192	  357.00	  417.49	-1924.24	  319.79
     68.5526	  390.00	  417.34	-1891.09	  319.64
     68.5861	  426.00	  417.19	-1854.94	  319.49
     68.6195	  417.00	  417.04	-1863.79	  319.34
     68.6529	  399.00	  416.88	-1881.63	  319.18
     68.6863	  410.00	  416.73	-1870.48	  319.03
     68.7197	  371.00	  416.58	-1909.33	  318.88
     68.7532	  386.00	  416.42	-1894.17	  318.72
     68.7866	  378.00	  416.27	-1902.02	  318.57
     68.8200	  402.00	  416.12	-1877.87	  318.42
     68.8534	  380.00	  415.96	-1899.71	  318.26
     68.8869	  428.00	  415.81	-1851.56	  318.11
     68.9203	  379.00	  415.66	-1900.41	  317.96
     68.9537	  425.00	  415.50	-1854.25	  317.80
     68.9871	  426.00	  415.35	-1853.10	  317.65
     69.0206	  371.00	  415.20	-1907.95	  317.50
     69.0540	  424.00	  415.04	-1854.79	  317.34
     69.0874	  404.00	  414.89	-1874.64	  317.19
     69.1208	  427.00	  414.74	-1851.49	  317.04
     69.1542	  424.00	  414.59	-1854.34	  316.89
     69.1877	  435.00	  414.43	-1843.18	  316.73
     69.2211	  403.00	  414.28	-1875.03	  316.58
     69.2545	  445.00	  414.13	-1832.88	  316.43
     69.2879	  374.00	  413.97	-1903.72	  316.27
     69.3214	  454.00	  413.82	-1823.57	  316.12
     69.3548	  424.00	  413.67	-1853.42	  315.97
     69.3882	  444.00	  413.51	-1833.26	  315.81
     69.4216	  413.00	  413.36	-1864.11	  315.66
     69.4550	  398.00	  413.21	-1878.96	  315.51
     69.4885	  399.00	  413.05	-1877.80	  315.35
     69.5219	  382.00	  412.90	-1894.65	  315.20
     69.5553	  417.00	  412.75	-1859.50	  315.05
     69.5887	  416.00	  412.59	-1860.34	  314.89
     69.6222	  426.00	  412.44	-1850.19	  314.74
     69.6556	  397.00	  412.40	-1879.15	  314.70
     69.6890	  433.00	  412.40	-1843.15	  314.70
     69.7224	  440.00	  412.40	-1836.15	  314.70
     69.7558	  409.00	  412.40	-1867.15	  314.70
     69.7893	  456.00	  412.40	-1820.15	  314.70
     69.8227	  444.00	  412.40	-1832.15	  314.70
     69.8561	  443.00	  412.40	-1833.15	  314.70
     69.8895	  413.00	  412.40	-1863.15	  314.70
     69.9230	  405.00	  412.40	-1871.15	  314.70
     69.9564	  372.00	  412.40	-1904.15	  314.70
     69.9898	  379.00	  412.40	-1897.15	  314.70
     70.0232	  408.00	  412.40	-1868.15	  314.70
     70.0566	  368.00	  412.40	-1908.15	  314.70
     70.0901	  410.00	  412.40	-1866.15	  314.70
     70.1235	  395.00	  412.40	-1881.15	  314.70
     70.1569	  409.00	  412.40	-1867.15	  314.70
     70.1903	  396.00	  412.40	-1880.15	  314.70
     70.2238	  374.00	  412.40	-1902.15	  314.70
     70.2572	  433.00	  412.40	-1843.15	  314.70
     70.2906	  421.00	  412.40	-1855.15	  314.70
     70.3240	  441.00	  412.40	-1835.15	  314.70
     70.3575	  429.00	  412.40	-1847.15	  314.70
     70.3909	  429.00	  412.40	-1847.15	  314.70
     70.4243	  406.00	  412.40	-1870.15	  314.70
     70.4577	  409.00	  412.40	-1867.15	  314.70
     70.4911	  436.00	  412.40	-1840.15	  314.70
     70.5246	  386.00	  412.40	-1890.15	  314.70
     70.5580	  406.00	  412.40	-1870.15	  314.70
     70.5914	  414.00	  412.40	-1862.15	  314.70
     70.6248	  405.00	  412.40	-1871.15	  314.70
     70.6583	  413.00	  412.40	-1863.15	  314.70
     70.6917	  423.00	  412.40	-1853.15	  314.70
     70.7251	  398.00	  412.40	-1878.15	  314.70
     70.7585	  399.00	  412.40	-1877.15	  314.70
     70.7919	  403.00	  412.40	-1873.15	  314.70
     70.8254	  420.00	  412.40	-1856.15	  314.70
     70.8588	  395.00	  412.40	-1881.15	  314.70
     70.8922	  427.00	  412.40	-1849.15	  314.70
     70.9256	  393.00	  412.40	-1883.15	  314.70
     70.9591	  373.00	  412.40	-1903.15	  314.70
     70.9925	  383.00	  412.40	-1893.15	  314.70
     71.0259	  403.00	  412.40	-1873.15	  314.70
     71.0593	  404.00	  412.40	-1872.15	  314.70
     71.0928	  440.00	  412.40	-1836.15	  314.70
     71.1262	  345.00	  412.40	-1931.15	  314.70
     71.1596	  409.00	  412.40	-1867.15	  314.70
     71.1930	  400.00	  412.40	-1876.15	  314.70
     71.2264	  379.00	  412.40	-1897.15	  314.70
     71.2599	  383.00	  412.40	-1893.15	  314.70
     71.2933	  441.00	  412.40	-1835.15	  314.70
     71.3267	  431.00	  412.40	-1845.15	  314.70
     71.3601	  386.00	  412.40	-1890.15	  314.70
     71.3936	  439.00	  412.40	-1837.15	  314.70
     71.4270	  416.00	  412.40	-1860.15	  314.70
     71.4604	  394.00	  412.40	-1882.15	  314.70
     71.4938	  376.00	  412.40	-1900.15	  314.70
     71.5272	  417.00	  412.40	-1859.15	  314.70
     71.5607	  383.00	  412.40	-1893.15	  314.70
     71.5941	  411.00	  412.40	-1865.15	  314.70
     71.6275	  394.00	  412.40	-1882.15	  314.70
     71.6609	  387.00	  412.40	-1889.15	  314.70
     71.6944	  445.00	  412.40	-1831.15	  314.70
     71.7278	  403.00	  412.40	-1873.15	  314.70
     71.7612	  369.00	  412.40	-1907.15	  314.70
     71.7946	  375.00	  412.40	-1901.15	  314.70
     71.8280	  405.00	  412.40	-1871.15	  314.70
     71.8615	  417.00	  412.40	-1859.15	  314.70
     71.8949	  364.00	  412.40	-1912.15	  314.70
     71.9283	  404.00	  412.40	-1872.15	  314.70
     71.9617	  404.00	  412.40	-1872.15	  314.70
     71.9952	  394.00	  412.40	-1882.15	  314.70
     72.0286	  385.00	  412.40	-1891.15	  314.70
     72.0620	  404.00	  412.40	-1872.15	  314.70
     72.0954	  395.00	  412.40	-1881.15	  314.70
     72.1288	  400.00	  412.40	-1876.15	  314.70
     72.1623	  431.00	  412.40	-1845.15	  314.70
     72.1957	  427.00	  412.40	-1849.15	  314.70
     72.2291	  410.00	  412.40	-1866.15	  314.70
     72.2625	  396.00	  412.40	-1880.15	  314.70
     72.2960	  413.00	  412.40	-1863.15	  314.70
     72.3294	  355.00	  412.40	-1921.15	  314.70
     72.3628	  380.00	  412.40	-1896.15	  314.70
     72.3962	  436.00	  412.40	-1840.15	  314.70
     72.4296	  430.00	  412.40	-1846.15	  314.70
     72.4631	  414.00	  412.40	-1862.15	  314.70
     72.4965	  408.00	  412.40	-1868.15	  314.70
     72.5299	  423.00	  412.40	-1853.15	  314.70
     72.5633	  434.00	  412.40	-1842.15	  314.70
     72.5968	  407.00	  412.40	-1869.15	  314.70
     72.6302	  444.00	  412.40	-1832.15	  314.70
     72.6636	  405.00	  412.40	-1871.15	  314.70
     72.6970	  383.00	  412.40	-1893.15	  314.70
     72.7305	  405.00	  412.40	-1871.15	  314.70
     72.7639	  399.00	  412.40	-1877.15	  314.70
     72.7973	  415.00	  412.40	-1861.15	  314.70
     72.8307	  406.00	  412.40	-1870.15	  314.70
     72.8641	  427.00	  412.40	-1849.15	  314.70
     72.8976	  427.00	  412.40	-1849.15	  314.70
     72.9310	  414.00	  412.40	-1862.15	  314.70
     72.9644	  431.00	  412.40	-1845.15	  314.70
     72.9978	  399.00	  412.40	-1877.15	  314.70
     73.0313	  415.00	  412.40	-1861.15	  314.70
     73.0647	  386.00	  412.40	-1890.15	  314.70
     73.0981	  380.00	  412.40	-1896.15	  314.70
     73.1315	  402.00	  412.40	-1874.15	  314.70
     73.1649	  409.00	  412.40	-1867.15	  314.70
     73.1984	  428.00	  412.40	-1848.15	  314.70
     73.2318	  417.00	  412.40	-1859.15	  314.70
     73.2652	  423.00	  412.40	-1853.15	  314.70
     73.2986	  377.00	  412.40	-1899.15	  314.70
     73.3321	  414.00	  412.40	-1862.15	  314.70
     73.3655	  399.00	  412.40	-1877.15	  314.70
     73.3989	  403.00	  412.40	-1873.15	  314.70
     73.4323	  409.00	  412.40	-1867.15	  314.70
     73.4658	  397.00	  412.40	-1879.15	  314.70
     73.4992	  407.00	  412.40	-1869.15	  314.70
     73.5326	  444.00	  412.40	-1832.15	  314.70
     73.5660	  421.00	  412.40	-1855.15	  314.70
     73.5994	  433.00	  412.40	-1843.15	  314.70
     73.6329	  371.00	  412.40	-1905.15	  314.70
     73.6663	  430.00	  412.40	-1846.15	  314.70
     73.6997	  429.00	  412.40	-1847.15	  314.70
     73.7331	  446.00	  412.40	-1830.15	  314.70
     73.7665	  419.00	  412.40	-1857.15	  314.70
     73.8000	  376.00	  412.40	-1900.15	  314.70
     73.8334	  415.00	  412.40	-1861.15	  314.70
     73.8668	  441.00	  412.40	-1835.15	  314.70
     73.9002	  397.00	  412.40	-1879.15	  314.70
     73.9337	  394.00	  412.40	-1882.15	  314.70
     73.9671	  436.00	  412.40	-1840.15	  314.70
     74.0005	  408.00	  412.40	-1868.15	  314.70
     74.0339	  403.00	  412.40	-1873.15	  314.70
     74.0674	  438.00	  412.40	-1838.15	  314.70
     74.1008	  382.00	  412.40	-1894.15	  314.70
     74.1342	  421.00	  412.40	-1855.15	  314.70
     74.1676	  386.00	  416.90	-1894.64	  314.70
     74.2010	  396.00	  417.04	-1884.79	  314.70
     74.2345	  415.00	  417.18	-1865.93	  314.70
     74.2679	  379.00	  417.34	-1902.09	  314.70
     74.3013	  417.00	  417.50	-1864.25	  314.70
     74.3347	  400.00	  417.67	-1881.42	  314.70
     74.3682	  405.00	  417.85	-1876.60	  314.70
     74.4016	  424.00	  420.32	-1860.07	  314.70
     74.4350	  423.00	  420.59	-1861.34	  314.70
     74.4684	  418.00	  420.87	-1866.62	  314.70
     74.5018	  441.00	  421.17	-1843.92	  314.70
     74.5353	  441.00	  421.49	-1844.24	  314.70
     74.5687	  421.00	  421.82	-1864.57	  314.70
     74.6021	  404.00	  422.18	-1881.93	  314.70
     74.6355	  427.00	  422.55	-1859.30	  314.70
     74.6690	  455.00	  422.95	-1831.70	  314.70
     74.7024	  424.00	  423.36	-1863.11	  314.70
     74.7358	  418.00	  423.81	-1869.56	  314.70
     74.7692	  414.00	  424.28	-1874.03	  314.70
     74.8027	  397.00	  424.78	-1891.53	  314.70
     74.8361	  429.00	  425.31	-1860.06	  314.70
     74.8695	  377.00	  425.88	-1912.63	  314.70
     74.9029	  421.00	  426.49	-1869.24	  314.70
     74.9363	  415.00	  427.14	-1875.89	  314.70
     74.9698	  413.00	  427.83	-1878.58	  314.70
     75.0032	  373.00	  428.58	-1919.33	  314.70
     75.0366	  399.00	  429.38	-1894.12	  314.70
     75.0700	  448.00	  430.24	-1845.99	  314.70
     75.1035	  455.00	  431.16	-1839.91	  314.70
     75.1369	  403.00	  432.16	-1892.91	  314.70
     75.1703	  447.00	  433.25	-1850.00	  314.70
     75.2037	  443.00	  434.42	-1855.17	  314.70
     75.2371	  426.00	  435.70	-1873.45	  314.70
     75.2706	  387.00	  437.09	-1913.84	  314.70
     75.3040	  425.00	  438.60	-1877.35	  314.70
     75.3374	  421.00	  440.27	-1883.02	  314.70
     75.3708	  423.00	  442.09	-1882.84	  314.70
     75.4043	  429.00	  444.10	-1878.85	  314.70
     75.4377	  437.00	  446.31	-1873.06	  314.70
     75.4711	  426.00	  448.77	-1886.52	  314.70
     75.5045	  461.00	  451.50	-1854.25	  314.70
     75.5379	  413.00	  454.55	-1905.30	  314.70
     75.5714	  468.00	  457.96	-1853.71	  314.70
     75.6048	  472.00	  461.80	-1853.55	  314.70
     75.6382	  477.00	  466.15	-1852.90	  314.70
     75.6716	  465.00	  471.08	-1869.83	  314.70
     75.7051	  462.00	  476.72	-1878.47	  314.70
     75.7385	  482.00	  483.20	-1864.95	  314.70
     75.7719	  503.00	  490.69	-1851.44	  314.70
     75.8053	  460.00	  499.43	-1903.18	  314.70
     75.8387	  498.00	  509.68	-1875.43	  314.70
     75.8722	  483.00	  521.83	-1902.58	  314.70
     75.9056	  563.00	  536.35	-1837.10	  314.70
     75.9390	  548.00	  553.88	-1869.63	  314.70
     75.9724	  600.00	  575.21	-1838.96	  314.70
     76.0059	  627.00	  601.37	-1838.12	  314.70
     76.0393	  641.00	  633.61	-1856.36	  314.70
     76.0727	  698.00	  673.48	-1839.23	  314.70
     76.1061	  740.00	  722.70	-1846.45	  314.70
     76.1395	  868.00	  782.98	-1778.73	  314.70
     76.1730	  923.00	  855.31	-1796.06	  314.70
     76.2064	  946.00	  938.69	-1856.44	  314.70
     76.2398	 1086.00	 1028.09	-1805.84	  314.70
     76.2732	 1141.00	 1112.48	-1835.23	  314.70
     76.3067	 1241.00	 1175.97	-1798.72	  314.70
     76.3401	 1233.00	 1205.13	-1835.88	  314.70
     76.3735	 1285.00	 1198.55	-1777.30	  314.70
     76.4069	 1293.00	 1167.97	-1738.72	  314.70
     76.4404	 1282.00	 1129.01	-1710.76	  314.70
     76.4738	 1178.00	 1091.24	-1776.99	  314.70
     76.5072	 1154.00	 1054.94	-1764.69	  314.70
     76.5406	 1092.00	 1014.10	-1785.84	  314.70
     76.5740	 1017.00	  963.14	-1809.89	  314.70
     76.6075	  934.00	  902.38	-1832.13	  314.70
     76.6409	  892.00	  837.52	-1809.27	  314.70
     76.6743	  827.00	  775.17	-1811.92	  314.70
     76.7077	  752.00	  719.57	-1831.32	  314.70
     76.7412	  727.00	  672.26	-1809.01	  314.70
     76.7746	  680.00	  633.04	-1816.79	  314.70
     76.8080	  581.00	  600.90	-1883.65	  314.70
     76.8414	  572.00	  574.64	-1866.39	  314.70
     76.8748	  562.00	  553.14	-1854.89	  314.70
     76.9083	  533.00	  535.48	-1866.23	  314.70
     76.9417	  524.00	  520.86	-1860.61	  314.70
     76.9751	  493.00	  508.66	-1879.41	  314.70
     77.0085	  450.00	  498.40	-1912.14	  314.70
     77.0420	  477.00	  489.68	-1876.43	  314.70
     77.0754	  486.00	  482.23	-1859.98	  314.70
     77.1088	  480.00	  475.80	-1859.55	  314.70
     77.1422	  472.00	  470.23	-1861.98	  314.70
     77.1757	  447.00	  465.35	-1882.10	  314.70
     77.2091	  411.00	  461.06	-1913.81	  314.70
     77.2425	  443.00	  457.28	-1878.03	  314.70
     77.2759	  418.00	  453.91	-1899.66	  314.70
     77.3093	  425.00	  450.92	-1889.67	  314.70
     77.3428	  417.00	  448.23	-1894.98	  314.70
     77.3762	  410.00	  445.81	-1899.56	  314.70
     77.4096	  423.00	  443.63	-1884.38	  314.70
     77.4430	  402.00	  441.66	-1903.41	  314.70
     77.4765	  436.00	  439.87	-1867.62	  314.70
     77.5099	  371.00	  438.24	-1930.99	  314.70
     77.5433	  438.00	  436.74	-1862.49	  314.70
     77.5767	  407.00	  435.38	-1892.13	  314.70
     77.6101	  437.00	  434.12	-1860.87	  314.70
     77.6436	  418.00	  432.97	-1878.72	  314.70
     77.6770	  394.00	  431.91	-1901.66	  314.70
     77.7104	  410.00	  430.92	-1884.67	  314.70
     77.7438	  450.00	  430.01	-1843.76	  314.70
     77.7773	  396.00	  429.16	-1896.91	  314.70
     77.8107	  420.00	  428.38	-1872.13	  314.70
     77.8441	  414.00	  427.65	-1877.39	  314.70
     77.8775	  429.00	  426.96	-1861.71	  314.70
     77.9109	  398.00	  426.32	-1892.07	  314.70
     77.9444	  396.00	  425.73	-1893.48	  314.70
     77.9778	  392.00	  425.17	-1896.92	  314.70
     78.0112	  410.00	  424.64	-1878.39	  314.70
     78.0446	  415.00	  424.15	-1872.90	  314.70
     78.0781	  402.00	  423.68	-1885.43	  314.70
     78.1115	  369.00	  423.25	-1918.00	  314.70
     78.1449	  447.00	  422.83	-1839.58	  314.70
     78.1783	  449.00	  422.45	-1837.20	  314.70
     78.2117	  382.00	  422.08	-1903.83	  314.70
     78.2452	  419.00	  421.73	-1866.48	  314.70
     78.2786	  410.00	  421.40	-1875.15	  314.70
     78.3120	  410.00	  421.09	-1874.84	  314.70
     78.3454	  457.00	  420.79	-1827.54	  314.70
     78.3789	  441.00	  420.51	-1843.26	  314.70
     78.4123	  445.00	  420.24	-1838.99	  314.70
     78.4457	  424.00	  419.99	-1859.74	  314.70
     78.4791	  450.00	  419.75	-1833.50	  314.70
     78.5126	  418.00	  415.11	-1860.86	  314.70
     78.5460	  418.00	  415.02	-1860.77	  314.70
     78.5794	  380.00	  414.94	-1898.69	  314.70
     78.6128	  353.00	  414.86	-1925.61	  314.70
     78.6462	  397.00	  414.78	-1881.53	  314.70
     78.6797	  428.00	  414.71	-1850.46	  314.70
     78.7131	  394.00	  414.64	-1884.39	  314.70
     78.7465	  394.00	  412.40	-1882.15	  314.70
     78.7799	  379.00	  412.40	-1897.15	  314.70
     78.8134	  407.00	  412.40	-1869.15	  314.70
     78.8468	  411.00	  412.40	-1865.15	  314.70
     78.8802	  399.00	  412.40	-1877.15	  314.70
     78.9136	  425.00	  412.40	-1851.15	  314.70
     78.9470	  363.00	  412.40	-1913.15	  314.70
     78.9805	  388.00	  412.40	-1888.15	  314.70
     79.0139	  393.00	  412.40	-1883.15	  314.70
     79.0473	  439.00	  412.40	-1837.15	  314.70
     79.0807	  415.00	  412.40	-1861.15	  314.70
     79.1142	  374.00	  412.40	-1902.15	  314.70
     79.1476	  372.00	  412.40	-1904.15	  314.70
     79.1810	  424.00	  412.40	-1852.15	  314.70
     79.2144	  435.00	  412.40	-1841.15	  314.70
     79.2478	  397.00	  412.40	-1879.15	  314.70
     79.2813	  366.00	  412.40	-1910.15	  314.70
     79.3147	  415.00	  412.40	-1861.15	  314.70
     79.3481	  374.00	  412.40	-1902.15	  314.70
     79.3815	  392.00	  412.40	-1884.15	  314.70
     79.4150	  403.00	  412.36	-1873.11	  314.66
     79.4484	  375.00	  412.31	-1901.06	  314.61
     79.4818	  408.00	  412.27	-1868.02	  314.57
     79.5152	  425.00	  412.22	-1850.97	  314.52
     79.5487	  410.00	  412.17	-1865.92	  314.47
     79.5821	  420.00	  412.12	-1855.87	  314.42
     79.6155	  404.00	  412.07	-1871.82	  314.37
     79.6489	  361.00	  412.03	-1914.78	  314.32
     79.6823	  410.00	  411.98	-1865.73	  314.28
     79.7158	  407.00	  411.93	-1868.68	  314.23
     79.7492	  441.00	  411.88	-1834.63	  314.18
     79.7826	  384.00	  411.83	-1891.58	  314.13
     79.8160	  398.00	  411.78	-1877.53	  314.08
     79.8494	  430.00	  411.74	-1845.49	  314.04
     79.8829	  415.00	  411.69	-1860.44	  313.99
     79.9163	  403.00	  411.64	-1872.39	  313.94
     79.9497	  423.00	  411.59	-1852.34	  313.89
     79.9831	  415.00	  411.54	-1860.29	  313.84
     80.0166	  388.00	  411.50	-1887.25	  313.80
     80.0500	  430.00	  411.45	-1845.20	  313.75
     80.0834	  411.00	  411.40	-1864.15	  313.70
     80.1168	  405.00	  411.35	-1870.10	  313.65
     80.1503	  408.00	  411.30	-1867.05	  313.60
     80.1837	  376.00	  411.25	-1899.00	  313.55
     80.2171	  397.00	  411.21	-1877.96	  313.51
     80.2505	  446.00	  411.16	-1828.91	  313.46
     80.2839	  408.00	  411.11	-1866.86	  313.41
     80.3174	  372.00	  411.06	-1902.81	  313.36
     80.3508	  416.00	  411.01	-1858.76	  313.31
     80.3842	  389.00	  410.97	-1885.72	  313.27
     80.4176	  394.00	  410.92	-1880.67	  313.22
     80.4511	  355.00	  410.87	-1919.62	  313.17
     80.4845	  407.00	  410.82	-1867.57	  313.12
     80.5179	  393.00	  410.77	-1881.52	  313.07
     80.5513	  400.00	  410.73	-1874.47	  313.02
     80.5847	  429.00	  410.68	-1845.43	  312.98
     80.6182	  430.00	  410.63	-1844.38	  312.93
     80.6516	  388.00	  410.58	-1886.33	  312.88
     80.6850	  366.00	  410.53	-1908.28	  312.83
     80.7184	  400.00	  410.48	-1874.23	  312.78
     80.7519	  403.00	  410.44	-1871.19	  312.74
     80.7853	  395.00	  410.39	-1879.14	  312.69
     80.8187	  389.00	  410.34	-1885.09	  312.64
     80.8521	  444.00	  410.29	-1830.04	  312.59
     80.8856	  429.00	  410.24	-1844.99	  312.54
     80.9190	  413.00	  410.20	-1860.95	  312.50
     80.9524	  394.00	  410.15	-1879.90	  312.45
     80.9858	  400.00	  410.10	-1873.85	  312.40
     81.0192	  417.00	  410.05	-1856.80	  312.35
     81.0527	  375.00	  410.00	-1898.75	  312.30
     81.0861	  429.00	  409.95	-1844.70	  312.25
     81.1195	  377.00	  409.91	-1896.66	  312.21
     81.1529	  402.00	  409.86	-1871.61	  312.16
     81.1864	  400.00	  409.81	-1873.56	  312.11
     81.2198	  395.00	  409.76	-1878.51	  312.06
     81.2532	  352.00	  409.71	-1921.46	  312.01
     81.2866	  419.00	  409.67	-1854.42	  311.97
     81.3200	  426.00	  409.62	-1847.37	  311.92
     81.3535	  387.00	  409.57	-1886.32	  311.87
     81.3869	  408.00	  409.52	-1865.27	  311.82
     81.4203	  421.00	  409.47	-1852.22	  311.77
     81.4537	  395.00	  409.43	-1878.17	  311.72
     81.4872	  408.00	  409.38	-1865.13	  311.68
     81.5206	  406.00	  409.33	-1867.08	  311.63
     81.5540	  407.00	  409.28	-1866.03	  311.58
     81.5874	  398.00	  409.23	-1874.98	  311.53
     81.6208	  402.00	  409.18	-1870.93	  311.48
     81.6543	  428.00	  409.14	-1844.89	  311.44
     81.6877	  369.00	  409.09	-1903.84	  311.39
     81.7211	  387.00	  409.04	-1885.79	  311.34
     81.7545	  393.00	  408.99	-1879.74	  311.29
     81.7880	  430.00	  408.94	-1842.69	  311.24
     81.8214	  402.00	  408.90	-1870.65	  311.19
     81.8548	  434.00	  408.85	-1838.60	  311.15
     81.8882	  371.00	  408.80	-1901.55	  311.10
     81.9217	  426.00	  408.75	-1846.50	  311.05
     81.9551	  375.00	  408.70	-1897.45	  311.00
     81.9885	  359.00	  408.65	-1913.40	  310.95
     82.0219	  387.00	  408.61	-1885.36	  310.91
     82.0553	  417.00	  408.56	-1855.31	  310.86
     82.0888	  451.00	  408.51	-1821.26	  310.81
     82.1222	  367.00	  408.46	-1905.21	  310.76
     82.1556	  449.00	  408.41	-1823.16	  310.71
     82.1890	  393.00	  408.37	-1879.12	  310.67
     82.2225	  386.00	  408.32	-1886.07	  310.62
     82.2559	  416.00	  408.27	-1856.02	  310.57
     82.2893	  429.00	  408.22	-1842.97	  310.52
     82.3227	  406.00	  408.17	-1865.92	  310.47
     82.3561	  403.00	  408.12	-1868.87	  310.42
     82.3896	  416.00	  408.08	-1855.83	  310.38
     82.4230	  394.00	  408.03	-1877.78	  310.33
     82.4564	  382.00	  407.98	-1889.73	  310.28
     82.4898	  437.00	  407.93	-1834.68	  310.23
     82.5233	  385.00	  407.88	-1886.63	  310.18
     82.5567	  380.00	  407.84	-1891.59	  310.14
     82.5901	  421.00	  407.79	-1850.54	  310.09
     82.6235	  399.00	  407.74	-1872.49	  310.04
     82.6569	  394.00	  407.69	-1877.44	  309.99
     82.6904	  384.00	  407.64	-1887.39	  309.94
     82.7238	  430.00	  407.60	-1841.34	  309.89
     82.7572	  402.00	  407.55	-1869.30	  309.85
     82.7906	  388.00	  407.50	-1883.25	  309.80
     82.8241	  405.00	  407.45	-1866.20	  309.75
     82.8575	  407.00	  407.40	-1864.15	  309.70
     82.8909	  378.00	  407.35	-1893.10	  309.65
     82.9243	  437.00	  407.31	-1834.06	  309.61
     82.9577	  394.00	  407.26	-1877.01	  309.56
     82.9912	  402.00	  407.21	-1868.96	  309.51
     83.0246	  419.00	  407.16	-1851.91	  309.46
     83.0580	  420.00	  407.11	-1850.86	  309.41
     83.0914	  429.00	  407.07	-1841.82	  309.37
     83.1249	  417.00	  407.02	-1853.77	  309.32
     83.1583	  352.00	  406.97	-1918.72	  309.27
     83.1917	  420.00	  406.92	-1850.67	  309.22
     83.2251	  371.00	  406.87	-1899.62	  309.17
     83.2586	  427.00	  406.82	-1843.57	  309.12
     83.2920	  385.00	  406.78	-1885.53	  309.08
     83.3254	  378.00	  406.73	-1892.48	  309.03
     83.3588	  383.00	  406.68	-1887.43	  308.98
     83.3922	  474.00	  406.63	-1796.38	  308.93
     83.4257	  420.00	  406.58	-1850.33	  308.88
     83.4591	  375.00	  406.54	-1895.29	  308.84
     83.4925	  420.00	  406.49	-1850.24	  308.79
     83.5259	  417.00	  406.44	-1853.19	  308.74
     83.5594	  384.00	  406.39	-1886.14	  308.69
     83.5928	  358.00	  406.34	-1912.09	  308.64
     83.6262	  393.00	  406.30	-1877.04	  308.59
     83.6596	  408.00	  406.25	-1862.00	  308.55
     83.6930	  397.00	  406.20	-1872.95	  308.50
     83.7265	  441.00	  406.15	-1828.90	  308.45
     83.7599	  408.00	  406.10	-1861.85	  308.40
     83.7933	  398.00	  406.05	-1871.80	  308.35
     83.8267	  393.00	  406.01	-1876.76	  308.31
     83.8602	  366.00	  405.96	-1903.71	  308.26
     83.8936	  418.00	  405.91	-1851.66	  308.21
     83.9270	  361.00	  405.86	-1908.61	  308.16
     83.9604	  409.00	  405.81	-1860.56	  308.11
     83.9939	  364.00	  405.77	-1905.52	  308.07
     84.0273	  368.00	  405.72	-1901.47	  308.02
     84.0607	  397.00	  405.67	-1872.42	  307.97
     84.0941	  426.00	  405.62	-1843.37	  307.92
     84.1275	  409.00	  405.57	-1860.32	  307.87
     84.1610	  399.00	  405.52	-1870.27	  307.82
     84.1944	  420.00	  405.48	-1849.23	  307.78
     84.2278	  389.00	  405.43	-1880.18	  307.73
     84.2612	  399.00	  405.38	-1870.13	  307.68
     84.2946	  428.00	  405.33	-1841.08	  307.63
     84.3281	  396.00	  405.28	-1873.03	  307.58
     84.3615	  402.00	  405.24	-1866.99	  307.54
     84.3949	  395.00	  405.19	-1873.94	  307.49
     84.4283	  414.00	  405.14	-1854.89	  307.44
     84.4618	  376.00	  405.09	-1892.84	  307.39
     84.4952	  405.00	  405.04	-1863.79	  307.34
     84.5286	  399.00	  405.00	-1869.74	  307.29
     84.5620	  408.00	  404.95	-1860.70	  307.25
     84.5955	  404.00	  404.90	-1864.65	  307.20
     84.6289	  380.00	  404.85	-1888.60	  307.15
     84.6623	  384.00	  404.80	-1884.55	  307.10
     84.6957	  367.00	  404.75	-1901.50	  307.05
     84.7291	  415.00	  404.71	-1853.46	  307.01
     84.7626	  413.00	  404.66	-1855.41	  306.96
     84.7960	  411.00	  404.61	-1857.36	  306.91
     84.8294	  425.00	  404.56	-1843.31	  306.86
     84.8628	  366.00	  404.51	-1902.26	  306.81
     84.8963	  397.00	  404.47	-1871.22	  306.77
     84.9297	  386.00	  404.42	-1882.17	  306.72
     84.9631	  403.00	  404.37	-1865.12	  306.67
     84.9965	  380.00	  404.32	-1888.07	  306.62
     85.0299	  392.00	  404.27	-1876.02	  306.57
     85.0634	  407.00	  404.22	-1860.97	  306.52
     85.0968	  390.00	  404.18	-1877.93	  306.48
     85.1302	  425.00	  404.13	-1842.88	  306.43
     85.1636	  414.00	  404.08	-1853.83	  306.38
     85.1971	  415.00	  404.03	-1852.78	  306.33
     85.2305	  400.00	  403.98	-1867.73	  306.28
     85.2639	  395.00	  403.94	-1872.69	  306.24
     85.2973	  396.00	  403.89	-1871.64	  306.19
     85.3307	  394.00	  403.84	-1873.59	  306.14
     85.3642	  398.00	  403.79	-1869.54	  306.09
     85.3976	  375.00	  403.74	-1892.49	  306.04
     85.4310	  416.00	  403.70	-1851.44	  305.99
     85.4644	  425.00	  403.65	-1842.40	  305.95
     85.4979	  430.00	  403.60	-1837.35	  305.90
     85.5313	  390.00	  403.55	-1877.30	  305.85
     85.5647	  379.00	  403.50	-1888.25	  305.80
     85.5981	  403.00	  403.45	-1864.20	  305.75
     85.6316	  438.00	  403.41	-1829.16	  305.71
     85.6650	  429.00	  403.36	-1838.11	  305.66
     85.6984	  406.00	  403.31	-1861.06	  305.61
     85.7318	  389.00	  403.26	-1878.01	  305.56
     85.7652	  413.00	  403.21	-1853.96	  305.51
     85.7987	  405.00	  403.17	-1861.92	  305.46
     85.8321	  388.00	  403.12	-1878.87	  305.42
     85.8655	  398.00	  403.07	-1868.82	  305.37
     85.8989	  434.00	  403.02	-1832.77	  305.32
     85.9324	  384.00	  402.97	-1882.72	  305.27
     85.9658	  382.00	  402.92	-1884.67	  305.22
     85.9992	  392.00	  402.88	-1874.63	  305.18
     86.0326	  443.00	  402.83	-1823.58	  305.13
     86.0660	  426.00	  402.78	-1840.53	  305.08
     86.0995	  446.00	  402.73	-1820.48	  305.03
     86.1329	  385.00	  402.68	-1881.43	  304.98
     86.1663	  375.00	  402.64	-1891.39	  304.94
     86.1997	  369.00	  402.59	-1897.34	  304.89
     86.2332	  388.00	  402.54	-1878.29	  304.84
     86.2666	  406.00	  402.49	-1860.24	  304.79
     86.3000	  376.00	  402.44	-1890.19	  304.74
     86.3334	  402.00	  402.39	-1864.14	  304.69
     86.3668	  387.00	  402.35	-1879.10	  304.65
     86.4003	  405.00	  402.30	-1861.05	  304.60
     86.4337	  399.00	  402.25	-1867.00	  304.55
     86.4671	  369.00	  402.20	-1896.95	  304.50
     86.5005	  384.00	  402.15	-1881.90	  304.45
     86.5340	  393.00	  402.11	-1872.86	  304.41
     86.5674	  385.00	  402.06	-1880.81	  304.36
     86.6008	  403.00	  402.01	-1862.76	  304.31
     86.6342	  409.00	  401.96	-1856.71	  304.26
     86.6676	  415.00	  401.91	-1850.66	  304.21
     86.7011	  367.00	  401.87	-1898.61	  304.16
     86.7345	  402.00	  401.82	-1863.57	  304.12
     86.7679	  390.00	  401.77	-1875.52	  304.07
     86.8013	  409.00	  401.72	-1856.47	  304.02
     86.8348	  379.00	  401.67	-1886.42	  303.97
     86.8682	  369.00	  401.62	-1896.37	  303.92
     86.9016	  409.00	  401.59	-1856.34	  303.89
     86.9350	  403.00	  401.56	-1862.31	  303.86
     86.9685	  394.00	  401.54	-1871.29	  303.84
     87.0019	  394.00	  401.51	-1871.26	  303.81
     87.0353	  383.00	  401.49	-1882.24	  303.79
     87.0687	  386.00	  401.46	-1879.21	  303.76
     87.1021	  379.00	  401.44	-1886.19	  303.74
     87.1356	  385.00	  401.41	-1880.16	  303.71
     87.1690	  392.00	  401.39	-1873.14	  303.69
     87.2024	  415.00	  401.36	-1850.11	  303.66
     87.2358	  416.00	  401.34	-1849.09	  303.64
     87.2693	  375.00	  401.32	-1890.07	  303.62
     87.3027	  386.00	  401.29	-1879.04	  303.59
     87.3361	  389.00	  401.27	-1876.02	  303.57
     87.3695	  407.00	  401.24	-1857.99	  303.54
     87.4029	  403.00	  401.22	-1861.97	  303.52
     87.4364	  417.00	  401.19	-1847.94	  303.49
     87.4698	  394.00	  401.17	-1870.92	  303.47
     87.5032	  393.00	  401.14	-1871.89	  303.44
     87.5366	  387.00	  401.12	-1877.87	  303.42
     87.5701	  396.00	  401.09	-1868.84	  303.39
     87.6035	  402.00	  401.07	-1862.82	  303.37
     87.6369	  390.00	  401.05	-1874.80	  303.35
     87.6703	  398.00	  401.02	-1866.77	  303.32
     87.7038	  398.00	  401.00	-1866.75	  303.30
     87.7372	  405.00	  400.97	-1859.72	  303.27
     87.7706	  380.00	  400.95	-1884.70	  303.25
     87.8040	  367.00	  400.92	-1897.67	  303.22
     87.8374	  394.00	  400.90	-1870.65	  303.20
     87.8709	  416.00	  400.87	-1848.62	  303.17
     87.9043	  380.00	  400.85	-1884.60	  303.15
     87.9377	  355.00	  400.83	-1909.57	  303.12
     87.9711	  378.00	  400.80	-1886.55	  303.10
     88.0045	  357.00	  400.78	-1907.53	  303.08
     88.0380	  403.00	  400.75	-1861.50	  303.05
     88.0714	  396.00	  400.73	-1868.48	  303.03
     88.1048	  395.00	  400.70	-1869.45	  303.00
     88.1382	  377.00	  400.68	-1887.43	  302.98
     88.1717	  395.00	  400.65	-1869.40	  302.95
     88.2051	  431.00	  400.63	-1833.38	  302.93
     88.2385	  376.00	  400.60	-1888.35	  302.90
     88.2719	  390.00	  400.58	-1874.33	  302.88
     88.3054	  376.00	  400.56	-1888.30	  302.85
     88.3388	  390.00	  400.53	-1874.28	  302.83
     88.3722	  372.00	  400.51	-1892.26	  302.81
     88.4056	  387.00	  400.48	-1877.23	  302.78
     88.4390	  385.00	  400.46	-1879.21	  302.76
     88.4725	  390.00	  400.43	-1874.18	  302.73
     88.5059	  388.00	  400.41	-1876.16	  302.71
     88.5393	  408.00	  400.38	-1856.13	  302.68
     88.5727	  398.00	  400.36	-1866.11	  302.66
     88.6062	  378.00	  400.33	-1886.08	  302.63
     88.6396	  400.00	  400.31	-1864.06	  302.61
     88.6730	  385.00	  400.29	-1879.03	  302.58
     88.7064	  407.00	  400.26	-1857.01	  302.56
     88.7398	  409.00	  400.24	-1854.99	  302.54
     88.7733	  392.00	  400.21	-1871.96	  302.51
     88.8067	  364.00	  400.19	-1899.94	  302.49
     88.8401	  393.00	  400.16	-1870.91	  302.46
     88.8735	  406.00	  400.14	-1857.89	  302.44
     88.9070	  369.00	  400.11	-1894.86	  302.41
     88.9404	  410.00	  400.09	-1853.84	  302.39
     88.9738	  426.00	  400.06	-1837.81	  302.36
     89.0072	  345.00	  400.04	-1918.79	  302.34
     89.0406	  395.00	  400.02	-1868.77	  302.31
     89.0741	  374.00	  399.99	-1889.74	  302.29
     89.1075	  376.00	  399.97	-1887.72	  302.27
     89.1409	  368.00	  399.94	-1895.69	  302.24
     89.1743	  410.00	  399.92	-1853.67	  302.22
     89.2078	  383.00	  399.89	-1880.64	  302.19
     89.2412	  344.00	  399.87	-1919.62	  302.17
     89.2746	  433.00	  399.84	-1830.59	  302.14
     89.3080	  411.00	  399.82	-1852.57	  302.12
     89.3415	  396.00	  399.79	-1867.54	  302.09
     89.3749	  383.00	  399.77	-1880.52	  302.07
     89.4083	  399.00	  399.75	-1864.50	  302.04
     89.4417	  374.00	  399.72	-1889.47	  302.02
     89.4751	  367.00	  399.70	-1896.45	  302.00
     89.5086	  386.00	  399.67	-1877.42	  301.97
     89.5420	  379.00	  399.65	-1884.40	  301.95
     89.5754	  374.00	  399.62	-1889.37	  301.92
     89.6088	  389.00	  399.60	-1874.35	  301.90
     89.6423	  380.00	  399.57	-1883.32	  301.87
     89.6757	  404.00	  399.55	-1859.30	  301.85
     89.7091	  375.00	  399.52	-1888.27	  301.82
     89.7425	  409.00	  399.50	-1854.25	  301.80
     89.7759	  417.00	  399.48	-1846.23	  301.77
     89.8094	  372.00	  399.45	-1891.20	  301.75
     89.8428	  373.00	  399.43	-1890.18	  301.73
     89.8762	  397.00	  399.40	-1866.15	  301.70
     89.9096	  403.00	  399.38	-1860.13	  301.68
     89.9431	  369.00	  399.35	-1894.10	  301.65
     89.9765	  378.00	  399.33	-1885.08	  301.63
     90.0099	  371.00	  399.30	-1892.05	  301.60
     90.0433	  375.00	  399.28	-1888.03	  301.58
     90.0767	  392.00	  399.25	-1871.00	  301.55
     90.1102	  354.00	  399.23	-1908.98	  301.53
     90.1436	  414.00	  399.21	-1848.96	  301.51
     90.1770	  399.00	  399.18	-1863.93	  301.48
     90.2104	  379.00	  399.16	-1883.91	  301.46
     90.2439	  372.00	  399.13	-1890.88	  301.43
     90.2773	  426.00	  399.11	-1836.86	  301.41
     90.3107	  390.00	  399.08	-1872.83	  301.38
     90.3441	  373.00	  399.06	-1889.81	  301.36
     90.3775	  398.00	  399.03	-1864.78	  301.33
     90.4110	  398.00	  399.01	-1864.76	  301.31
     90.4444	  408.00	  398.98	-1854.73	  301.28
     90.4778	  394.00	  398.96	-1868.71	  301.26
     90.5112	  373.00	  398.94	-1889.69	  301.24
     90.5447	  393.00	  398.91	-1869.66	  301.21
     90.5781	  367.00	  398.89	-1895.64	  301.19
     90.6115	  388.00	  398.86	-1874.61	  301.16
     90.6449	  394.00	  404.67	-1874.42	  301.14
     90.6784	  389.00	  404.82	-1879.57	  301.11
     90.7118	  405.00	  404.98	-1863.73	  301.09
     90.7452	  382.00	  405.15	-1886.90	  301.06
     90.7786	  378.00	  405.32	-1891.07	  301.04
     90.8120	  379.00	  405.51	-1890.26	  301.01
     90.8455	  407.00	  405.71	-1862.46	  300.99
     90.8789	  386.00	  405.92	-1883.67	  300.97
     90.9123	  388.00	  406.14	-1881.89	  300.94
     90.9457	  404.00	  409.30	-1869.05	  300.92
     90.9792	  399.00	  409.64	-1874.39	  300.89
     91.0126	  416.00	  409.99	-1857.74	  300.87
     91.0460	  380.00	  410.36	-1894.11	  300.84
     91.0794	  358.00	  410.75	-1916.50	  300.82
     91.1128	  415.00	  411.17	-1859.92	  300.79
     91.1463	  409.00	  411.61	-1866.36	  300.77
     91.1797	  397.00	  412.07	-1878.82	  300.74
     91.2131	  403.00	  412.57	-1873.32	  300.72
     91.2465	  414.00	  413.09	-1862.84	  300.70
     91.2800	  387.00	  413.65	-1890.40	  300.67
     91.3134	  414.00	  414.24	-1863.99	  300.65
     91.3468	  406.00	  414.87	-1872.62	  300.62
     91.3802	  459.00	  415.54	-1820.29	  300.60
     91.4137	  378.00	  416.25	-1902.00	  300.57
     91.4471	  386.00	  417.01	-1894.76	  300.55
     91.4805	  413.00	  417.83	-1868.58	  300.52
     91.5139	  399.00	  418.70	-1883.45	  300.50
     91.5473	  409.00	  419.64	-1874.39	  300.47
     91.5808	  415.00	  420.64	-1869.39	  300.45
     91.6142	  394.00	  421.72	-1891.47	  300.43
     91.6476	  448.00	  422.88	-1838.63	  300.40
     91.6810	  377.00	  424.14	-1910.89	  300.38
     91.7145	  407.00	  425.49	-1882.24	  300.35
     91.7479	  363.00	  426.96	-1927.71	  300.33
     91.7813	  373.00	  428.55	-1919.30	  300.30
     91.8147	  378.00	  430.28	-1916.03	  300.28
     91.8481	  417.00	  432.16	-1878.91	  300.25
     91.8816	  451.00	  434.22	-1846.97	  300.23
     91.9150	  437.00	  436.47	-1863.22	  300.20
     91.9484	  413.00	  438.93	-1889.68	  300.18
     91.9818	  450.00	  441.65	-1855.40	  300.16
     92.0153	  398.00	  444.64	-1910.39	  300.13
     92.0487	  452.00	  447.95	-1859.70	  300.11
     92.0821	  465.00	  451.63	-1850.38	  300.08
     92.1155	  449.00	  455.73	-1870.48	  300.06
     92.1489	  426.00	  460.31	-1898.06	  300.03
     92.1824	  451.00	  465.45	-1878.20	  300.01
     92.2158	  488.00	  471.24	-1846.99	  299.98
     92.2492	  445.00	  477.81	-1896.56	  299.96
     92.2826	  478.00	  485.27	-1871.02	  299.93
     92.3161	  513.00	  493.81	-1844.56	  299.91
     92.3495	  530.00	  503.62	-1837.37	  299.89
     92.3829	  492.00	  514.95	-1886.70	  299.86
     92.4163	  486.00	  528.09	-1905.84	  299.84
     92.4497	  564.00	  543.41	-1843.16	  299.81
     92.4832	  619.00	  561.33	-1806.08	  299.79
     92.5166	  567.00	  582.36	-1879.11	  299.76
     92.5500	  639.00	  607.05	-1831.80	  299.74
     92.5834	  663.00	  636.03	-1836.78	  299.71
     92.6169	  717.00	  669.93	-1816.68	  299.69
     92.6503	  740.00	  709.26	-1833.01	  299.66
     92.6837	  787.00	  754.21	-1830.96	  299.64
     92.7171	  796.00	  804.29	-1872.04	  299.62
     92.7505	  842.00	  857.93	-1879.68	  299.59
     92.7840	  931.00	  911.91	-1844.66	  299.57
     92.8174	  963.00	  961.29	-1862.04	  299.54
     92.8508	  975.00	 1000.12	-1888.87	  299.52
     92.8842	 1020.00	 1023.41	-1867.16	  299.49
     92.9177	 1015.00	 1029.23	-1877.97	  299.47
     92.9511	 1018.00	 1019.76	-1865.51	  299.44
     92.9845	  982.00	 1000.25	-1882.00	  299.42
     93.0179	  972.00	  976.50	-1868.25	  299.39
     93.0514	  975.00	  952.79	-1841.54	  299.37
     93.0848	  921.00	  930.82	-1873.57	  299.35
     93.1182	  879.00	  909.81	-1894.56	  299.32
     93.1516	  864.00	  887.35	-1887.10	  299.30
     93.1850	  858.00	  860.92	-1866.67	  299.27
     93.2185	  832.00	  829.27	-1861.02	  299.25
     93.2519	  769.00	  793.04	-1887.79	  299.22
     93.2853	  843.00	  754.34	-1775.08	  299.20
     93.3187	  760.00	  715.64	-1819.39	  299.17
     93.3522	  709.00	  678.99	-1833.74	  299.15
     93.3856	  686.00	  645.63	-1823.38	  299.12
     93.4190	  635.00	  616.06	-1844.81	  299.10
     93.4524	  633.00	  590.29	-1821.04	  299.08
     93.4858	  583.00	  568.03	-1848.78	  299.05
     93.5193	  528.00	  548.91	-1884.66	  299.03
     93.5527	  533.00	  532.50	-1863.25	  299.00
     93.5861	  541.00	  518.40	-1841.15	  298.98
     93.6195	  534.00	  506.26	-1836.01	  298.95
     93.6530	  455.00	  495.76	-1904.51	  298.93
     93.6864	  514.00	  486.65	-1836.40	  298.90
     93.7198	  438.00	  478.71	-1904.46	  298.88
     93.7532	  436.00	  471.75	-1899.50	  298.85
     93.7867	  431.00	  465.62	-1898.37	  298.83
     93.8201	  466.00	  460.20	-1857.95	  298.81
     93.8535	  439.00	  455.39	-1880.14	  298.78
     93.8869	  418.00	  451.09	-1896.84	  298.76
     93.9203	  410.00	  447.25	-1901.00	  298.73
     93.9538	  405.00	  443.78	-1902.53	  298.71
     93.9872	  428.00	  440.66	-1876.41	  298.68
     94.0206	  392.00	  437.82	-1909.57	  298.66
     94.0540	  465.00	  435.25	-1834.00	  298.63
     94.0874	  413.00	  432.90	-1883.65	  298.61
     94.1209	  372.00	  430.76	-1922.51	  298.58
     94.1543	  411.00	  428.79	-1881.54	  298.56
     94.1877	  397.00	  426.98	-1893.73	  298.54
     94.2211	  390.00	  425.32	-1899.07	  298.51
     94.2546	  403.00	  423.78	-1884.53	  298.49
     94.2880	  406.00	  422.37	-1880.12	  298.48
     94.3214	  375.00	  421.07	-1909.82	  298.47
     94.3548	  384.00	  419.86	-1899.60	  298.46
     94.3883	  394.00	  418.73	-1888.48	  298.44
     94.4217	  410.00	  417.68	-1871.43	  298.43
     94.4551	  398.00	  416.70	-1882.44	  298.42
     94.4885	  406.00	  415.78	-1873.53	  298.41
     94.5219	  367.00	  414.92	-1911.67	  298.40
     94.5554	  384.00	  414.11	-1893.86	  298.38
     94.5888	  419.00	  413.36	-1858.11	  298.37
     94.6222	  411.00	  412.65	-1865.40	  298.36
     94.6556	  365.00	  411.98	-1910.73	  298.35
     94.6891	  398.00	  411.35	-1877.10	  298.34
     94.7225	  396.00	  410.75	-1878.50	  298.33
     94.7559	  390.00	  410.19	-1883.94	  298.31
     94.7893	  407.00	  409.66	-1866.41	  298.30
     94.8227	  357.00	  409.15	-1915.90	  298.29
     94.8562	  395.00	  408.67	-1877.42	  298.28
     94.8896	  359.00	  408.22	-1912.97	  298.27
     94.9230	  362.00	  407.79	-1909.54	  298.25
     94.9564	  386.00	  407.38	-1885.13	  298.24
     94.9899	  396.00	  406.99	-1874.74	  298.23
     95.0233	  384.00	  406.62	-1886.37	  298.22
     95.0567	  376.00	  406.26	-1894.01	  298.21
     95.0901	  436.00	  405.93	-1833.68	  298.20
     95.1236	  430.00	  405.60	-1839.35	  298.18
     95.1570	  400.00	  399.62	-1863.37	  298.17
     95.1904	  383.00	  399.49	-1880.24	  298.16
     95.2238	  357.00	  399.36	-1906.11	  298.15
     95.2572	  395.00	  399.24	-1867.99	  298.14
     95.2907	  392.00	  399.12	-1870.87	  298.12
     95.3241	  405.00	  399.01	-1857.76	  298.11
     95.3575	  365.00	  398.90	-1897.65	  298.10
     95.3909	  379.00	  398.80	-1883.55	  298.09
     95.4244	  377.00	  398.70	-1885.45	  298.08
     95.4578	  405.00	  395.77	-1854.52	  298.07
     95.4912	  346.00	  395.75	-1913.50	  298.05
     95.5246	  395.00	  395.74	-1864.49	  298.04
     95.5580	  382.00	  395.73	-1877.48	  298.03
     95.5915	  380.00	  395.72	-1879.47	  298.02
     95.6249	  351.00	  395.71	-1908.46	  298.01
     95.6583	  409.00	  395.70	-1850.44	  297.99
     95.6917	  416.00	  395.68	-1843.43	  297.98
     95.7252	  393.00	  395.67	-1866.42	  297.97
     95.7586	  376.00	  395.66	-1883.41	  297.96
     95.7920	  385.00	  395.65	-1874.40	  297.95
     95.8254	  369.00	  395.64	-1890.39	  297.94
     95.8588	  356.00	  395.62	-1903.37	  297.92
     95.8923	  417.00	  395.61	-1842.36	  297.91
     95.9257	  376.00	  395.60	-1883.35	  297.90
     95.9591	  389.00	  395.59	-1870.34	  297.89
     95.9925	  399.00	  395.58	-1860.33	  297.88
     96.0260	  379.00	  395.57	-1880.31	  297.86
     96.0594	  404.00	  395.55	-1855.30	  297.85
     96.0928	  411.00	  397.30	-1850.05	  297.84
     96.1262	  392.00	  397.34	-1869.09	  297.83
     96.1597	  376.00	  397.38	-1885.13	  297.82
     96.1931	  359.00	  397.43	-1902.18	  297.81
     96.2265	  373.00	  397.47	-1888.22	  297.79
     96.2599	  347.00	  397.52	-1914.27	  297.78
     96.2933	  368.00	  397.58	-1893.33	  297.77
     96.3268	  369.00	  397.63	-1892.38	  297.76
     96.3602	  363.00	  397.69	-1898.44	  297.75
     96.3936	  400.00	  398.62	-1862.37	  297.73
     96.4270	  387.00	  398.71	-1875.46	  297.72
     96.4604	  387.00	  398.81	-1875.56	  297.71
     96.4939	  397.00	  398.91	-1865.66	  297.70
     96.5273	  400.00	  399.02	-1862.76	  297.69
     96.5607	  361.00	  399.13	-1901.88	  297.68
     96.5941	  334.00	  399.25	-1929.00	  297.66
     96.6276	  362.00	  399.38	-1901.13	  297.65
     96.6610	  417.00	  399.51	-1846.26	  297.64
     96.6944	  416.00	  399.66	-1847.41	  297.63
     96.7278	  384.00	  399.81	-1879.56	  297.62
     96.7613	  387.00	  399.97	-1876.72	  297.60
     96.7947	  369.00	  400.14	-1894.89	  297.59
     96.8281	  424.00	  400.33	-1840.08	  297.58
     96.8615	  378.00	  400.52	-1886.27	  297.57
     96.8949	  383.00	  400.73	-1881.48	  297.56
     96.9284	  394.00	  400.95	-1870.70	  297.55
     96.9618	  392.00	  401.19	-1872.94	  297.53
     96.9952	  393.00	  401.44	-1872.19	  297.52
     97.0286	  374.00	  401.72	-1891.47	  297.51
     97.0621	  396.00	  402.01	-1869.76	  297.50
     97.0955	  356.00	  402.32	-1910.07	  297.49
     97.1289	  376.00	  402.66	-1890.41	  297.47
     97.1623	  400.00	  403.02	-1866.77	  297.46
     97.1957	  388.00	  403.42	-1879.17	  297.45
     97.2292	  357.00	  403.84	-1910.59	  297.44
     97.2626	  374.00	  404.30	-1894.05	  297.43
     97.2960	  376.00	  404.80	-1892.55	  297.42
     97.3294	  383.00	  405.34	-1886.09	  297.40
     97.3629	  396.00	  405.93	-1873.68	  297.39
     97.3963	  388.00	  406.58	-1882.33	  297.38
     97.4297	  352.00	  407.28	-1919.03	  297.37
     97.4631	  393.00	  408.05	-1878.80	  297.36
     97.4966	  406.00	  408.90	-1866.65	  297.34
     97.5300	  409.00	  409.84	-1864.59	  297.33
     97.5634	  405.00	  410.88	-1869.63	  297.32
     97.5968	  402.00	  412.03	-1873.78	  297.31
     97.6302	  393.00	  413.31	-1884.06	  297.30
     97.6637	  407.00	  414.74	-1871.49	  297.29
     97.6971	  410.00	  416.35	-1870.10	  297.27
     97.7305	  396.00	  418.15	-1885.90	  297.26
     97.7639	  415.00	  420.19	-1868.94	  297.25
     97.7974	  400.00	  422.51	-1886.26	  297.24
     97.8308	  414.00	  425.15	-1874.90	  297.23
     97.8642	  433.00	  428.17	-1858.92	  297.21
     97.8976	  383.00	  431.63	-1912.38	  297.20
     97.9310	  379.00	  435.63	-1920.38	  297.19
     97.9645	  429.00	  440.24	-1874.99	  297.18
     97.9979	  407.00	  445.57	-1902.32	  297.17
     98.0313	  440.00	  451.76	-1875.50	  297.16
     98.0647	  420.00	  458.91	-1902.66	  297.14
     98.0982	  416.00	  467.15	-1914.90	  297.13
     98.1316	  438.00	  476.58	-1902.33	  297.12
     98.1650	  452.00	  487.25	-1899.00	  297.11
     98.1984	  437.00	  499.06	-1925.81	  297.10
     98.2318	  476.00	  511.76	-1899.51	  297.09
     98.2653	  502.00	  524.78	-1886.53	  297.07
     98.2987	  466.00	  537.26	-1935.01	  297.06
     98.3321	  512.00	  548.04	-1899.79	  297.05
     98.3655	  547.00	  555.97	-1872.72	  297.04
     98.3990	  577.00	  560.24	-1846.99	  297.03
     98.4324	  514.00	  560.72	-1910.47	  297.01
     98.4658	  527.00	  558.01	-1894.76	  297.00
     98.4992	  471.00	  553.21	-1945.96	  296.99
     98.5326	  554.00	  547.51	-1857.26	  296.98
     98.5661	  513.00	  541.77	-1892.52	  296.97
     98.5995	  523.00	  536.42	-1877.17	  296.96
     98.6329	  534.00	  531.40	-1861.15	  296.94
     98.6663	  502.00	  526.30	-1888.05	  296.93
     98.6998	  489.00	  520.58	-1895.33	  296.92
     98.7332	  526.00	  513.82	-1851.57	  296.91
     98.7666	  501.00	  505.90	-1868.65	  296.90
     98.8000	  488.00	  497.07	-1872.82	  296.88
     98.8335	  476.00	  487.77	-1875.52	  296.87
     98.8669	  427.00	  478.52	-1915.27	  296.86
     98.9003	  475.00	  469.70	-1858.45	  296.85
     98.9337	  436.00	  461.59	-1889.34	  296.84
     98.9671	  416.00	  454.29	-1902.04	  296.83
     99.0006	  415.00	  447.82	-1896.57	  296.81
     99.0340	  426.00	  442.15	-1879.90	  296.80
     99.0674	  409.00	  437.21	-1891.96	  296.79
     99.1008	  414.00	  432.90	-1882.65	  296.78
     99.1343	  400.00	  429.15	-1892.90	  296.77
     99.1677	  414.00	  425.89	-1875.64	  296.75
     99.2011	  354.00	  423.03	-1932.78	  296.74
     99.2345	  393.00	  420.53	-1891.28	  296.73
     99.2679	  395.00	  418.33	-1887.08	  296.72
     99.3014	  414.00	  416.39	-1866.14	  296.71
     99.3348	  394.00	  414.66	-1884.41	  296.70
     99.3682	  340.00	  413.13	-1936.88	  296.68
     99.4016	  403.00	  411.76	-1872.51	  296.67
     99.4351	  408.00	  410.53	-1866.28	  296.66
     99.4685	  447.00	  409.43	-1826.18	  296.65
     99.5019	  353.00	  408.43	-1919.18	  296.64
     99.5353	  390.00	  407.52	-1881.27	  296.62
     99.5687	  379.00	  406.70	-1891.45	  296.61
     99.6022	  369.00	  405.95	-1900.70	  296.60
     99.6356	  371.00	  405.26	-1898.01	  296.59
     99.6690	  369.00	  404.63	-1899.38	  296.58
     99.7024	  371.00	  404.05	-1896.80	  296.57
     99.7359	  387.00	  403.52	-1880.27	  296.55
     99.7693	  357.00	  403.03	-1909.78	  296.54
     99.8027	  387.00	  402.57	-1879.32	  296.53
     99.8361	  367.00	  402.14	-1898.89	  296.52
     99.8696	  397.00	  401.75	-1868.50	  296.51
     99.9030	  398.00	  401.38	-1867.13	  296.49
     99.9364	  356.00	  401.04	-1908.79	  296.48
     99.9698	  405.00	  400.72	-1859.47	  296.47
    100.0032	  335.00	  400.42	-1929.17	  296.46
    100.0367	  368.00	  400.14	-1895.89	  296.45
    100.0701	  376.00	  399.87	-1887.62	  296.44
    100.1035	  373.00	  399.62	-1890.37	  296.42
    100.1369	  382.00	  399.39	-1881.14	  296.41
    100.1704	  435.00	  399.17	-1827.92	  296.40
    100.2038	  358.00	  398.96	-1904.71	  296.39
    100.2372	  388.00	  398.76	-1874.51	  296.38
    100.2706	  390.00	  398.58	-1872.32	  296.36
    100.3040	  373.00	  398.40	-1889.15	  296.35
    100.3375	  367.00	  398.23	-1894.98	  296.34
    100.3709	  387.00	  398.07	-1874.82	  296.33
    100.4043	  345.00	  397.92	-1916.67	  296.32
    100.4377	  383.00	  397.77	-1878.52	  296.31
    100.4712	  377.00	  397.63	-1884.38	  296.29
    100.5046	  384.00	  397.50	-1877.25	  296.28
    100.5380	  341.00	  397.37	-1920.12	  296.27
    100.5714	  359.00	  397.25	-1902.00	  296.26
    100.6048	  397.00	  397.14	-1863.89	  296.25
    100.6383	  380.00	  397.03	-1880.78	  296.23
    100.6717	  376.00	  396.92	-1884.67	  296.22
    100.7051	  348.00	  396.82	-1912.57	  296.21
    100.7385	  384.00	  395.04	-1874.79	  296.20
    100.7720	  357.00	  394.99	-1901.74	  296.19
    100.8054	  373.00	  394.94	-1885.69	  296.18
    100.8388	  380.00	  394.90	-1878.65	  296.16
    100.8722	  358.00	  394.85	-1900.60	  296.15
    100.9056	  366.00	  394.81	-1892.56	  296.14
    100.9391	  394.00	  394.77	-1864.52	  296.13
    100.9725	  382.00	  394.73	-1876.48	  296.12
    101.0059	  358.00	  394.70	-1900.45	  296.10
    101.0393	  392.00	  394.66	-1866.41	  296.09
    101.0728	  361.00	  393.78	-1896.53	  296.08
    101.1062	  363.00	  393.77	-1894.52	  296.07
    101.1396	  383.00	  393.76	-1874.51	  296.06
    101.1730	  362.00	  393.75	-1895.50	  296.05
    101.2065	  358.00	  393.73	-1899.48	  296.03
    101.2399	  396.00	  393.72	-1861.47	  296.02
    101.2733	  375.00	  393.71	-1882.46	  296.01
    101.3067	  328.00	  393.70	-1929.45	  296.00
    101.3401	  407.00	  393.69	-1850.44	  295.99
    101.3736	  377.00	  393.67	-1880.42	  295.97
    101.4070	  378.00	  393.66	-1879.41	  295.96
    101.4404	  373.00	  393.65	-1884.40	  295.95
    101.4738	  358.00	  393.64	-1899.39	  295.94
    101.5073	  379.00	  393.63	-1878.38	  295.93
    101.5407	  365.00	  393.62	-1892.37	  295.92
    101.5741	  414.00	  393.60	-1843.35	  295.90
    101.6075	  376.00	  393.59	-1881.34	  295.89
    101.6409	  361.00	  393.58	-1896.33	  295.88
    101.6744	  355.00	  393.57	-1902.32	  295.87
    101.7078	  398.00	  393.56	-1859.31	  295.86
    101.7412	  385.00	  393.54	-1872.29	  295.84
    101.7746	  377.00	  393.53	-1880.28	  295.83
    101.8081	  380.00	  393.52	-1877.27	  295.82
    101.8415	  369.00	  393.51	-1888.26	  295.81
    101.8749	  403.00	  393.50	-1854.25	  295.80
    101.9083	  388.00	  393.50	-1869.25	  295.79
    101.9417	  393.00	  393.50	-1864.25	  295.79
    101.9752	  369.00	  393.50	-1888.25	  295.79
    102.0086	  383.00	  393.50	-1874.25	  295.79
    102.0420	  396.00	  393.50	-1861.25	  295.79
    102.0754	  390.00	  393.50	-1867.25	  295.79
    102.1089	  392.00	  393.50	-1865.25	  295.79
    102.1423	  348.00	  393.50	-1909.25	  295.79
    102.1757	  378.00	  393.50	-1879.25	  295.79
    102.2091	  358.00	  393.50	-1899.25	  295.79
    102.2426	  346.00	  393.50	-1911.25	  295.79
    102.2760	  378.00	  393.50	-1879.25	  295.79
    102.3094	  406.00	  393.50	-1851.25	  295.79
    102.3428	  374.00	  393.50	-1883.25	  295.79
    102.3762	  380.00	  393.50	-1877.25	  295.79
    102.4097	  368.00	  393.50	-1889.25	  295.79
    102.4431	  366.00	  393.50	-1891.25	  295.79
    102.4765	  340.00	  393.50	-1917.25	  295.79
    102.5099	  365.00	  393.50	-1892.25	  295.79
    102.5434	  327.00	  393.50	-1930.25	  295.79
    102.5768	  387.00	  393.50	-1870.25	  295.79
    102.6102	  388.00	  393.50	-1869.25	  295.79
    102.6436	  378.00	  393.50	-1879.25	  295.79
    102.6770	  358.00	  393.50	-1899.25	  295.79
    102.7105	  362.00	  393.50	-1895.25	  295.79
    102.7439	  365.00	  393.50	-1892.25	  295.79
    102.7773	  378.00	  393.50	-1879.25	  295.79
    102.8107	  349.00	  393.50	-1908.25	  295.79
    102.8442	  349.00	  393.50	-1908.25	  295.79
    102.8776	  335.00	  393.50	-1922.25	  295.79
    102.9110	  383.00	  393.50	-1874.25	  295.79
    102.9444	  359.00	  393.50	-1898.25	  295.79
    102.9778	  378.00	  393.50	-1879.25	  295.79
    103.0113	  410.00	  393.50	-1847.25	  295.79
    103.0447	  404.00	  393.50	-1853.25	  295.79
    103.0781	  368.00	  393.50	-1889.25	  295.79
    103.1115	  411.00	  393.50	-1846.25	  295.79
    103.1450	  362.00	  393.50	-1895.25	  295.79
    103.1784	  378.00	  393.50	-1879.25	  295.79
    103.2118	  372.00	  393.50	-1885.25	  295.79
    103.2452	  361.00	  393.50	-1896.25	  295.79
    103.2786	  376.00	  393.50	-1881.25	  295.79
    103.3121	  392.00	  393.50	-1865.25	  295.79
    103.3455	  373.00	  393.50	-1884.25	  295.79
    103.3789	  383.00	  393.50	-1874.25	  295.79
    103.4123	  379.00	  393.50	-1878.25	  295.79
    103.4458	  374.00	  393.50	-1883.25	  295.79
    103.4792	  340.00	  393.50	-1917.25	  295.79
    103.5126	  363.00	  393.50	-1894.25	  295.79
    103.5460	  379.00	  393.50	-1878.25	  295.79
    103.5795	  375.00	  393.50	-1882.25	  295.79
    103.6129	  385.00	  393.50	-1872.25	  295.79
    103.6463	  382.00	  393.50	-1875.25	  295.79
    103.6797	  375.00	  393.50	-1882.25	  295.79
    103.7131	  364.00	  393.50	-1893.25	  295.79
    103.7466	  343.00	  393.50	-1914.25	  295.79
    103.7800	  393.00	  393.50	-1864.25	  295.79
    103.8134	  379.00	  393.50	-1878.25	  295.79
    103.8468	  382.00	  393.50	-1875.25	  295.79
    103.8803	  397.00	  393.50	-1860.25	  295.79
    103.9137	  372.00	  393.50	-1885.25	  295.79
    103.9471	  359.00	  393.50	-1898.25	  295.79
    103.9805	  378.00	  393.50	-1879.25	  295.79
    104.0139	  358.00	  393.50	-1899.25	  295.79
    104.0474	  389.00	  393.50	-1868.25	  295.79
    104.0808	  393.00	  393.50	-1864.25	  295.79
    104.1142	  368.00	  393.50	-1889.25	  295.79
    104.1476	  333.00	  393.50	-1924.25	  295.79
    104.1811	  400.00	  393.50	-1857.25	  295.79
    104.2145	  399.00	  393.50	-1858.25	  295.79
    104.2479	  359.00	  393.50	-1898.25	  295.79
    104.2813	  348.00	  393.50	-1909.25	  295.79
    104.3148	  387.00	  393.50	-1870.25	  295.79
    104.3482	  393.00	  393.50	-1864.25	  295.79
    104.3816	  388.00	  393.50	-1869.25	  295.79
    104.4150	  374.00	  393.50	-1883.25	  295.79
    104.4484	  359.00	  393.50	-1898.25	  295.79
    104.4819	  327.00	  393.50	-1930.25	  295.79
    104.5153	  400.00	  393.50	-1857.25	  295.79
    104.5487	  390.00	  393.50	-1867.25	  295.79
    104.5821	  362.00	  393.50	-1895.25	  295.79
    104.6155	  342.00	  393.50	-1915.25	  295.79
    104.6490	  363.00	  393.50	-1894.25	  295.79
    104.6824	  355.00	  393.50	-1902.25	  295.79
    104.7158	  374.00	  393.50	-1883.25	  295.79
    104.7492	  417.00	  393.50	-1840.25	  295.79
    104.7827	  364.00	  393.50	-1893.25	  295.79
    104.8161	  373.00	  393.50	-1884.25	  295.79
    104.8495	  389.00	  393.50	-1868.25	  295.79
    104.8829	  371.00	  393.50	-1886.25	  295.79
    104.9164	  356.00	  393.50	-1901.25	  295.79
    104.9498	  354.00	  393.50	-1903.25	  295.79
    104.9832	  396.00	  393.50	-1861.25	  295.79
    105.0166	  351.00	  393.50	-1906.25	  295.79
    105.0500	  348.00	  393.50	-1909.25	  295.79
    105.0835	  349.00	  393.50	-1908.25	  295.79
    105.1169	  343.00	  393.50	-1914.25	  295.79
    105.1503	  361.00	  393.50	-1896.25	  295.79
    105.1837	  366.00	  393.50	-1891.25	  295.79
    105.2172	  351.00	  393.50	-1906.25	  295.79
    105.2506	  380.00	  393.50	-1877.25	  295.79
    105.2840	  375.00	  393.50	-1882.25	  295.79
    105.3174	  369.00	  393.50	-1888.25	  295.79
    105.3508	  355.00	  393.50	-1902.25	  295.79
    105.3843	  345.00	  393.50	-1912.25	  295.79
    105.4177	  416.00	  393.50	-1841.25	  295.79
    105.4511	  396.00	  393.50	-1861.25	  295.79
    105.4845	  369.00	  393.50	-1888.25	  295.79
    105.5180	  368.00	  393.50	-1889.25	  295.79
    105.5514	  379.00	  393.50	-1878.25	  295.79
    105.5848	  378.00	  393.50	-1879.25	  295.79
    105.6182	  384.00	  393.50	-1873.25	  295.79
    105.6516	  343.00	  393.50	-1914.25	  295.79
    105.6851	  347.00	  393.50	-1910.25	  295.79
    105.7185	  372.00	  393.50	-1885.25	  295.79
    105.7519	  379.00	  393.50	-1878.25	  295.79
    105.7853	  341.00	  393.50	-1916.25	  295.79
    105.8188	  385.00	  393.50	-1872.25	  295.79
    105.8522	  347.00	  393.50	-1910.25	  295.79
    105.8856	  368.00	  393.50	-1889.25	  295.79
    105.9190	  361.00	  393.50	-1896.25	  295.79
    105.9525	  352.00	  393.50	-1905.25	  295.79
    105.9859	  395.00	  393.50	-1862.25	  295.79
    106.0193	  359.00	  393.50	-1898.25	  295.79
    106.0527	  395.00	  393.50	-1862.25	  295.79
    106.0861	  367.00	  393.50	-1890.25	  295.79
    106.1196	  345.00	  393.50	-1912.25	  295.79
    106.1530	  328.00	  393.50	-1929.25	  295.79
    106.1864	  341.00	  393.50	-1916.25	  295.79
    106.2198	  375.00	  393.50	-1882.25	  295.79
    106.2533	  347.00	  393.50	-1910.25	  295.79
    106.2867	  338.00	  393.50	-1919.25	  295.79
    106.3201	  377.00	  393.50	-1880.25	  295.79
    106.3535	  366.00	  393.50	-1891.25	  295.79
    106.3869	  366.00	  393.50	-1891.25	  295.79
    106.4204	  355.00	  393.50	-1902.25	  295.79
    106.4538	  390.00	  393.50	-1867.25	  295.79
    106.4872	  345.00	  393.50	-1912.25	  295.79
    106.5206	  357.00	  393.50	-1900.25	  295.79
    106.5541	  362.00	  393.50	-1895.25	  295.79
    106.5875	  371.00	  393.50	-1886.25	  295.79
    106.6209	  367.00	  393.50	-1890.25	  295.79
    106.6543	  373.00	  393.50	-1884.25	  295.79
    106.6878	  372.00	  393.50	-1885.25	  295.79
    106.7212	  397.00	  393.50	-1860.25	  295.79
    106.7546	  383.00	  393.50	-1874.25	  295.79
    106.7880	  357.00	  393.50	-1900.25	  295.79
    106.8214	  375.00	  393.50	-1882.25	  295.79
    106.8549	  358.00	  393.50	-1899.25	  295.79
    106.8883	  352.00	  393.50	-1905.25	  295.79
    106.9217	  397.00	  393.50	-1860.25	  295.79
    106.9551	  357.00	  393.50	-1900.25	  295.79
    106.9885	  337.00	  393.50	-1920.25	  295.79
    107.0220	  347.00	  393.50	-1910.25	  295.79
    107.0554	  397.00	  393.50	-1860.25	  295.79
    107.0888	  371.00	  393.50	-1886.25	  295.79
    107.1222	  371.00	  393.50	-1886.25	  295.79
    107.1557	  343.00	  393.50	-1914.25	  295.79
    107.1891	  363.00	  393.50	-1894.25	  295.79
    107.2225	  390.00	  393.50	-1867.25	  295.79
    107.2559	  379.00	  393.50	-1878.25	  295.79
    107.2894	  343.00	  393.50	-1914.25	  295.79
    107.3228	  310.00	  393.50	-1947.25	  295.79
    107.3562	  366.00	  393.50	-1891.25	  295.79
    107.3896	  355.00	  393.50	-1902.25	  295.79
    107.4230	  363.00	  393.50	-1894.25	  295.79
    107.4565	  352.00	  393.50	-1905.25	  295.79
    107.4899	  349.00	  393.50	-1908.25	  295.79
    107.5233	  334.00	  393.50	-1923.25	  295.79
    107.5567	  365.00	  393.50	-1892.25	  295.79
    107.5902	  384.00	  393.50	-1873.25	  295.79
    107.6236	  375.00	  393.50	-1882.25	  295.79
    107.6570	  321.00	  393.50	-1936.25	  295.79
    107.6904	  373.00	  393.50	-1884.25	  295.79
    107.7238	  338.00	  393.50	-1919.25	  295.79
    107.7573	  343.00	  393.50	-1914.25	  295.79
    107.7907	  365.00	  393.50	-1892.25	  295.79
    107.8241	  343.00	  393.50	-1914.25	  295.79
    107.8575	  337.00	  393.50	-1920.25	  295.79
    107.8910	  345.00	  393.50	-1912.25	  295.79
    107.9244	  353.00	  393.50	-1904.25	  295.79
    107.9578	  363.00	  393.50	-1894.25	  295.79
    107.9912	  325.00	  393.50	-1932.25	  295.79
    108.0247	  344.00	  393.50	-1913.25	  295.79
    108.0581	  365.00	  393.50	-1892.25	  295.79
    108.0915	  354.00	  393.50	-1903.25	  295.79
    108.1249	  338.00	  393.50	-1919.25	  295.79
    108.1583	  362.00	  393.50	-1895.25	  295.79
    108.1918	  358.00	  393.50	-1899.25	  295.79
    108.2252	  333.00	  393.50	-1924.25	  295.79
    108.2586	  356.00	  393.50	-1901.25	  295.79
    108.2920	  349.00	  393.50	-1908.25	  295.79
    108.3255	  374.00	  393.50	-1883.25	  295.79
    108.3589	  365.00	  393.50	-1892.25	  295.79
    108.3923	  380.00	  393.50	-1877.25	  295.79
    108.4257	  378.00	  393.50	-1879.25	  295.79
    108.4591	  361.00	  393.50	-1896.25	  295.79
    108.4926	  383.00	  393.50	-1874.25	  295.79
    108.5260	  373.00	  393.50	-1884.25	  295.79
    108.5594	  376.00	  393.50	-1881.25	  295.79
    108.5928	  379.00	  393.50	-1878.25	  295.79
    108.6263	  368.00	  393.50	-1889.25	  295.79
    108.6597	  352.00	  393.50	-1905.25	  295.79
    108.6931	  395.00	  393.50	-1862.25	  295.79
    108.7265	  372.00	  393.50	-1885.25	  295.79
    108.7599	  376.00	  393.50	-1881.25	  295.79
    108.7934	  377.00	  393.50	-1880.25	  295.79
    108.8268	  363.00	  393.50	-1894.25	  295.79
    108.8602	  369.00	  393.50	-1888.25	  295.79
    108.8936	  390.00	  393.50	-1867.25	  295.79
    108.9271	  347.00	  393.50	-1910.25	  295.79
    108.9605	  362.00	  393.50	-1895.25	  295.79
    108.9939	  389.00	  393.50	-1868.25	  295.79
    109.0273	  363.00	  393.50	-1894.25	  295.79
    109.0607	  379.00	  393.50	-1878.25	  295.79
    109.0942	  338.00	  393.50	-1919.25	  295.79
    109.1276	  367.00	  393.50	-1890.25	  295.79
    109.1610	  353.00	  393.50	-1904.25	  295.79
    109.1944	  380.00	  393.50	-1877.25	  295.79
    109.2279	  344.00	  393.50	-1913.25	  295.79
    109.2613	  325.00	  393.50	-1932.25	  295.79
    109.2947	  394.00	  393.50	-1863.25	  295.79
    109.3281	  375.00	  393.50	-1882.25	  295.79
    109.3615	  364.00	  393.50	-1893.25	  295.79
    109.3950	  308.00	  393.49	-1949.24	  295.79
    109.4284	  430.00	  393.47	-1827.22	  295.77
    109.4618	  379.00	  393.46	-1878.20	  295.75
    109.4952	  358.00	  393.44	-1899.19	  295.74
    109.5287	  337.00	  393.42	-1920.17	  295.72
    109.5621	  332.00	  393.41	-1925.16	  295.71
    109.5955	  392.00	  393.39	-1865.14	  295.69
    109.6289	  336.00	  393.38	-1921.13	  295.68
    109.6624	  354.00	  393.36	-1903.11	  295.66
    109.6958	  322.00	  393.34	-1935.09	  295.64
    109.7292	  409.00	  393.33	-1848.08	  295.63
    109.7626	  361.00	  393.31	-1896.06	  295.61
    109.7960	  354.00	  393.30	-1903.05	  295.60
    109.8295	  379.00	  393.28	-1878.03	  295.58
    109.8629	  357.00	  393.26	-1900.01	  295.56
    109.8963	  375.00	  393.25	-1882.00	  295.55
    109.9297	  342.00	  393.23	-1914.98	  295.53
    109.9632	  393.00	  393.22	-1863.97	  295.52
    109.9966	  402.00	  393.20	-1854.95	  295.50
    110.0300	  346.00	  393.18	-1910.93	  295.48
    110.0634	  375.00	  393.17	-1881.92	  295.47
    110.0968	  335.00	  393.15	-1921.90	  295.45
    110.1303	  392.00	  393.14	-1864.89	  295.44
    110.1637	  344.00	  393.12	-1912.87	  295.42
    110.1971	  368.00	  393.10	-1888.85	  295.40
    110.2305	  316.00	  393.09	-1940.84	  295.39
    110.2640	  345.00	  393.07	-1911.82	  295.37
    110.2974	  330.00	  393.06	-1926.81	  295.36
    110.3308	  355.00	  393.04	-1901.79	  295.34
    110.3642	  361.00	  393.02	-1895.77	  295.32
    110.3977	  359.00	  393.01	-1897.76	  295.31
    110.4311	  349.00	  392.99	-1907.74	  295.29
    110.4645	  367.00	  392.98	-1889.73	  295.28
    110.4979	  354.00	  392.96	-1902.71	  295.26
    110.5313	  336.00	  392.94	-1920.69	  295.24
    110.5648	  358.00	  392.93	-1898.68	  295.23
    110.5982	  354.00	  392.91	-1902.66	  295.21
    110.6316	  351.00	  392.90	-1905.65	  295.20
    110.6650	  351.00	  392.88	-1905.63	  295.18
    110.6985	  383.00	  392.87	-1873.61	  295.16
    110.7319	  363.00	  392.85	-1893.60	  295.15
    110.7653	  366.00	  392.83	-1890.58	  295.13
    110.7987	  354.00	  392.82	-1902.57	  295.12
    110.8321	  363.00	  392.80	-1893.55	  295.10
    110.8656	  380.00	  392.79	-1876.54	  295.08
    110.8990	  372.00	  392.77	-1884.52	  295.07
    110.9324	  364.00	  392.75	-1892.50	  295.05
    110.9658	  376.00	  392.74	-1880.49	  295.04
    110.9993	  375.00	  392.72	-1881.47	  295.02
    111.0327	  403.00	  392.71	-1853.46	  295.01
    111.0661	  364.00	  392.69	-1892.44	  294.99
    111.0995	  365.00	  392.67	-1891.42	  294.97
    111.1329	  364.00	  392.66	-1892.41	  294.96
    111.1664	  396.00	  392.64	-1860.39	  294.94
    111.1998	  392.00	  392.63	-1864.38	  294.93
    111.2332	  364.00	  392.61	-1892.36	  294.91
    111.2666	  338.00	  392.59	-1918.34	  294.89
    111.3001	  344.00	  392.58	-1912.33	  294.88
    111.3335	  334.00	  392.56	-1922.31	  294.86
    111.3669	  389.00	  392.55	-1867.30	  294.85
    111.4003	  368.00	  392.53	-1888.28	  294.83
    111.4337	  356.00	  392.51	-1900.26	  294.81
    111.4672	  380.00	  392.50	-1876.25	  294.80
    111.5006	  344.00	  392.48	-1912.23	  294.78
    111.5340	  372.00	  392.47	-1884.22	  294.77
    111.5674	  336.00	  392.45	-1920.20	  294.75
    111.6009	  349.00	  392.43	-1907.18	  294.73
    111.6343	  373.00	  392.42	-1883.17	  294.72
    111.6677	  357.00	  392.40	-1899.15	  294.70
    111.7011	  365.00	  392.39	-1891.14	  294.69
    111.7346	  361.00	  392.37	-1895.12	  294.67
    111.7680	  327.00	  392.35	-1929.10	  294.65
    111.8014	  363.00	  392.34	-1893.09	  294.64
    111.8348	  331.00	  392.32	-1925.07	  294.62
    111.8682	  367.00	  392.31	-1889.06	  294.61
    111.9017	  355.00	  392.29	-1901.04	  294.59
    111.9351	  340.00	  392.27	-1916.02	  294.57
    111.9685	  371.00	  392.26	-1885.01	  294.56
    112.0019	  374.00	  392.24	-1881.99	  294.54
    112.0354	  347.00	  392.23	-1908.98	  294.53
    112.0688	  363.00	  392.21	-1892.96	  294.51
    112.1022	  361.00	  392.20	-1894.94	  294.49
    112.1356	  376.00	  392.18	-1879.93	  294.48
    112.1690	  395.00	  392.16	-1860.91	  294.46
    112.2025	  349.00	  392.15	-1906.90	  294.45
    112.2359	  369.00	  392.13	-1886.88	  294.43
    112.2693	  358.00	  392.12	-1897.87	  294.41
    112.3027	  351.00	  392.10	-1904.85	  294.40
    112.3362	  338.00	  392.08	-1917.83	  294.38
    112.3696	  359.00	  392.07	-1896.82	  294.37
    112.4030	  354.00	  392.05	-1901.80	  294.35
    112.4364	  371.00	  392.04	-1884.79	  294.34
    112.4698	  372.00	  392.02	-1883.77	  294.32
    112.5033	  364.00	  392.00	-1891.75	  294.30
    112.5367	  348.00	  391.99	-1907.74	  294.29
    112.5701	  396.00	  391.97	-1859.72	  294.27
    112.6035	  362.00	  391.96	-1893.71	  294.26
    112.6370	  362.00	  391.94	-1893.69	  294.24
    112.6704	  388.00	  391.92	-1867.67	  294.22
    112.7038	  349.00	  391.91	-1906.66	  294.21
    112.7372	  388.00	  391.89	-1867.64	  294.19
    112.7707	  358.00	  391.88	-1897.63	  294.18
    112.8041	  373.00	  391.86	-1882.61	  294.16
    112.8375	  371.00	  391.84	-1884.59	  294.14
    112.8709	  372.00	  391.83	-1883.58	  294.13
    112.9043	  395.00	  391.81	-1860.56	  294.11
    112.9378	  373.00	  391.80	-1882.55	  294.10
    112.9712	  330.00	  391.78	-1925.53	  294.08
    113.0046	  341.00	  391.76	-1914.51	  294.06
    113.0380	  367.00	  391.75	-1888.50	  294.05
    113.0714	  402.00	  391.73	-1853.48	  294.03
    113.1049	  361.00	  391.72	-1894.47	  294.02
    113.1383	  362.00	  391.70	-1893.45	  294.00
    113.1717	  361.00	  391.68	-1894.43	  293.98
    113.2051	  356.00	  391.67	-1899.42	  293.97
    113.2386	  358.00	  391.65	-1897.40	  293.95
    113.2720	  356.00	  391.64	-1899.39	  293.94
    113.3054	  378.00	  391.62	-1877.37	  293.92
    113.3388	  359.00	  391.60	-1896.35	  293.90
    113.3723	  361.00	  391.59	-1894.34	  293.89
    113.4057	  342.00	  391.57	-1913.32	  293.87
    113.4391	  389.00	  391.56	-1866.31	  293.86
    113.4725	  395.00	  391.54	-1860.29	  293.84
    113.5059	  373.00	  391.53	-1882.27	  293.82
    113.5394	  371.00	  391.51	-1884.26	  293.81
    113.5728	  356.00	  391.49	-1899.24	  293.79
    113.6062	  362.00	  391.48	-1893.23	  293.78
    113.6396	  362.00	  391.46	-1893.21	  293.76
    113.6731	  359.00	  391.45	-1896.20	  293.75
    113.7065	  394.00	  391.43	-1861.18	  293.73
    113.7399	  368.00	  391.41	-1887.16	  293.71
    113.7733	  377.00	  391.40	-1878.15	  293.70
    113.8067	  385.00	  391.38	-1870.13	  293.68
    113.8402	  332.00	  391.37	-1923.12	  293.67
    113.8736	  362.00	  391.35	-1893.10	  293.65
    113.9070	  379.00	  391.33	-1876.08	  293.63
    113.9404	  367.00	  391.32	-1888.07	  293.62
    113.9739	  384.00	  391.30	-1871.05	  293.60
    114.0073	  380.00	  391.29	-1875.04	  293.59
    114.0407	  380.00	  391.27	-1875.02	  293.57
    114.0741	  383.00	  391.25	-1872.00	  293.55
    114.1076	  371.00	  391.24	-1883.99	  293.54
    114.1410	  351.00	  391.22	-1903.97	  293.52
    114.1744	  303.00	  391.21	-1951.96	  293.51
    114.2078	  375.00	  391.19	-1879.94	  293.49
    114.2412	  338.00	  391.17	-1916.92	  293.47
    114.2747	  323.00	  391.16	-1931.91	  293.46
    114.3081	  341.00	  391.14	-1913.89	  293.44
    114.3415	  396.00	  391.13	-1858.88	  293.43
    114.3749	  368.00	  391.11	-1886.86	  293.41
    114.4084	  356.00	  391.09	-1898.84	  293.39
    114.4418	  362.00	  391.08	-1892.83	  293.38
    114.4752	  387.00	  391.06	-1867.81	  293.36
    114.5086	  358.00	  391.05	-1896.80	  293.35
    114.5420	  405.00	  391.03	-1849.78	  293.33
    114.5755	  375.00	  391.01	-1879.76	  293.31
    114.6089	  352.00	  391.00	-1902.75	  293.30
    114.6423	  371.00	  390.98	-1883.73	  293.28
    114.6757	  372.00	  390.97	-1882.72	  293.27
    114.7092	  356.00	  390.95	-1898.70	  293.25
    114.7426	  346.00	  390.94	-1908.68	  293.23
    114.7760	  359.00	  390.92	-1895.67	  293.22
    114.8094	  362.00	  390.90	-1892.65	  293.20
    114.8428	  351.00	  390.89	-1903.64	  293.19
    114.8763	  349.00	  390.87	-1905.62	  293.17
    114.9097	  348.00	  390.86	-1906.60	  293.15
    114.9431	  376.00	  390.84	-1878.59	  293.14
    114.9765	  379.00	  390.82	-1875.57	  293.12
    115.0100	  365.00	  390.81	-1889.56	  293.11
    115.0434	  374.00	  390.80	-1880.55	  293.10
    115.0768	  357.00	  390.83	-1897.58	  293.13
    115.1102	  345.00	  390.85	-1909.60	  293.15
    115.1437	  322.00	  390.88	-1932.63	  293.18
    115.1771	  357.00	  390.91	-1897.66	  293.21
    115.2105	  382.00	  390.93	-1872.68	  293.23
    115.2439	  346.00	  390.96	-1908.71	  293.26
    115.2773	  352.00	  390.99	-1902.74	  293.29
    115.3108	  332.00	  391.01	-1922.76	  293.31
    115.3442	  369.00	  391.04	-1885.79	  293.34
    115.3776	  330.00	  391.07	-1924.82	  293.37
    115.4110	  373.00	  391.09	-1881.84	  293.39
    115.4445	  372.00	  391.12	-1882.87	  293.42
    115.4779	  392.00	  391.15	-1862.90	  293.45
    115.5113	  353.00	  391.17	-1901.92	  293.47
    115.5447	  342.00	  391.20	-1912.95	  293.50
    115.5781	  379.00	  391.23	-1875.98	  293.53
    115.6116	  365.00	  391.25	-1890.00	  293.55
    115.6450	  341.00	  391.28	-1914.03	  293.58
    115.6784	  332.00	  391.31	-1923.06	  293.61
    115.7118	  349.00	  391.33	-1906.08	  293.63
    115.7453	  395.00	  391.36	-1860.11	  293.66
    115.7787	  352.00	  391.39	-1903.14	  293.69
    115.8121	  345.00	  391.41	-1910.16	  293.71
    115.8455	  393.00	  391.44	-1862.19	  293.74
    115.8789	  362.00	  391.47	-1893.22	  293.77
    115.9124	  363.00	  391.49	-1892.24	  293.79
    115.9458	  357.00	  391.52	-1898.27	  293.82
    115.9792	  379.00	  391.55	-1876.30	  293.85
    116.0126	  399.00	  391.57	-1856.32	  293.87
    116.0461	  358.00	  391.60	-1897.35	  293.90
    116.0795	  353.00	  391.63	-1902.38	  293.93
    116.1129	  352.00	  391.65	-1903.40	  293.95
    116.1463	  327.00	  391.68	-1928.43	  293.98
    116.1797	  371.00	  391.71	-1884.46	  294.01
    116.2132	  375.00	  391.73	-1880.48	  294.03
    116.2466	  396.00	  391.76	-1859.51	  294.06
    116.2800	  389.00	  391.79	-1866.54	  294.08
    116.3134	  362.00	  391.81	-1893.56	  294.11
    116.3469	  366.00	  391.84	-1889.59	  294.14
    116.3803	  361.00	  391.87	-1894.61	  294.16
    116.4137	  385.00	  391.89	-1870.64	  294.19
    116.4471	  358.00	  391.92	-1897.67	  294.22
    116.4806	  336.00	  391.94	-1919.69	  294.24
    116.5140	  320.00	  391.97	-1935.72	  294.27
    116.5474	  418.00	  392.00	-1837.75	  294.30
    116.5808	  332.00	  392.02	-1923.77	  294.32
    116.6142	  371.00	  392.05	-1884.80	  294.35
    116.6477	  340.00	  392.08	-1915.83	  294.38
    116.6811	  369.00	  392.10	-1886.85	  294.40
    116.7145	  331.00	  392.13	-1924.88	  294.43
    116.7479	  368.00	  392.16	-1887.91	  294.46
    116.7814	  368.00	  392.18	-1887.93	  294.48
    116.8148	  378.00	  392.21	-1877.96	  294.51
    116.8482	  393.00	  392.24	-1862.99	  294.54
    116.8816	  356.00	  392.26	-1900.01	  294.56
    116.9150	  353.00	  392.29	-1903.04	  294.59
    116.9485	  377.00	  392.32	-1879.07	  294.62
    116.9819	  355.00	  392.34	-1901.09	  294.64
    117.0153	  387.00	  392.37	-1869.12	  294.67
    117.0487	  388.00	  392.40	-1868.15	  294.70
    117.0822	  376.00	  392.42	-1880.17	  294.72
    117.1156	  341.00	  392.45	-1915.20	  294.75
    117.1490	  421.00	  392.48	-1835.23	  294.78
    117.1824	  346.00	  392.50	-1910.25	  294.80
    117.2159	  372.00	  392.53	-1884.28	  294.83
    117.2493	  372.00	  392.56	-1884.31	  294.86
    117.2827	  366.00	  392.58	-1890.33	  294.88
    117.3161	  380.00	  392.61	-1876.36	  294.91
    117.3495	  333.00	  392.64	-1923.39	  294.94
    117.3830	  366.00	  392.66	-1890.41	  294.96
    117.4164	  356.00	  392.69	-1900.44	  294.99
    117.4498	  371.00	  392.72	-1885.47	  295.02
    117.4832	  327.00	  392.74	-1929.49	  295.04
    117.5166	  355.00	  392.77	-1901.52	  295.07
    117.5501	  347.00	  392.80	-1909.55	  295.10
    117.5835	  338.00	  392.82	-1918.57	  295.12
    117.6169	  347.00	  392.85	-1909.60	  295.15
    117.6503	  368.00	  392.88	-1888.62	  295.17
    117.6838	  394.00	  392.90	-1862.65	  295.20
    117.7172	  368.00	  392.93	-1888.68	  295.23
    117.7506	  398.00	  392.95	-1858.70	  295.25
    117.7840	  358.00	  392.98	-1898.73	  295.28
    117.8175	  347.00	  393.01	-1909.76	  295.31
    117.8509	  369.00	  393.03	-1887.78	  295.33
    117.8843	  345.00	  393.06	-1911.81	  295.36
    117.9177	  362.00	  393.09	-1894.84	  295.39
    117.9511	  383.00	  393.11	-1873.86	  295.41
    117.9846	  364.00	  393.14	-1892.89	  295.44
    118.0180	  344.00	  393.17	-1912.92	  295.47
    118.0514	  327.00	  393.19	-1929.94	  295.49
    118.0848	  333.00	  393.22	-1923.97	  295.52
    118.1183	  374.00	  393.25	-1883.00	  295.55
    118.1517	  361.00	  393.27	-1896.02	  295.57
    118.1851	  378.00	  393.30	-1879.05	  295.60
    118.2185	  371.00	  393.33	-1886.08	  295.63
    118.2519	  386.00	  393.35	-1871.10	  295.65
    118.2854	  335.00	  393.38	-1922.13	  295.68
    118.3188	  387.00	  393.41	-1870.16	  295.71
    118.3522	  377.00	  393.43	-1880.18	  295.73
    118.3856	  372.00	  393.46	-1885.21	  295.76
    118.4191	  377.00	  393.49	-1880.24	  295.79
    118.4525	  392.00	  393.51	-1865.26	  295.81
    118.4859	  363.00	  393.54	-1894.29	  295.84
    118.5193	  376.00	  393.57	-1881.32	  295.87
    118.5527	  362.00	  393.59	-1895.34	  295.89
    118.5862	  361.00	  393.62	-1896.37	  295.92
    118.6196	  359.00	  393.65	-1898.40	  295.95
    118.6530	  355.00	  393.67	-1902.42	  295.97
    118.6864	  358.00	  393.70	-1899.45	  296.00
    118.7199	  394.00	  393.73	-1863.48	  296.03
    118.7533	  364.00	  393.75	-1893.50	  296.05
    118.7867	  379.00	  393.78	-1878.53	  296.08
    118.8201	  332.00	  393.81	-1925.56	  296.11
    118.8536	  361.00	  393.83	-1896.58	  296.13
    118.8870	  379.00	  393.86	-1878.61	  296.16
    118.9204	  346.00	  393.89	-1911.64	  296.18
    118.9538	  354.00	  394.88	-1904.63	  296.21
    118.9872	  361.00	  394.93	-1897.68	  296.24
    119.0207	  354.00	  394.98	-1904.73	  296.26
    119.0541	  357.00	  395.03	-1901.78	  296.29
    119.0875	  374.00	  395.08	-1884.83	  296.32
    119.1209	  375.00	  395.13	-1883.88	  296.34
    119.1544	  356.00	  395.18	-1902.93	  296.37
    119.1878	  356.00	  395.24	-1902.99	  296.40
    119.2212	  354.00	  395.29	-1905.04	  296.42
    119.2546	  355.00	  395.35	-1904.10	  296.45
    119.2880	  340.00	  395.40	-1919.15	  296.48
    119.3215	  369.00	  395.46	-1890.21	  296.50
    119.3549	  373.00	  395.52	-1886.27	  296.53
    119.3883	  335.00	  395.58	-1924.33	  296.56
    119.4217	  392.00	  396.12	-1867.87	  296.58
    119.4552	  364.00	  396.20	-1895.94	  296.61
    119.4886	  303.00	  396.27	-1957.02	  296.64
    119.5220	  365.00	  396.35	-1895.10	  296.66
    119.5554	  420.00	  396.43	-1840.18	  296.69
    119.5888	  372.00	  396.51	-1888.26	  296.72
    119.6223	  347.00	  396.59	-1913.34	  296.74
    119.6557	  362.00	  396.68	-1898.43	  296.77
    119.6891	  375.00	  396.77	-1885.52	  296.80
    119.7225	  372.00	  396.86	-1888.61	  296.82
    119.7560	  341.00	  396.96	-1919.71	  296.85
    119.7894	  373.00	  397.05	-1887.80	  296.88
    119.8228	  393.00	  397.15	-1867.90	  296.90
    119.8562	  358.00	  397.26	-1903.01	  296.93
    119.8896	  337.00	  397.37	-1924.11	  296.96
    119.9231	  393.00	  397.48	-1868.23	  296.98
    119.9565	  380.00	  397.59	-1881.34	  297.01
    119.9899	  349.00	  397.71	-1912.46	  297.04
    120.0233	  367.00	  397.84	-1894.59	  297.06
    120.0568	  378.00	  397.96	-1883.71	  297.09
    120.0902	  364.00	  398.10	-1897.85	  297.12
    120.1236	  340.00	  398.24	-1921.99	  297.14
    120.1570	  349.00	  398.38	-1913.13	  297.17
    120.1905	  388.00	  398.54	-1874.29	  297.20
    120.2239	  328.00	  398.69	-1934.44	  297.22
    120.2573	  334.00	  398.86	-1928.61	  297.25
    120.2907	  358.00	  399.03	-1904.78	  297.27
    120.3241	  357.00	  399.22	-1905.97	  297.30
    120.3576	  346.00	  399.41	-1917.16	  297.33
    120.3910	  374.00	  399.61	-1889.36	  297.35
    120.4244	  368.00	  399.82	-1895.57	  297.38
    120.4578	  383.00	  400.04	-1880.79	  297.41
    120.4913	  388.00	  400.28	-1876.03	  297.43
    120.5247	  368.00	  400.52	-1896.27	  297.46
    120.5581	  384.00	  400.79	-1880.54	  297.49
    120.5915	  369.00	  401.06	-1895.81	  297.51
    120.6249	  394.00	  401.36	-1871.11	  297.54
    120.6584	  317.00	  401.67	-1948.42	  297.57
    120.6918	  368.00	  402.01	-1897.76	  297.59
    120.7252	  390.00	  402.36	-1876.11	  297.62
    120.7586	  379.00	  402.74	-1887.49	  297.65
    120.7921	  389.00	  403.15	-1877.90	  297.67
    120.8255	  399.00	  403.59	-1868.34	  297.70
    120.8589	  384.00	  404.05	-1883.80	  297.73
    120.8923	  379.00	  404.56	-1889.31	  297.75
    120.9258	  361.00	  405.10	-1907.85	  297.78
    120.9592	  368.00	  405.69	-1901.44	  297.81
    120.9926	  359.00	  406.33	-1911.08	  297.83
    121.0260	  389.00	  407.02	-1881.77	  297.86
    121.0594	  377.00	  407.77	-1894.52	  297.89
    121.0929	  345.00	  408.58	-1927.33	  297.91
    121.1263	  366.00	  409.47	-1907.22	  297.94
    121.1597	  392.00	  410.44	-1882.19	  297.97
    121.1931	  407.00	  411.51	-1868.26	  297.99
    121.2266	  421.00	  412.67	-1855.42	  298.02
    121.2600	  426.00	  413.95	-1851.70	  298.05
    121.2934	  394.00	  415.35	-1885.10	  298.07
    121.3268	  420.00	  416.88	-1860.63	  298.10
    121.3602	  389.00	  418.57	-1893.32	  298.13
    121.3937	  420.00	  420.42	-1864.17	  298.15
    121.4271	  396.00	  422.45	-1890.20	  298.18
    121.4605	  420.00	  424.66	-1868.41	  298.21
    121.4939	  407.00	  427.07	-1883.82	  298.23
    121.5274	  371.00	  429.68	-1922.43	  298.26
    121.5608	  379.00	  432.48	-1917.23	  298.29
    121.5942	  398.00	  435.46	-1901.21	  298.31
    121.6276	  409.00	  438.58	-1893.33	  298.34
    121.6610	  393.00	  441.80	-1912.55	  298.36
    121.6945	  404.00	  445.03	-1904.78	  298.39
    121.7279	  433.00	  448.20	-1878.95	  298.42
    121.7613	  428.00	  451.17	-1886.92	  298.44
    121.7947	  406.00	  453.83	-1911.58	  298.47
    121.8282	  414.00	  456.06	-1905.81	  298.51
    121.8616	  420.00	  457.80	-1901.55	  298.60
    121.8950	  430.00	  458.94	-1892.69	  298.69
    121.9284	  441.00	  459.46	-1882.21	  298.79
    121.9618	  424.00	  459.40	-1899.15	  298.88
    121.9953	  425.00	  458.84	-1897.59	  298.98
    122.0287	  451.00	  457.90	-1870.65	  299.07
    122.0621	  424.00	  456.71	-1896.46	  299.17
    122.0955	  419.00	  455.40	-1900.15	  299.26
    122.1290	  396.00	  454.05	-1921.80	  299.36
    122.1624	  398.00	  452.75	-1918.50	  299.45
    122.1958	  409.00	  451.52	-1906.27	  299.54
    122.2292	  471.00	  450.36	-1843.11	  299.64
    122.2626	  417.00	  449.26	-1896.01	  299.73
    122.2961	  365.00	  448.15	-1946.90	  299.83
    122.3295	  408.00	  447.00	-1902.75	  299.92
    122.3629	  421.00	  445.73	-1888.48	  300.02
    122.3963	  447.00	  444.30	-1861.05	  300.11
    122.4298	  404.00	  442.68	-1902.43	  300.21
    122.4632	  454.00	  440.88	-1850.62	  300.30
    122.4966	  394.00	  438.91	-1908.66	  300.40
    122.5300	  435.00	  436.82	-1865.57	  300.49
    122.5635	  379.00	  434.65	-1919.40	  300.58
    122.5969	  418.00	  432.47	-1878.22	  300.68
    122.6303	  382.00	  430.32	-1912.07	  300.77
    122.6637	  377.00	  428.23	-1914.98	  300.87
    122.6971	  428.00	  426.25	-1862.00	  300.96
    122.7306	  417.00	  424.38	-1871.13	  301.06
    122.7640	  394.00	  422.64	-1892.39	  301.15
    122.7974	  400.00	  421.03	-1884.78	  301.25
    122.8308	  405.00	  419.56	-1878.31	  301.34
    122.8643	  382.00	  418.21	-1899.96	  301.44
    122.8977	  424.00	  416.98	-1856.73	  301.53
    122.9311	  362.00	  415.87	-1917.62	  301.62
    122.9645	  405.00	  414.86	-1873.61	  301.72
    122.9979	  397.00	  413.94	-1880.69	  301.81
    123.0314	  359.00	  413.11	-1917.86	  301.91
    123.0648	  371.00	  412.36	-1905.11	  302.00
    123.0982	  399.00	  411.69	-1876.43	  302.10
    123.1316	  346.00	  411.07	-1928.82	  302.19
    123.1651	  351.00	  410.52	-1923.26	  302.29
    123.1985	  409.00	  410.01	-1864.76	  302.38
    123.2319	  377.00	  409.56	-1896.31	  302.47
    123.2653	  387.00	  409.14	-1885.89	  302.57
    123.2988	  366.00	  408.77	-1906.52	  302.66
    123.3322	  352.00	  408.43	-1920.18	  302.76
    123.3656	  373.00	  408.13	-1898.88	  302.85
    123.3990	  390.00	  407.85	-1881.60	  302.95
    123.4324	  371.00	  407.60	-1900.35	  303.04
    123.4659	  335.00	  407.37	-1936.12	  303.14
    123.4993	  345.00	  407.17	-1925.92	  303.23
    123.5327	  369.00	  406.98	-1901.73	  303.33
    123.5661	  400.00	  406.82	-1870.56	  303.42
    123.5995	  368.00	  406.66	-1902.41	  303.51
    123.6330	  343.00	  406.53	-1927.28	  303.61
    123.6664	  379.00	  406.41	-1891.16	  303.70
    123.6998	  390.00	  406.30	-1880.05	  303.80
    123.7332	  362.00	  406.21	-1907.96	  303.89
    123.7667	  378.00	  406.12	-1891.87	  303.99
    123.8001	  362.00	  406.05	-1907.80	  304.08
    123.8335	  366.00	  405.98	-1903.73	  304.18
    123.8669	  368.00	  405.93	-1901.68	  304.27
    123.9004	  349.00	  405.88	-1920.63	  304.37
    123.9338	  379.00	  405.84	-1890.59	  304.46
    123.9672	  363.00	  405.80	-1906.55	  304.55
    124.0006	  380.00	  405.78	-1889.53	  304.65
    124.0340	  371.00	  405.76	-1898.51	  304.74
    124.0675	  374.00	  405.74	-1895.49	  304.84
    124.1009	  382.00	  405.73	-1887.48	  304.93
    124.1343	  382.00	  405.73	-1887.48	  305.03
    124.1677	  365.00	  405.73	-1904.48	  305.12
    124.2012	  380.00	  405.73	-1889.48	  305.22
    124.2346	  375.00	  405.74	-1894.49	  305.31
    124.2680	  354.00	  405.75	-1915.50	  305.40
    124.3014	  340.00	  405.77	-1929.52	  305.50
    124.3348	  352.00	  405.79	-1917.54	  305.59
    124.3683	  366.00	  405.81	-1903.56	  305.69
    124.4017	  396.00	  405.83	-1873.58	  305.78
    124.4351	  403.00	  405.86	-1866.61	  305.88
    124.4685	  332.00	  405.89	-1937.64	  305.97
    124.5020	  378.00	  405.93	-1891.68	  306.07
    124.5354	  347.00	  405.96	-1922.71	  306.16
    124.5688	  351.00	  406.00	-1918.75	  306.26
    124.6022	  367.00	  406.04	-1902.79	  306.35
    124.6357	  387.00	  406.09	-1882.84	  306.44
    124.6691	  371.00	  406.13	-1898.88	  306.54
    124.7025	  378.00	  406.18	-1891.93	  306.63
    124.7359	  315.00	  406.23	-1954.98	  306.73
    124.7693	  396.00	  406.28	-1874.03	  306.82
    124.8028	  351.00	  406.33	-1919.08	  306.92
    124.8362	  362.00	  406.38	-1908.13	  307.01
    124.8696	  333.00	  405.50	-1936.25	  307.11
    124.9030	  395.00	  405.57	-1874.32	  307.20
    124.9365	  345.00	  405.65	-1924.40	  307.30
    124.9699	  365.00	  405.73	-1904.48	  307.39
    125.0033	  369.00	  405.81	-1900.56	  307.48
    125.0367	  377.00	  405.89	-1892.64	  307.58
    125.0701	  396.00	  405.97	-1873.72	  307.67
    125.1036	  362.00	  406.05	-1907.80	  307.77
    125.1370	  383.00	  406.13	-1886.88	  307.86
    125.1704	  387.00	  406.21	-1882.96	  307.96
    125.2038	  404.00	  406.29	-1866.04	  308.05
    125.2373	  396.00	  406.37	-1874.12	  308.15
    125.2707	  355.00	  406.46	-1915.21	  308.24
    125.3041	  368.00	  406.54	-1902.29	  308.34
    125.3375	  385.00	  406.62	-1885.37	  308.43
    125.3709	  374.00	  406.71	-1896.46	  308.52
    125.4044	  364.00	  406.32	-1906.07	  308.62
    125.4378	  345.00	  406.41	-1925.16	  308.71
    125.4712	  358.00	  406.51	-1912.26	  308.81
    125.5046	  366.00	  406.60	-1904.35	  308.90
    125.5381	  358.00	  406.70	-1912.45	  309.00
    125.5715	  362.00	  406.79	-1908.54	  309.09
    125.6049	  361.00	  406.89	-1909.64	  309.19
    125.6383	  358.00	  406.98	-1912.73	  309.28
    125.6718	  367.00	  407.00	-1903.75	  309.30
    125.7052	  355.00	  407.00	-1915.75	  309.30
    125.7386	  368.00	  407.00	-1902.75	  309.30
    125.7720	  361.00	  407.00	-1909.75	  309.30
    125.8054	  346.00	  407.00	-1924.75	  309.30
    125.8389	  379.00	  407.00	-1891.75	  309.30
    125.8723	  410.00	  407.00	-1860.75	  309.30
    125.9057	  345.00	  407.00	-1925.75	  309.30
    125.9391	  383.00	  407.00	-1887.75	  309.30
    125.9725	  374.00	  407.00	-1896.75	  309.30
    126.0060	  337.00	  407.00	-1933.75	  309.30
    126.0394	  390.00	  407.00	-1880.75	  309.30
    126.0728	  378.00	  407.00	-1892.75	  309.30
    126.1062	  353.00	  407.00	-1917.75	  309.30
    126.1397	  389.00	  407.00	-1881.75	  309.30
    126.1731	  379.00	  407.00	-1891.75	  309.30
    126.2065	  371.00	  407.00	-1899.75	  309.30
    126.2399	  385.00	  407.00	-1885.75	  309.30
    126.2734	  366.00	  407.00	-1904.75	  309.30
    126.3068	  376.00	  407.00	-1894.75	  309.30
    126.3402	  368.00	  407.00	-1902.75	  309.30
    126.3736	  357.00	  407.00	-1913.75	  309.30
    126.4070	  332.00	  407.00	-1938.75	  309.30
    126.4405	  376.00	  407.00	-1894.75	  309.30
    126.4739	  348.00	  407.00	-1922.75	  309.30
    126.5073	  366.00	  407.00	-1904.75	  309.30
    126.5407	  324.00	  407.00	-1946.75	  309.30
    126.5742	  369.00	  407.00	-1901.75	  309.30
    126.6076	  394.00	  407.00	-1876.75	  309.30
    126.6410	  353.00	  407.00	-1917.75	  309.30
    126.6744	  385.00	  407.00	-1885.75	  309.30
    126.7078	  358.00	  407.00	-1912.75	  309.30
    126.7413	  356.00	  407.00	-1914.75	  309.30
    126.7747	  346.00	  407.00	-1924.75	  309.30
    126.8081	  371.00	  407.00	-1899.75	  309.30
    126.8415	  369.00	  407.00	-1901.75	  309.30
    126.8750	  366.00	  407.00	-1904.75	  309.30
    126.9084	  384.00	  407.00	-1886.75	  309.30
    126.9418	  373.00	  407.00	-1897.75	  309.30
    126.9752	  410.00	  407.00	-1860.75	  309.30
    127.0087	  330.00	  407.00	-1940.75	  309.30
    127.0421	  361.00	  407.00	-1909.75	  309.30
    127.0755	  352.00	  407.00	-1918.75	  309.30
    127.1089	  358.00	  407.00	-1912.75	  309.30
    127.1423	  372.00	  407.00	-1898.75	  309.30
    127.1758	  314.00	  407.00	-1956.75	  309.30
    127.2092	  363.00	  407.00	-1907.75	  309.30
    127.2426	  373.00	  407.00	-1897.75	  309.30
    127.2760	  408.00	  407.00	-1862.75	  309.30
    127.3095	  354.00	  407.00	-1916.75	  309.30
    127.3429	  327.00	  407.00	-1943.75	  309.30
    127.3763	  340.00	  407.00	-1930.75	  309.30
    127.4097	  383.00	  407.00	-1887.75	  309.30
    127.4431	  352.00	  407.00	-1918.75	  309.30
    127.4766	  368.00	  407.00	-1902.75	  309.30
    127.5100	  362.00	  407.00	-1908.75	  309.30
    127.5434	  392.00	  407.00	-1878.75	  309.30
    127.5768	  377.00	  407.00	-1893.75	  309.30
    127.6103	  336.00	  407.00	-1934.75	  309.30
    127.6437	  405.00	  407.00	-1865.75	  309.30
    127.6771	  353.00	  407.00	-1917.75	  309.30
    127.7105	  380.00	  407.00	-1890.75	  309.30
    127.7439	  355.00	  407.00	-1915.75	  309.30
    127.7774	  374.00	  407.00	-1896.75	  309.30
    127.8108	  357.00	  407.00	-1913.75	  309.30
    127.8442	  378.00	  407.00	-1892.75	  309.30
    127.8776	  389.00	  407.00	-1881.75	  309.30
    127.9111	  361.00	  407.00	-1909.75	  309.30
    127.9445	  378.00	  407.00	-1892.75	  309.30
    127.9779	  388.00	  407.00	-1882.75	  309.30
    128.0113	  331.00	  407.00	-1939.75	  309.30
    128.0448	  376.00	  407.00	-1894.75	  309.30
    128.0782	  367.00	  407.00	-1903.75	  309.30
    128.1116	  337.00	  407.00	-1933.75	  309.30
    128.1450	  345.00	  407.00	-1925.75	  309.30
    128.1784	  387.00	  407.00	-1883.75	  309.30
    128.2119	  356.00	  407.00	-1914.75	  309.30
    128.2453	  355.00	  407.00	-1915.75	  309.30
    128.2787	  382.00	  407.00	-1888.75	  309.30
    128.3121	  357.00	  407.00	-1913.75	  309.30
    128.3456	  366.00	  407.00	-1904.75	  309.30
    128.3790	  325.00	  407.00	-1945.75	  309.30
    128.4124	  349.00	  407.00	-1921.75	  309.30
    128.4458	  400.00	  407.00	-1870.75	  309.30
    128.4792	  377.00	  407.00	-1893.75	  309.30
    128.5127	  361.00	  407.00	-1909.75	  309.30
    128.5461	  373.00	  407.00	-1897.75	  309.30
    128.5795	  346.00	  407.00	-1924.75	  309.30
    128.6129	  344.00	  407.00	-1926.75	  309.30
    128.6464	  354.00	  407.00	-1916.75	  309.30
    128.6798	  378.00	  407.00	-1892.75	  309.30
    128.7132	  346.00	  407.00	-1924.75	  309.30
    128.7466	  369.00	  407.00	-1901.75	  309.30
    128.7800	  348.00	  407.00	-1922.75	  309.30
    128.8135	  348.00	  407.00	-1922.75	  309.30
    128.8469	  357.00	  407.00	-1913.75	  309.30
    128.8803	  378.00	  407.00	-1892.75	  309.30
    128.9137	  374.00	  407.00	-1896.75	  309.30
    128.9472	  414.00	  407.00	-1856.75	  309.30
    128.9806	  361.00	  407.00	-1909.75	  309.30
    129.0140	  395.00	  407.00	-1875.75	  309.30
    129.0474	  355.00	  407.00	-1915.75	  309.30
    129.0809	  380.00	  407.00	-1890.75	  309.30
    129.1143	  377.00	  407.00	-1893.75	  309.30
    129.1477	  388.00	  407.00	-1882.75	  309.30
    129.1811	  355.00	  407.00	-1915.75	  309.30
    129.2145	  342.00	  407.00	-1928.75	  309.30
    129.2480	  400.00	  407.00	-1870.75	  309.30
    129.2814	  353.00	  407.00	-1917.75	  309.30
    129.3148	  366.00	  407.00	-1904.75	  309.30
    129.3482	  365.00	  407.00	-1905.75	  309.30
    129.3817	  332.00	  407.00	-1938.75	  309.30
    129.4151	  357.00	  407.00	-1913.75	  309.30
    129.4485	  361.00	  407.00	-1909.75	  309.30
    129.4819	  334.00	  407.00	-1936.75	  309.30
    129.5154	  377.00	  407.00	-1893.75	  309.30
    129.5488	  383.00	  407.00	-1887.75	  309.30
    129.5822	  389.00	  407.00	-1881.75	  309.30
    129.6156	  345.00	  407.00	-1925.75	  309.30
    129.6490	  399.00	  407.00	-1871.75	  309.30
    129.6825	  379.00	  407.00	-1891.75	  309.30
    129.7159	  327.00	  407.00	-1943.75	  309.30
    129.7493	  364.00	  407.00	-1906.75	  309.30
    129.7827	  368.00	  407.00	-1902.75	  309.30
    129.8161	  359.00	  407.00	-1911.75	  309.30
    129.8496	  407.00	  407.00	-1863.75	  309.30
    129.8830	  332.00	  407.00	-1938.75	  309.30
    129.9164	  343.00	  407.00	-1927.75	  309.30
    129.9498	  364.00	  407.00	-1906.75	  309.30
    129.9833	  398.00	  407.85	-1873.60	  309.30
     44.4412	        	        	        	        	       0	(  1  1  1)	  0  1
     44.5566	        	        	        	        	       0	(  1  1  1)	  0  2
     51.7947	        	        	        	        	       0	(  2  0  0)	  0  1
     51.9318	        	        	        	        	       0	(  2  0  0)	  0  2
     76.3279	        	        	        	        	       0	(  2  2  0)	  0  1
     76.5498	        	        	        	        	       0	(  2  2  0)	  0  2
     92.8849	        	        	        	        	       0	(  3  1  1)	  0  1
     93.1821	        	        	        	        	       0	(  3  1  1)	  0  2
     98.3900	        	        	        	        	       0	(  2  2  2)	  0  1
     98.7174	        	        	        	        	       0	(  2  2  2)	  0  2
    121.8902	        	        	        	        	       0	(  4  0  0)	  0  1
    122.4002	        	        	        	        	       0	(  4  0  0)	  0  2
    144.6009	        	        	        	        	       0	(  3  3  1)	  0  1
    145.4960	        	        	        	        	       0	(  3  3  1)	  0  2
    155.6106	        	        	        	        	       0	(  4  2  0)	  0  1
    156.9527	        	        	        	        	       0	(  4  2  0)	  0  2
