 Ni   Chi2:  2.7429  CELL:    3.52450   3.52450   3.52450   90.0000   90.0000   90.0000   SPGR: 225                    TEMP:      0.00
  1   3291     1.54060     1.54439     0.00000    -0.05808     0.00000    0
    16     0     1
       0.00000      35.00000
 2Theta	Yobs	Ycal	Yobs-Ycal	Backg	Posr	(hkl)	K
     20.0231	 1604.00	  563.60	-1792.00	  465.90
     20.0565	 1636.00	  563.60	-1792.00	  465.90
     20.0900	 1551.00	  563.60	-1792.00	  465.90
     20.1234	 1593.00	  563.60	-1792.00	  465.90
     20.1568	 1628.00	  563.60	-1792.00	  465.90
     20.1902	 1653.00	  563.60	-1792.00	  465.90
     20.2236	 1538.00	  563.60	-1792.00	  465.90
     20.2571	 1587.00	  563.60	-1792.00	  465.90
     20.2905	 1518.00	  563.60	-1792.00	  465.90
     20.3239	 1562.00	  563.60	-1792.00	  465.90
     20.3573	 1529.00	  563.60	-1792.00	  465.90
     20.3908	 1552.00	  563.60	-1792.00	  465.90
     20.4242	 1646.00	  563.60	-1792.00	  465.90
     20.4576	 1520.00	  563.60	-1792.00	  465.90
     20.4910	 1513.00	  563.60	-1792.00	  465.90
     20.5245	 1557.00	  563.60	-1792.00	  465.90
     20.5579	 1614.00	  563.60	-1792.00	  465.90
     20.5913	 1541.00	  563.60	-1792.00	  465.90
     20.6247	 1538.00	  563.60	-1792.00	  465.90
     20.6581	 1515.00	  563.60	-1792.00	  465.90
     20.6916	 1549.00	  563.60	-1792.00	  465.90
     20.7250	 1530.00	  563.60	-1792.00	  465.90
     20.7584	 1578.00	  563.60	-1792.00	  465.90
     20.7918	 1546.00	  563.60	-1792.00	  465.90
     20.8253	 1489.00	  563.60	-1792.00	  465.90
     20.8587	 1505.00	  563.60	-1792.00	  465.90
     20.8921	 1489.00	  563.60	-1792.00	  465.90
     20.9255	 1532.00	  563.60	-1792.00	  465.90
     20.9589	 1456.00	  563.60	-1792.00	  465.90
     20.9924	 1436.00	  563.60	-1792.00	  465.90
     21.0258	 1536.00	  563.60	-1792.00	  465.90
     21.0592	 1522.00	  563.60	-1792.00	  465.90
     21.0926	 1419.00	  563.60	-1792.00	  465.90
     21.1261	 1453.00	  563.60	-1792.00	  465.90
     21.1595	 1459.00	  563.60	-1792.00	  465.90
     21.1929	 1461.00	  563.60	-1792.00	  465.90
     21.2263	 1491.00	  563.60	-1792.00	  465.90
     21.2597	 1438.00	  563.60	-1792.00	  465.90
     21.2932	 1412.00	  563.60	-1792.00	  465.90
     21.3266	 1448.00	  563.60	-1792.00	  465.90
     21.3600	 1401.00	  563.60	-1792.00	  465.90
     21.3934	 1439.00	  563.60	-1792.00	  465.90
     21.4269	 1402.00	  563.60	-1792.00	  465.90
     21.4603	 1458.00	  563.60	-1792.00	  465.90
     21.4937	 1378.00	  563.60	-1792.00	  465.90
     21.5271	 1362.00	  563.60	-1792.00	  465.90
     21.5605	 1374.00	  563.60	-1792.00	  465.90
     21.5940	 1413.00	  563.60	-1792.00	  465.90
     21.6274	 1403.00	  563.60	-1792.00	  465.90
     21.6608	 1388.00	  563.60	-1792.00	  465.90
     21.6942	 1363.00	  563.60	-1792.00	  465.90
     21.7277	 1327.00	  563.60	-1792.00	  465.90
     21.7611	 1295.00	  563.60	-1792.00	  465.90
     21.7945	 1368.00	  563.60	-1792.00	  465.90
     21.8279	 1372.00	  563.60	-1792.00	  465.90
     21.8614	 1350.00	  563.60	-1792.00	  465.90
     21.8948	 1376.00	  563.60	-1792.00	  465.90
     21.9282	 1344.00	  563.60	-1792.00	  465.90
     21.9616	 1319.00	  563.60	-1792.00	  465.90
     21.9950	 1311.00	  563.60	-1792.00	  465.90
     22.0285	 1268.00	  563.60	-1792.00	  465.90
     22.0619	 1341.00	  563.60	-1792.00	  465.90
     22.0953	 1293.00	  563.60	-1792.00	  465.90
     22.1287	 1234.00	  563.60	-1792.00	  465.90
     22.1622	 1271.00	  563.60	-1792.00	  465.90
     22.1956	 1251.00	  563.60	-1792.00	  465.90
     22.2290	 1220.00	  563.60	-1792.00	  465.90
     22.2624	 1228.00	  563.60	-1792.00	  465.90
     22.2958	 1165.00	  563.60	-1792.00	  465.90
     22.3293	 1206.00	  563.60	-1792.00	  465.90
     22.3627	 1254.00	  563.60	-1792.00	  465.90
     22.3961	 1261.00	  563.60	-1792.00	  465.90
     22.4295	 1200.00	  563.60	-1792.00	  465.90
     22.4630	 1245.00	  563.60	-1792.00	  465.90
     22.4964	 1251.00	  563.60	-1792.00	  465.90
     22.5298	 1231.00	  563.60	-1792.00	  465.90
     22.5632	 1234.00	  563.60	-1792.00	  465.90
     22.5966	 1171.00	  563.60	-1792.00	  465.90
     22.6301	 1089.00	  563.60	-1792.00	  465.90
     22.6635	 1148.00	  563.60	-1792.00	  465.90
     22.6969	 1188.00	  563.60	-1792.00	  465.90
     22.7303	 1162.00	  563.60	-1792.00	  465.90
     22.7638	 1148.00	  563.60	-1792.00	  465.90
     22.7972	 1156.00	  563.60	-1792.00	  465.90
     22.8306	 1101.00	  563.60	-1792.00	  465.90
     22.8640	 1118.00	  563.60	-1792.00	  465.90
     22.8974	 1117.00	  563.60	-1792.00	  465.90
     22.9309	 1087.00	  563.60	-1792.00	  465.90
     22.9643	 1125.00	  563.60	-1792.00	  465.90
     22.9977	 1072.00	  563.60	-1792.00	  465.90
     23.0311	 1067.00	  563.60	-1792.00	  465.90
     23.0646	 1078.00	  563.60	-1792.00	  465.90
     23.0980	 1137.00	  563.60	-1792.00	  465.90
     23.1314	 1123.00	  563.60	-1792.00	  465.90
     23.1648	 1080.00	  563.60	-1792.00	  465.90
     23.1983	 1086.00	  563.60	-1792.00	  465.90
     23.2317	 1127.00	  563.60	-1792.00	  465.90
     23.2651	 1100.00	  563.60	-1792.00	  465.90
     23.2985	 1054.00	  563.60	-1792.00	  465.90
     23.3319	 1018.00	  563.60	-1792.00	  465.90
     23.3654	 1078.00	  563.60	-1792.00	  465.90
     23.3988	 1021.00	  563.60	-1792.00	  465.90
     23.4322	 1042.00	  563.60	-1792.00	  465.90
     23.4656	 1069.00	  563.60	-1792.00	  465.90
     23.4991	 1011.00	  563.60	-1792.00	  465.90
     23.5325	 1049.00	  563.60	-1792.00	  465.90
     23.5659	  995.00	  563.60	-1792.00	  465.90
     23.5993	 1023.00	  563.60	-1792.00	  465.90
     23.6327	  986.00	  563.60	-1792.00	  465.90
     23.6662	  993.00	  563.60	-1792.00	  465.90
     23.6996	 1046.00	  563.60	-1792.00	  465.90
     23.7330	 1017.00	  563.60	-1792.00	  465.90
     23.7664	  938.00	  563.60	-1792.00	  465.90
     23.7999	  965.00	  563.60	-1792.00	  465.90
     23.8333	  918.00	  563.60	-1792.00	  465.90
     23.8667	 1022.00	  563.60	-1792.00	  465.90
     23.9001	  943.00	  563.60	-1792.00	  465.90
     23.9335	 1008.00	  563.60	-1792.00	  465.90
     23.9670	  911.00	  563.60	-1792.00	  465.90
     24.0004	  929.00	  563.60	-1792.00	  465.90
     24.0338	 1005.00	  563.60	-1792.00	  465.90
     24.0672	  974.00	  563.60	-1792.00	  465.90
     24.1007	  910.00	  563.60	-1792.00	  465.90
     24.1341	  887.00	  563.60	-1792.00	  465.90
     24.1675	  948.00	  563.60	-1792.00	  465.90
     24.2009	  871.00	  563.60	-1792.00	  465.90
     24.2344	  892.00	  563.60	-1792.00	  465.90
     24.2678	  872.00	  563.60	-1792.00	  465.90
     24.3012	  953.00	  563.60	-1792.00	  465.90
     24.3346	  910.00	  563.60	-1792.00	  465.90
     24.3680	  880.00	  563.60	-1792.00	  465.90
     24.4015	  869.00	  563.60	-1792.00	  465.90
     24.4349	  876.00	  563.60	-1792.00	  465.90
     24.4683	  851.00	  563.60	-1792.00	  465.90
     24.5017	  852.00	  563.60	-1792.00	  465.90
     24.5352	  874.00	  563.60	-1792.00	  465.90
     24.5686	  892.00	  563.60	-1792.00	  465.90
     24.6020	  825.00	  563.60	-1792.00	  465.90
     24.6354	  956.00	  563.60	-1792.00	  465.90
     24.6688	  900.00	  563.60	-1792.00	  465.90
     24.7023	  850.00	  563.60	-1792.00	  465.90
     24.7357	  837.00	  563.60	-1792.00	  465.90
     24.7691	  882.00	  563.60	-1792.00	  465.90
     24.8025	  820.00	  563.60	-1792.00	  465.90
     24.8360	  794.00	  563.60	-1792.00	  465.90
     24.8694	  833.00	  563.60	-1792.00	  465.90
     24.9028	  827.00	  563.60	-1792.00	  465.90
     24.9362	  867.00	  563.60	-1792.00	  465.90
     24.9696	  876.00	  563.60	-1792.00	  465.90
     25.0031	  816.00	  563.60	-1792.00	  465.90
     25.0365	  808.00	  563.60	-1792.00	  465.90
     25.0699	  748.00	  563.60	-1792.00	  465.90
     25.1033	  831.00	  563.60	-1792.00	  465.90
     25.1368	  816.00	  563.60	-1792.00	  465.90
     25.1702	  847.00	  563.60	-1792.00	  465.90
     25.2036	  789.00	  563.60	-1792.00	  465.90
     25.2370	  798.00	  563.60	-1792.00	  465.90
     25.2705	  749.00	  563.60	-1792.00	  465.90
     25.3039	  791.00	  563.60	-1792.00	  465.90
     25.3373	  784.00	  563.60	-1792.00	  465.90
     25.3707	  774.00	  563.60	-1792.00	  465.90
     25.4041	  758.00	  563.60	-1792.00	  465.90
     25.4376	  775.00	  563.60	-1792.00	  465.90
     25.4710	  787.00	  563.60	-1792.00	  465.90
     25.5044	  837.00	  563.60	-1792.00	  465.90
     25.5378	  745.00	  563.60	-1792.00	  465.90
     25.5713	  733.00	  563.60	-1792.00	  465.90
     25.6047	  799.00	  563.60	-1792.00	  465.90
     25.6381	  761.00	  563.60	-1792.00	  465.90
     25.6715	  742.00	  563.60	-1792.00	  465.90
     25.7049	  789.00	  563.60	-1792.00	  465.90
     25.7384	  730.00	  563.60	-1792.00	  465.90
     25.7718	  728.00	  563.60	-1792.00	  465.90
     25.8052	  757.00	  563.60	-1792.00	  465.90
     25.8386	  760.00	  563.60	-1792.00	  465.90
     25.8721	  761.00	  563.60	-1792.00	  465.90
     25.9055	  774.00	  563.60	-1792.00	  465.90
     25.9389	  764.00	  563.60	-1792.00	  465.90
     25.9723	  761.00	  563.60	-1792.00	  465.90
     26.0057	  774.00	  563.60	-1792.00	  465.90
     26.0392	  754.00	  563.60	-1792.00	  465.90
     26.0726	  770.00	  563.60	-1792.00	  465.90
     26.1060	  790.00	  563.60	-1792.00	  465.90
     26.1394	  750.00	  563.60	-1792.00	  465.90
     26.1729	  689.00	  563.60	-1792.00	  465.90
     26.2063	  748.00	  563.60	-1792.00	  465.90
     26.2397	  728.00	  563.60	-1792.00	  465.90
     26.2731	  740.00	  563.60	-1792.00	  465.90
     26.3065	  735.00	  563.60	-1792.00	  465.90
     26.3400	  759.00	  563.60	-1792.00	  465.90
     26.3734	  732.00	  563.60	-1792.00	  465.90
     26.4068	  718.00	  563.60	-1792.00	  465.90
     26.4402	  737.00	  563.60	-1792.00	  465.90
     26.4737	  702.00	  563.60	-1792.00	  465.90
     26.5071	  715.00	  563.60	-1792.00	  465.90
     26.5405	  704.00	  563.60	-1792.00	  465.90
     26.5739	  701.00	  563.60	-1792.00	  465.90
     26.6074	  756.00	  563.60	-1792.00	  465.90
     26.6408	  704.00	  563.60	-1792.00	  465.90
     26.6742	  735.00	  563.60	-1792.00	  465.90
     26.7076	  695.00	  563.60	-1792.00	  465.90
     26.7410	  698.00	  563.60	-1792.00	  465.90
     26.7745	  681.00	  563.60	-1792.00	  465.90
     26.8079	  637.00	  563.60	-1792.00	  465.90
     26.8413	  717.00	  563.60	-1792.00	  465.90
     26.8747	  706.00	  563.60	-1792.00	  465.90
     26.9082	  683.00	  563.60	-1792.00	  465.90
     26.9416	  730.00	  563.60	-1792.00	  465.90
     26.9750	  696.00	  563.60	-1792.00	  465.90
     27.0084	  732.00	  563.60	-1792.00	  465.90
     27.0418	  668.00	  563.60	-1792.00	  465.90
     27.0753	  724.00	  563.60	-1792.00	  465.90
     27.1087	  635.00	  563.60	-1792.00	  465.90
     27.1421	  680.00	  563.60	-1792.00	  465.90
     27.1755	  714.00	  563.60	-1792.00	  465.90
     27.2090	  703.00	  563.60	-1792.00	  465.90
     27.2424	  693.00	  563.60	-1792.00	  465.90
     27.2758	  726.00	  563.60	-1792.00	  465.90
     27.3092	  630.00	  563.60	-1792.00	  465.90
     27.3426	  678.00	  563.60	-1792.00	  465.90
     27.3761	  643.00	  563.60	-1792.00	  465.90
     27.4095	  706.00	  563.60	-1792.00	  465.90
     27.4429	  670.00	  563.60	-1792.00	  465.90
     27.4763	  667.00	  563.60	-1792.00	  465.90
     27.5098	  647.00	  563.60	-1792.00	  465.90
     27.5432	  695.00	  563.60	-1792.00	  465.90
     27.5766	  627.00	  563.60	-1792.00	  465.90
     27.6100	  702.00	  563.60	-1792.00	  465.90
     27.6434	  692.00	  563.60	-1792.00	  465.90
     27.6769	  678.00	  563.60	-1792.00	  465.90
     27.7103	  658.00	  563.60	-1792.00	  465.90
     27.7437	  680.00	  563.60	-1792.00	  465.90
     27.7771	  647.00	  563.60	-1792.00	  465.90
     27.8106	  681.00	  563.60	-1792.00	  465.90
     27.8440	  629.00	  563.60	-1792.00	  465.90
     27.8774	  655.00	  563.60	-1792.00	  465.90
     27.9108	  654.00	  563.60	-1792.00	  465.90
     27.9443	  646.00	  563.60	-1792.00	  465.90
     27.9777	  697.00	  563.60	-1792.00	  465.90
     28.0111	  655.00	  563.60	-1792.00	  465.90
     28.0445	  714.00	  563.60	-1792.00	  465.90
     28.0779	  688.00	  563.60	-1792.00	  465.90
     28.1114	  653.00	  563.60	-1792.00	  465.90
     28.1448	  634.00	  563.60	-1792.00	  465.90
     28.1782	  633.00	  563.60	-1792.00	  465.90
     28.2116	  668.00	  563.60	-1792.00	  465.90
     28.2451	  662.00	  563.60	-1792.00	  465.90
     28.2785	  645.00	  563.60	-1792.00	  465.90
     28.3119	  675.00	  563.60	-1792.00	  465.90
     28.3453	  616.00	  563.60	-1792.00	  465.90
     28.3787	  660.00	  563.60	-1792.00	  465.90
     28.4122	  645.00	  563.60	-1792.00	  465.90
     28.4456	  621.00	  563.60	-1792.00	  465.90
     28.4790	  579.00	  563.60	-1792.00	  465.90
     28.5124	  661.00	  563.60	-1792.00	  465.90
     28.5459	  655.00	  563.60	-1792.00	  465.90
     28.5793	  649.00	  563.60	-1792.00	  465.90
     28.6127	  654.00	  563.60	-1792.00	  465.90
     28.6461	  668.00	  563.60	-1792.00	  465.90
     28.6795	  611.00	  563.60	-1792.00	  465.90
     28.7130	  606.00	  563.60	-1792.00	  465.90
     28.7464	  667.00	  563.60	-1792.00	  465.90
     28.7798	  642.00	  563.60	-1792.00	  465.90
     28.8132	  671.00	  563.60	-1792.00	  465.90
     28.8467	  612.00	  563.60	-1792.00	  465.90
     28.8801	  652.00	  563.60	-1792.00	  465.90
     28.9135	  617.00	  563.60	-1792.00	  465.90
     28.9469	  637.00	  563.60	-1792.00	  465.90
     28.9804	  676.00	  563.60	-1792.00	  465.90
     29.0138	  606.00	  563.60	-1792.00	  465.90
     29.0472	  665.00	  563.60	-1792.00	  465.90
     29.0806	  622.00	  563.60	-1792.00	  465.90
     29.1140	  645.00	  563.60	-1792.00	  465.90
     29.1475	  616.00	  563.60	-1792.00	  465.90
     29.1809	  663.00	  563.60	-1792.00	  465.90
     29.2143	  617.00	  563.60	-1792.00	  465.90
     29.2477	  668.00	  563.60	-1792.00	  465.90
     29.2812	  594.00	  563.60	-1792.00	  465.90
     29.3146	  642.00	  563.60	-1792.00	  465.90
     29.3480	  673.00	  563.60	-1792.00	  465.90
     29.3814	  590.00	  563.60	-1792.00	  465.90
     29.4148	  668.00	  563.60	-1792.00	  465.90
     29.4483	  651.00	  563.60	-1792.00	  465.90
     29.4817	  617.00	  563.60	-1792.00	  465.90
     29.5151	  649.00	  563.60	-1792.00	  465.90
     29.5485	  604.00	  563.60	-1792.00	  465.90
     29.5820	  625.00	  563.60	-1792.00	  465.90
     29.6154	  649.00	  563.60	-1792.00	  465.90
     29.6488	  643.00	  563.60	-1792.00	  465.90
     29.6822	  585.00	  563.60	-1792.00	  465.90
     29.7156	  603.00	  563.60	-1792.00	  465.90
     29.7491	  633.00	  563.60	-1792.00	  465.90
     29.7825	  572.00	  563.60	-1792.00	  465.90
     29.8159	  616.00	  563.60	-1792.00	  465.90
     29.8493	  600.00	  563.60	-1792.00	  465.90
     29.8828	  635.00	  563.60	-1792.00	  465.90
     29.9162	  588.00	  563.60	-1792.00	  465.90
     29.9496	  606.00	  563.60	-1792.00	  465.90
     29.9830	  609.00	  563.60	-1792.00	  465.90
     30.0164	  569.00	  563.60	-1792.00	  465.90
     30.0499	  613.00	  563.60	-1792.00	  465.90
     30.0833	  622.00	  563.60	-1792.00	  465.90
     30.1167	  569.00	  563.60	-1792.00	  465.90
     30.1501	  601.00	  563.60	-1792.00	  465.90
     30.1836	  641.00	  563.60	-1792.00	  465.90
     30.2170	  588.00	  563.60	-1792.00	  465.90
     30.2504	  617.00	  563.60	-1792.00	  465.90
     30.2838	  596.00	  563.60	-1792.00	  465.90
     30.3173	  617.00	  563.60	-1792.00	  465.90
     30.3507	  596.00	  563.60	-1792.00	  465.90
     30.3841	  577.00	  563.60	-1792.00	  465.90
     30.4175	  560.00	  563.60	-1792.00	  465.90
     30.4509	  574.00	  563.60	-1792.00	  465.90
     30.4844	  609.00	  563.60	-1792.00	  465.90
     30.5178	  552.00	  563.60	-1792.00	  465.90
     30.5512	  634.00	  563.60	-1792.00	  465.90
     30.5846	  572.00	  563.60	-1792.00	  465.90
     30.6181	  617.00	  563.60	-1792.00	  465.90
     30.6515	  611.00	  563.60	-1792.00	  465.90
     30.6849	  605.00	  563.60	-1792.00	  465.90
     30.7183	  560.00	  563.60	-1792.00	  465.90
     30.7517	  603.00	  563.60	-1792.00	  465.90
     30.7852	  611.00	  563.60	-1792.00	  465.90
     30.8186	  586.00	  563.60	-1792.00	  465.90
     30.8520	  609.00	  563.60	-1792.00	  465.90
     30.8854	  596.00	  563.60	-1792.00	  465.90
     30.9189	  589.00	  563.60	-1792.00	  465.90
     30.9523	  672.00	  563.60	-1792.00	  465.90
     30.9857	  569.00	  563.60	-1792.00	  465.90
     31.0191	  593.00	  563.60	-1792.00	  465.90
     31.0525	  602.00	  563.60	-1792.00	  465.90
     31.0860	  594.00	  563.60	-1792.00	  465.90
     31.1194	  608.00	  563.60	-1792.00	  465.90
     31.1528	  622.00	  563.60	-1792.00	  465.90
     31.1862	  585.00	  563.60	-1792.00	  465.90
     31.2197	  595.00	  563.60	-1792.00	  465.90
     31.2531	  604.00	  563.60	-1792.00	  465.90
     31.2865	  593.00	  563.60	-1792.00	  465.90
     31.3199	  580.00	  563.60	-1792.00	  465.90
     31.3534	  562.00	  563.60	-1792.00	  465.90
     31.3868	  574.00	  563.60	-1792.00	  465.90
     31.4202	  565.00	  563.60	-1792.00	  465.90
     31.4536	  568.00	  563.60	-1792.00	  465.90
     31.4870	  593.00	  563.60	-1792.00	  465.90
     31.5205	  609.00	  563.60	-1792.00	  465.90
     31.5539	  539.00	  563.60	-1792.00	  465.90
     31.5873	  615.00	  563.60	-1792.00	  465.90
     31.6207	  640.00	  563.60	-1792.00	  465.90
     31.6542	  616.00	  563.60	-1792.00	  465.90
     31.6876	  605.00	  563.60	-1792.00	  465.90
     31.7210	  595.00	  563.60	-1792.00	  465.90
     31.7544	  595.00	  563.60	-1792.00	  465.90
     31.7878	  584.00	  563.60	-1792.00	  465.90
     31.8213	  610.00	  563.60	-1792.00	  465.90
     31.8547	  590.00	  563.60	-1792.00	  465.90
     31.8881	  568.00	  563.60	-1792.00	  465.90
     31.9215	  596.00	  563.60	-1792.00	  465.90
     31.9550	  601.00	  563.60	-1792.00	  465.90
     31.9884	  580.00	  563.60	-1792.00	  465.90
     32.0218	  586.00	  563.60	-1792.00	  465.90
     32.0552	  590.00	  563.60	-1792.00	  465.90
     32.0886	  555.00	  563.60	-1792.00	  465.90
     32.1221	  584.00	  563.60	-1792.00	  465.90
     32.1555	  613.00	  563.60	-1792.00	  465.90
     32.1889	  579.00	  563.60	-1792.00	  465.90
     32.2223	  573.00	  563.60	-1792.00	  465.90
     32.2558	  580.00	  563.60	-1792.00	  465.90
     32.2892	  579.00	  563.60	-1792.00	  465.90
     32.3226	  582.00	  563.60	-1792.00	  465.90
     32.3560	  554.00	  563.60	-1792.00	  465.90
     32.3895	  602.00	  563.60	-1792.00	  465.90
     32.4229	  572.00	  563.60	-1792.00	  465.90
     32.4563	  539.00	  563.60	-1792.00	  465.90
     32.4897	  567.00	  563.60	-1792.00	  465.90
     32.5231	  606.00	  563.60	-1792.00	  465.90
     32.5566	  511.00	  563.60	-1792.00	  465.90
     32.5900	  582.00	  563.60	-1792.00	  465.90
     32.6234	  559.00	  563.60	-1792.00	  465.90
     32.6568	  550.00	  563.60	-1792.00	  465.90
     32.6903	  559.00	  563.60	-1792.00	  465.90
     32.7237	  530.00	  563.60	-1792.00	  465.90
     32.7571	  540.00	  563.60	-1792.00	  465.90
     32.7905	  570.00	  563.60	-1792.00	  465.90
     32.8239	  589.00	  563.60	-1792.00	  465.90
     32.8574	  562.00	  563.60	-1792.00	  465.90
     32.8908	  599.00	  563.60	-1792.00	  465.90
     32.9242	  588.00	  563.60	-1792.00	  465.90
     32.9576	  583.00	  563.60	-1792.00	  465.90
     32.9911	  589.00	  563.60	-1792.00	  465.90
     33.0245	  557.00	  563.60	-1792.00	  465.90
     33.0579	  577.00	  563.60	-1792.00	  465.90
     33.0913	  562.00	  563.60	-1792.00	  465.90
     33.1247	  609.00	  563.60	-1792.00	  465.90
     33.1582	  559.00	  563.60	-1792.00	  465.90
     33.1916	  542.00	  563.60	-1792.00	  465.90
     33.2250	  599.00	  563.60	-1792.00	  465.90
     33.2584	  548.00	  563.60	-1792.00	  465.90
     33.2919	  561.00	  563.60	-1792.00	  465.90
     33.3253	  577.00	  563.60	-1792.00	  465.90
     33.3587	  583.00	  563.60	-1792.00	  465.90
     33.3921	  581.00	  563.60	-1792.00	  465.90
     33.4255	  621.00	  563.60	-1792.00	  465.90
     33.4590	  557.00	  563.60	-1792.00	  465.90
     33.4924	  599.00	  563.60	-1792.00	  465.90
     33.5258	  621.00	  563.60	-1792.00	  465.90
     33.5592	  547.00	  563.60	-1792.00	  465.90
     33.5927	  585.00	  563.60	-1792.00	  465.90
     33.6261	  571.00	  563.60	-1792.00	  465.90
     33.6595	  582.00	  563.60	-1792.00	  465.90
     33.6929	  559.00	  563.60	-1792.00	  465.90
     33.7264	  531.00	  563.60	-1792.00	  465.90
     33.7598	  569.00	  563.60	-1792.00	  465.90
     33.7932	  573.00	  563.60	-1792.00	  465.90
     33.8266	  617.00	  563.60	-1792.00	  465.90
     33.8600	  615.00	  563.60	-1792.00	  465.90
     33.8935	  496.00	  563.60	-1792.00	  465.90
     33.9269	  546.00	  563.60	-1792.00	  465.90
     33.9603	  582.00	  563.60	-1792.00	  465.90
     33.9937	  574.00	  563.60	-1792.00	  465.90
     34.0272	  582.00	  563.60	-1792.00	  465.90
     34.0606	  617.00	  563.60	-1792.00	  465.90
     34.0940	  617.00	  563.60	-1792.00	  465.90
     34.1274	  578.00	  563.60	-1792.00	  465.90
     34.1608	  565.00	  563.60	-1792.00	  465.90
     34.1943	  571.00	  563.60	-1792.00	  465.90
     34.2277	  561.00	  563.60	-1792.00	  465.90
     34.2611	  521.00	  563.60	-1792.00	  465.90
     34.2945	  610.00	  563.60	-1792.00	  465.90
     34.3280	  558.00	  563.60	-1792.00	  465.90
     34.3614	  603.00	  563.60	-1792.00	  465.90
     34.3948	  552.00	  563.60	-1792.00	  465.90
     34.4282	  589.00	  563.60	-1792.00	  465.90
     34.4616	  581.00	  563.60	-1792.00	  465.90
     34.4951	  551.00	  563.60	-1792.00	  465.90
     34.5285	  574.00	  563.60	-1792.00	  465.90
     34.5619	  603.00	  563.60	-1792.00	  465.90
     34.5953	  546.00	  563.60	-1792.00	  465.90
     34.6288	  585.00	  563.60	-1792.00	  465.90
     34.6622	  584.00	  563.60	-1792.00	  465.90
     34.6956	  563.00	  563.60	-1792.00	  465.90
     34.7290	  615.00	  563.60	-1792.00	  465.90
     34.7625	  592.00	  563.60	-1792.00	  465.90
     34.7959	  559.00	  563.60	-1792.00	  465.90
     34.8293	  570.00	  563.60	-1792.00	  465.90
     34.8627	  612.00	  563.60	-1792.00	  465.90
     34.8961	  590.00	  563.60	-1792.00	  465.90
     34.9296	  594.00	  563.60	-1792.00	  465.90
     34.9630	  577.00	  563.60	-1792.00	  465.90
     34.9964	  610.00	  563.60	-1792.00	  465.90
     35.0298	  568.00	  563.60	-1787.60	  465.90
     35.0633	  558.00	  563.60	-1797.60	  465.90
     35.0967	  619.00	  563.60	-1736.60	  465.90
     35.1301	  604.00	  563.60	-1751.60	  465.90
     35.1635	  573.00	  563.60	-1782.60	  465.90
     35.1969	  589.00	  563.60	-1766.60	  465.90
     35.2304	  598.00	  563.60	-1757.60	  465.90
     35.2638	  540.00	  563.60	-1815.60	  465.90
     35.2972	  568.00	  563.60	-1787.60	  465.90
     35.3306	  555.00	  563.60	-1800.60	  465.90
     35.3641	  568.00	  563.60	-1787.60	  465.90
     35.3975	  561.00	  563.60	-1794.60	  465.90
     35.4309	  541.00	  563.60	-1814.60	  465.90
     35.4643	  573.00	  563.60	-1782.60	  465.90
     35.4977	  610.00	  563.60	-1745.60	  465.90
     35.5312	  630.00	  563.60	-1725.60	  465.90
     35.5646	  620.00	  563.60	-1735.60	  465.90
     35.5980	  610.00	  563.60	-1745.60	  465.90
     35.6314	  604.00	  563.60	-1751.60	  465.90
     35.6649	  531.00	  563.60	-1824.60	  465.90
     35.6983	  605.00	  563.60	-1750.60	  465.90
     35.7317	  563.00	  563.60	-1792.60	  465.90
     35.7651	  541.00	  563.60	-1814.60	  465.90
     35.7985	  546.00	  563.60	-1809.60	  465.90
     35.8320	  586.00	  563.62	-1769.62	  465.92
     35.8654	  608.00	  563.80	-1747.80	  466.10
     35.8988	  549.00	  563.97	-1806.97	  466.27
     35.9322	  522.00	  564.14	-1834.14	  466.44
     35.9657	  586.00	  564.32	-1770.32	  466.62
     35.9991	  603.00	  564.49	-1753.49	  466.79
     36.0325	  512.00	  564.67	-1844.67	  466.97
     36.0659	  577.00	  564.84	-1779.84	  467.14
     36.0993	  624.00	  565.01	-1733.01	  467.31
     36.1328	  580.00	  565.19	-1777.19	  467.49
     36.1662	  575.00	  565.36	-1782.36	  467.66
     36.1996	  613.00	  565.54	-1744.54	  467.84
     36.2330	  572.00	  565.71	-1785.71	  468.01
     36.2665	  610.00	  565.88	-1747.88	  468.18
     36.2999	  611.00	  566.06	-1747.06	  468.36
     36.3333	  595.00	  566.23	-1763.23	  468.53
     36.3667	  586.00	  566.41	-1772.41	  468.71
     36.4002	  553.00	  566.58	-1805.58	  468.88
     36.4336	  619.00	  566.75	-1739.75	  469.05
     36.4670	  590.00	  566.93	-1768.93	  469.23
     36.5004	  635.00	  567.10	-1724.10	  469.40
     36.5338	  639.00	  567.28	-1720.28	  469.58
     36.5673	  582.00	  567.45	-1777.45	  469.75
     36.6007	  595.00	  567.62	-1764.62	  469.92
     36.6341	  529.00	  567.80	-1830.80	  470.10
     36.6675	  563.00	  567.97	-1796.97	  470.27
     36.7010	  572.00	  568.15	-1788.15	  470.45
     36.7344	  568.00	  568.32	-1792.32	  470.62
     36.7678	  543.00	  568.49	-1817.49	  470.79
     36.8012	  570.00	  568.67	-1790.67	  470.97
     36.8346	  600.00	  568.84	-1760.84	  471.14
     36.8681	  609.00	  569.02	-1752.02	  471.32
     36.9015	  577.00	  569.19	-1784.19	  471.49
     36.9349	  577.00	  569.36	-1784.36	  471.66
     36.9683	  586.00	  569.54	-1775.54	  471.84
     37.0018	  596.00	  569.71	-1765.71	  472.01
     37.0352	  621.00	  569.89	-1740.89	  472.19
     37.0686	  594.00	  570.06	-1768.06	  472.36
     37.1020	  632.00	  570.23	-1730.23	  472.53
     37.1355	  555.00	  570.41	-1807.41	  472.71
     37.1689	  650.00	  570.58	-1712.58	  472.88
     37.2023	  583.00	  570.76	-1779.76	  473.06
     37.2357	  580.00	  570.93	-1782.93	  473.23
     37.2691	  599.00	  571.10	-1764.10	  473.40
     37.3026	  611.00	  571.28	-1752.28	  473.58
     37.3360	  579.00	  571.45	-1784.45	  473.75
     37.3694	  586.00	  571.63	-1777.63	  473.93
     37.4028	  615.00	  571.80	-1748.80	  474.10
     37.4363	  584.00	  571.97	-1779.97	  474.27
     37.4697	  608.00	  572.15	-1756.15	  474.45
     37.5031	  572.00	  572.32	-1792.32	  474.62
     37.5365	  599.00	  572.50	-1765.50	  474.80
     37.5699	  588.00	  572.67	-1776.67	  474.97
     37.6034	  605.00	  572.84	-1759.84	  475.14
     37.6368	  609.00	  573.02	-1756.02	  475.32
     37.6702	  554.00	  573.19	-1811.19	  475.49
     37.7036	  619.00	  573.37	-1746.37	  475.67
     37.7371	  599.00	  573.54	-1766.54	  475.84
     37.7705	  582.00	  573.71	-1783.71	  476.01
     37.8039	  596.00	  573.89	-1769.89	  476.19
     37.8373	  591.00	  574.06	-1775.06	  476.36
     37.8707	  581.00	  574.24	-1785.24	  476.54
     37.9042	  626.00	  574.41	-1740.41	  476.71
     37.9376	  571.00	  574.58	-1795.58	  476.88
     37.9710	  592.00	  574.76	-1774.76	  477.06
     38.0044	  553.00	  574.93	-1813.93	  477.23
     38.0379	  590.00	  575.11	-1777.11	  477.41
     38.0713	  583.00	  575.28	-1784.28	  477.58
     38.1047	  601.00	  575.45	-1766.45	  477.75
     38.1381	  567.00	  575.63	-1800.63	  477.93
     38.1715	  558.00	  575.80	-1809.80	  478.10
     38.2050	  593.00	  575.98	-1774.98	  478.28
     38.2384	  604.00	  576.15	-1764.15	  478.45
     38.2718	  581.00	  576.32	-1787.32	  478.62
     38.3052	  595.00	  576.50	-1773.50	  478.80
     38.3387	  591.00	  576.67	-1777.67	  478.97
     38.3721	  582.00	  576.85	-1786.85	  479.15
     38.4055	  552.00	  577.02	-1817.02	  479.32
     38.4389	  585.00	  577.19	-1784.19	  479.49
     38.4724	  561.00	  577.37	-1808.37	  479.67
     38.5058	  569.00	  577.54	-1800.54	  479.84
     38.5392	  567.00	  577.72	-1802.72	  480.02
     38.5726	  558.00	  577.89	-1811.89	  480.19
     38.6060	  550.00	  578.06	-1820.06	  480.36
     38.6395	  594.00	  578.24	-1776.24	  480.54
     38.6729	  550.00	  578.41	-1820.41	  480.71
     38.7063	  583.00	  578.59	-1787.59	  480.89
     38.7397	  553.00	  578.76	-1817.76	  481.06
     38.7732	  570.00	  578.93	-1800.93	  481.23
     38.8066	  634.00	  579.11	-1737.11	  481.41
     38.8400	  605.00	  579.28	-1766.28	  481.58
     38.8734	  602.00	  579.46	-1769.46	  481.76
     38.9068	  555.00	  579.63	-1816.63	  481.93
     38.9403	  559.00	  579.81	-1812.81	  482.11
     38.9737	  541.00	  580.03	-1831.03	  482.33
     39.0071	  552.00	  580.25	-1820.25	  482.55
     39.0405	  601.00	  580.48	-1771.48	  482.78
     39.0740	  606.00	  580.70	-1766.70	  483.00
     39.1074	  603.00	  580.92	-1769.92	  483.22
     39.1408	  577.00	  581.15	-1796.15	  483.45
     39.1742	  594.00	  581.37	-1779.37	  483.67
     39.2076	  555.00	  581.59	-1818.59	  483.89
     39.2411	  631.00	  581.82	-1742.82	  484.12
     39.2745	  579.00	  582.04	-1795.04	  484.34
     39.3079	  538.00	  582.26	-1836.26	  484.56
     39.3413	  606.00	  582.49	-1768.49	  484.79
     39.3748	  623.00	  582.71	-1751.71	  485.01
     39.4082	  564.00	  582.93	-1810.93	  485.23
     39.4416	  591.00	  583.16	-1784.16	  485.46
     39.4750	  549.00	  583.38	-1826.38	  485.68
     39.5084	  552.00	  583.60	-1823.60	  485.90
     39.5419	  633.00	  583.83	-1742.83	  486.13
     39.5753	  641.00	  584.05	-1735.05	  486.35
     39.6087	  599.00	  584.27	-1777.27	  486.57
     39.6421	  640.00	  584.50	-1736.50	  486.79
     39.6756	  613.00	  584.72	-1763.72	  487.02
     39.7090	  602.00	  584.94	-1774.94	  487.24
     39.7424	  595.00	  585.17	-1782.17	  487.46
     39.7758	  570.00	  585.39	-1807.39	  487.69
     39.8093	  615.00	  585.61	-1762.61	  487.91
     39.8427	  632.00	  585.84	-1745.84	  488.13
     39.8761	  579.00	  586.06	-1799.06	  488.36
     39.9095	  582.00	  586.28	-1796.28	  488.58
     39.9429	  589.00	  586.51	-1789.51	  488.80
     39.9764	  623.00	  586.73	-1755.73	  489.03
     40.0098	  619.00	  586.95	-1759.95	  489.25
     40.0432	  596.00	  587.18	-1783.18	  489.47
     40.0766	  595.00	  587.40	-1784.40	  489.70
     40.1101	  643.00	  587.62	-1736.62	  489.92
     40.1435	  608.00	  587.84	-1771.84	  490.14
     40.1769	  590.00	  588.07	-1790.07	  490.37
     40.2103	  596.00	  588.29	-1784.29	  490.59
     40.2437	  637.00	  588.51	-1743.51	  490.81
     40.2772	  581.00	  588.74	-1799.74	  491.04
     40.3106	  605.00	  588.96	-1775.96	  491.26
     40.3440	  631.00	  589.18	-1750.18	  491.48
     40.3774	  599.00	  589.41	-1782.41	  491.71
     40.4109	  627.00	  589.63	-1754.63	  491.93
     40.4443	  578.00	  589.85	-1803.85	  492.15
     40.4777	  606.00	  590.08	-1776.08	  492.38
     40.5111	  647.00	  590.30	-1735.30	  492.60
     40.5445	  586.00	  590.52	-1796.52	  492.82
     40.5780	  580.00	  590.75	-1802.75	  493.05
     40.6114	  629.00	  590.97	-1753.97	  493.27
     40.6448	  647.00	  591.19	-1736.19	  493.49
     40.6782	  583.00	  591.42	-1800.42	  493.72
     40.7117	  571.00	  591.64	-1812.64	  493.94
     40.7451	  656.00	  591.86	-1727.86	  494.16
     40.7785	  563.00	  592.09	-1821.09	  494.39
     40.8119	  625.00	  592.31	-1759.31	  494.61
     40.8454	  636.00	  592.53	-1748.53	  494.83
     40.8788	  580.00	  592.76	-1804.76	  495.06
     40.9122	  622.00	  592.98	-1762.98	  495.28
     40.9456	  606.00	  593.20	-1779.20	  495.50
     40.9790	  588.00	  593.43	-1797.43	  495.73
     41.0125	  584.00	  593.65	-1801.65	  495.95
     41.0459	  641.00	  593.87	-1744.87	  496.17
     41.0793	  603.00	  594.10	-1783.10	  496.40
     41.1127	  602.00	  594.32	-1784.32	  496.62
     41.1462	  580.00	  594.54	-1806.54	  496.84
     41.1796	  596.00	  594.77	-1790.77	  497.07
     41.2130	  637.00	  594.99	-1749.99	  497.29
     41.2464	  643.00	  595.21	-1744.21	  497.51
     41.2798	  583.00	  595.44	-1804.44	  497.74
     41.3133	  610.00	  595.66	-1777.66	  497.96
     41.3467	  583.00	  595.88	-1804.88	  498.18
     41.3801	  635.00	  596.11	-1753.11	  498.41
     41.4135	  582.00	  596.33	-1806.33	  498.63
     41.4470	  639.00	  596.55	-1749.55	  498.85
     41.4804	  594.00	  596.78	-1794.78	  499.08
     41.5138	  622.00	  597.00	-1767.00	  499.30
     41.5472	  676.00	  597.22	-1713.22	  499.52
     41.5807	  609.00	  597.45	-1780.45	  499.75
     41.6141	  614.00	  597.67	-1775.67	  499.97
     41.6475	  624.00	  597.89	-1765.89	  500.19
     41.6809	  592.00	  598.12	-1798.12	  500.42
     41.7143	  609.00	  598.34	-1781.34	  500.64
     41.7478	  645.00	  598.56	-1745.56	  500.86
     41.7812	  612.00	  598.72	-1778.72	  501.02
     41.8146	  595.00	  598.76	-1795.76	  501.06
     41.8480	  619.00	  598.80	-1771.80	  501.10
     41.8815	  601.00	  598.84	-1789.84	  501.14
     41.9149	  588.00	  598.89	-1802.89	  501.19
     41.9483	  586.00	  598.93	-1804.93	  501.23
     41.9817	  644.00	  598.97	-1746.97	  501.27
     42.0151	  650.00	  599.01	-1741.01	  501.31
     42.0486	  605.00	  599.06	-1786.06	  501.36
     42.0820	  651.00	  599.10	-1740.10	  501.40
     42.1154	  593.00	  599.14	-1798.14	  501.44
     42.1488	  636.00	  599.18	-1755.18	  501.48
     42.1823	  619.00	  599.23	-1772.23	  501.53
     42.2157	  572.00	  613.35	-1833.35	  501.57
     42.2491	  601.00	  613.83	-1804.83	  501.61
     42.2825	  585.00	  614.32	-1821.32	  501.65
     42.3159	  624.00	  614.84	-1782.84	  501.70
     42.3494	  625.00	  622.52	-1789.52	  501.74
     42.3828	  624.00	  623.31	-1791.31	  501.78
     42.4162	  658.00	  624.13	-1758.13	  501.82
     42.4496	  608.00	  624.99	-1808.99	  501.87
     42.4831	  614.00	  625.89	-1803.89	  501.91
     42.5165	  657.00	  626.84	-1761.84	  501.95
     42.5499	  631.00	  627.83	-1788.83	  501.99
     42.5833	  593.00	  628.87	-1827.87	  502.04
     42.6167	  615.00	  629.97	-1806.97	  502.08
     42.6502	  589.00	  631.13	-1834.13	  502.12
     42.6836	  654.00	  632.35	-1770.35	  502.16
     42.7170	  584.00	  633.64	-1841.64	  502.21
     42.7504	  634.00	  635.00	-1793.00	  502.25
     42.7839	  633.00	  636.44	-1795.44	  502.29
     42.8173	  595.00	  637.96	-1834.96	  502.33
     42.8507	  649.00	  639.58	-1782.58	  502.38
     42.8841	  673.00	  641.30	-1760.30	  502.42
     42.9175	  636.00	  643.12	-1799.12	  502.46
     42.9510	  605.00	  645.06	-1832.06	  502.50
     42.9844	  635.00	  647.14	-1804.14	  502.55
     43.0178	  640.00	  649.35	-1801.35	  502.59
     43.0512	  645.00	  651.72	-1798.72	  502.63
     43.0847	  658.00	  654.25	-1788.25	  502.67
     43.1181	  667.00	  656.97	-1781.97	  502.72
     43.1515	  666.00	  659.90	-1785.90	  502.76
     43.1849	  717.00	  663.05	-1738.05	  502.80
     43.2184	  699.00	  666.45	-1759.45	  502.84
     43.2518	  714.00	  670.13	-1748.13	  502.89
     43.2852	  699.00	  674.11	-1767.11	  502.93
     43.3186	  678.00	  678.45	-1792.45	  502.97
     43.3520	  680.00	  683.16	-1795.16	  503.01
     43.3855	  725.00	  688.31	-1755.31	  503.06
     43.4189	  661.00	  693.95	-1824.95	  503.10
     43.4523	  685.00	  700.14	-1807.14	  503.14
     43.4857	  667.00	  706.96	-1831.96	  503.18
     43.5192	  646.00	  714.49	-1860.49	  503.23
     43.5526	  681.00	  722.84	-1833.84	  503.27
     43.5860	  672.00	  732.13	-1852.13	  503.31
     43.6194	  653.00	  742.51	-1881.51	  503.35
     43.6528	  694.00	  754.15	-1852.15	  503.40
     43.6863	  663.00	  767.27	-1896.27	  503.44
     43.7197	  661.00	  782.13	-1913.13	  503.48
     43.7531	  702.00	  799.06	-1889.06	  503.52
     43.7865	  706.00	  818.42	-1904.42	  503.57
     43.8200	  739.00	  840.74	-1893.74	  503.61
     43.8534	  728.00	  866.63	-1930.63	  503.65
     43.8868	  714.00	  896.88	-1974.88	  503.70
     43.9202	  760.00	  932.23	-1964.23	  503.43
     43.9536	  840.00	  974.26	-1926.26	  503.13
     43.9871	  820.00	 1024.83	-1996.83	  502.83
     44.0205	  858.00	 1086.42	-2020.42	  502.53
     44.0539	 1003.00	 1162.45	-1951.45	  502.24
     44.0873	  989.00	 1257.94	-2060.94	  501.94
     44.1208	 1119.00	 1380.19	-2053.19	  501.64
     44.1542	 1269.00	 1539.77	-2062.77	  501.34
     44.1876	 1490.00	 1751.99	-2053.99	  501.04
     44.2210	 1677.00	 2037.54	-2152.54	  500.75
     44.2544	 2010.00	 2423.42	-2205.42	  500.45
     44.2879	 2656.00	 2940.83	-2076.83	  500.15
     44.3213	 3500.00	 3614.41	-1906.41	  499.85
     44.3547	 4636.00	 4434.43	-1590.43	  499.56
     44.3881	 5978.00	 5295.38	-1109.38	  499.26
     44.4216	 6823.00	 5963.21	 -932.21	  498.96
     44.4550	 7168.00	 6210.77	 -834.77	  498.66
     44.4884	 7013.00	 6046.45	 -825.45	  498.37
     44.5218	 6374.00	 5634.82	-1052.82	  498.07
     44.5553	 5636.00	 5060.06	-1216.06	  497.77
     44.5887	 4659.00	 4359.02	-1492.02	  497.47
     44.6221	 3773.00	 3631.97	-1650.97	  497.17
     44.6555	 2912.00	 2987.23	-1867.23	  496.88
     44.6889	 2295.00	 2469.74	-1966.74	  496.58
     44.7224	 1768.00	 2074.48	-2098.48	  496.28
     44.7558	 1383.00	 1778.58	-2187.58	  495.98
     44.7892	 1278.00	 1557.30	-2071.30	  495.69
     44.8226	 1065.00	 1390.48	-2117.48	  495.39
     44.8561	  976.00	 1262.88	-2078.88	  495.09
     44.8895	  883.00	 1163.46	-2072.46	  494.79
     44.9229	  826.00	 1084.59	-2050.59	  494.49
     44.9563	  829.00	 1020.90	-1983.90	  494.20
     44.9897	  759.00	  968.65	-2001.65	  493.90
     45.0232	  796.00	  925.26	-1921.26	  493.60
     45.0566	  720.00	  888.80	-1960.80	  493.30
     45.0900	  713.00	  857.86	-1936.86	  493.01
     45.1234	  687.00	  831.39	-1936.39	  492.71
     45.1569	  651.00	  808.56	-1949.56	  492.41
     45.1903	  702.00	  788.73	-1878.73	  492.11
     45.2237	  660.00	  771.39	-1903.39	  491.81
     45.2571	  643.00	  756.14	-1905.14	  491.52
     45.2906	  636.00	  742.66	-1898.66	  491.22
     45.3240	  641.00	  730.66	-1881.66	  490.92
     45.3574	  640.00	  719.96	-1871.96	  490.62
     45.3908	  633.00	  710.35	-1869.35	  490.33
     45.4242	  596.00	  701.69	-1897.69	  490.03
     45.4577	  615.00	  693.86	-1870.86	  489.73
     45.4911	  600.00	  686.75	-1878.75	  489.43
     45.5245	  637.00	  680.27	-1835.27	  489.13
     45.5579	  596.00	  674.35	-1870.35	  488.84
     45.5914	  586.00	  668.92	-1874.92	  488.54
     45.6248	  605.00	  663.92	-1850.92	  488.24
     45.6582	  637.00	  659.32	-1814.32	  487.94
     45.6916	  688.00	  655.06	-1759.06	  487.65
     45.7250	  645.00	  651.11	-1798.11	  487.35
     45.7585	  588.00	  647.44	-1851.44	  487.05
     45.7919	  636.00	  644.02	-1800.02	  486.75
     45.8253	  611.00	  640.83	-1821.83	  486.46
     45.8587	  615.00	  637.85	-1814.85	  486.16
     45.8922	  605.00	  635.05	-1822.05	  485.86
     45.9256	  594.00	  632.42	-1830.42	  485.56
     45.9590	  589.00	  629.94	-1832.94	  485.26
     45.9924	  616.00	  627.61	-1803.61	  484.97
     46.0258	  589.00	  625.16	-1828.16	  484.43
     46.0593	  624.00	  622.53	-1790.53	  483.58
     46.0927	  555.00	  620.00	-1857.00	  482.73
     46.1261	  531.00	  617.57	-1878.57	  481.88
     46.1595	  609.00	  615.23	-1798.23	  481.03
     46.1930	  583.00	  612.98	-1821.98	  480.17
     46.2264	  565.00	  610.81	-1837.81	  479.32
     46.2598	  592.00	  608.71	-1808.71	  478.47
     46.2932	  540.00	  606.68	-1858.68	  477.62
     46.3266	  617.00	  604.71	-1779.71	  476.77
     46.3601	  571.00	  602.80	-1823.80	  475.92
     46.3935	  575.00	  600.95	-1817.95	  475.07
     46.4269	  534.00	  599.14	-1857.14	  474.22
     46.4603	  611.00	  597.39	-1778.39	  473.37
     46.4938	  507.00	  595.67	-1880.67	  472.52
     46.5272	  578.00	  594.00	-1808.00	  471.67
     46.5606	  575.00	  592.37	-1809.37	  470.82
     46.5940	  599.00	  590.78	-1783.78	  469.97
     46.6274	  594.00	  589.22	-1787.22	  469.12
     46.6609	  591.00	  587.69	-1788.69	  468.26
     46.6943	  532.00	  572.62	-1832.62	  467.41
     46.7277	  546.00	  571.54	-1817.54	  466.56
     46.7611	  596.00	  570.48	-1766.48	  465.71
     46.7946	  589.00	  562.56	-1765.56	  464.86
     46.8280	  575.00	  561.71	-1778.71	  464.01
     46.8614	  542.00	  560.86	-1810.86	  463.16
     46.8948	  578.00	  560.01	-1774.01	  462.31
     46.9283	  555.00	  559.16	-1796.16	  461.46
     46.9617	  552.00	  558.31	-1798.31	  460.61
     46.9951	  583.00	  557.46	-1766.46	  459.76
     47.0285	  565.00	  556.61	-1783.61	  458.91
     47.0619	  546.00	  555.76	-1801.76	  458.06
     47.0954	  549.00	  554.91	-1797.91	  457.21
     47.1288	  573.00	  554.06	-1773.06	  456.36
     47.1622	  564.00	  553.20	-1781.20	  455.50
     47.1956	  555.00	  552.35	-1789.35	  454.65
     47.2291	  547.00	  551.50	-1796.50	  453.80
     47.2625	  546.00	  550.65	-1796.65	  452.95
     47.2959	  524.00	  549.80	-1817.80	  452.10
     47.3293	  496.00	  548.95	-1844.95	  451.25
     47.3627	  550.00	  548.10	-1790.10	  450.40
     47.3962	  538.00	  547.25	-1801.25	  449.55
     47.4296	  543.00	  546.40	-1795.40	  448.70
     47.4630	  589.00	  545.55	-1748.55	  447.85
     47.4964	  488.00	  544.70	-1848.70	  447.00
     47.5299	  533.00	  543.85	-1802.85	  446.15
     47.5633	  562.00	  543.00	-1773.00	  445.30
     47.5967	  582.00	  542.15	-1752.15	  444.45
     47.6301	  533.00	  541.30	-1800.30	  443.59
     47.6636	  532.00	  540.44	-1800.44	  442.74
     47.6970	  569.00	  539.59	-1762.59	  441.89
     47.7304	  539.00	  538.96	-1791.96	  441.26
     47.7638	  534.00	  538.44	-1796.44	  440.74
     47.7972	  554.00	  537.91	-1775.91	  440.21
     47.8307	  540.00	  537.39	-1789.39	  439.69
     47.8641	  561.00	  536.87	-1767.87	  439.17
     47.8975	  540.00	  536.35	-1788.35	  438.65
     47.9309	  530.00	  535.83	-1797.83	  438.13
     47.9644	  527.00	  535.30	-1800.30	  437.60
     47.9978	  514.00	  534.78	-1812.78	  437.08
     48.0312	  527.00	  534.26	-1799.26	  436.56
     48.0646	  547.00	  533.74	-1778.74	  436.04
     48.0980	  518.00	  533.22	-1807.22	  435.52
     48.1315	  512.00	  532.69	-1812.69	  434.99
     48.1649	  529.00	  532.17	-1795.17	  434.47
     48.1983	  493.00	  531.65	-1830.65	  433.95
     48.2317	  489.00	  531.13	-1834.13	  433.43
     48.2652	  517.00	  530.61	-1805.61	  432.91
     48.2986	  518.00	  530.08	-1804.08	  432.38
     48.3320	  586.00	  529.56	-1735.56	  431.86
     48.3654	  542.00	  529.04	-1779.04	  431.34
     48.3988	  541.00	  528.52	-1779.52	  430.82
     48.4323	  544.00	  528.00	-1776.00	  430.30
     48.4657	  510.00	  527.47	-1809.47	  429.77
     48.4991	  549.00	  526.95	-1769.95	  429.25
     48.5325	  520.00	  526.43	-1798.43	  428.73
     48.5660	  548.00	  525.91	-1769.91	  428.21
     48.5994	  509.00	  525.39	-1808.39	  427.69
     48.6328	  534.00	  524.86	-1782.86	  427.16
     48.6662	  541.00	  524.34	-1775.34	  426.64
     48.6996	  528.00	  523.82	-1787.82	  426.12
     48.7331	  530.00	  523.30	-1785.30	  425.60
     48.7665	  518.00	  522.78	-1796.78	  425.08
     48.7999	  502.00	  522.25	-1812.25	  424.55
     48.8333	  500.00	  521.73	-1813.73	  424.03
     48.8668	  519.00	  521.21	-1794.21	  423.51
     48.9002	  499.00	  520.69	-1813.69	  422.99
     48.9336	  502.00	  520.17	-1810.17	  422.47
     48.9670	  557.00	  519.64	-1754.64	  421.94
     49.0005	  573.00	  519.12	-1738.12	  421.42
     49.0339	  549.00	  518.60	-1761.60	  420.90
     49.0673	  508.00	  518.08	-1802.08	  420.38
     49.1007	  511.00	  517.56	-1798.56	  419.86
     49.1341	  511.00	  517.03	-1798.03	  419.33
     49.1676	  467.00	  516.51	-1841.51	  418.81
     49.2010	  507.00	  515.99	-1800.99	  418.29
     49.2344	  551.00	  515.47	-1756.47	  417.77
     49.2678	  505.00	  514.92	-1801.92	  417.22
     49.3013	  523.00	  514.14	-1783.14	  416.44
     49.3347	  489.00	  513.36	-1816.36	  415.66
     49.3681	  517.00	  512.58	-1787.58	  414.88
     49.4015	  505.00	  511.80	-1798.80	  414.10
     49.4349	  534.00	  511.02	-1769.02	  413.32
     49.4684	  542.00	  510.24	-1760.24	  412.54
     49.5018	  558.00	  509.46	-1743.46	  411.76
     49.5352	  537.00	  508.68	-1763.68	  410.98
     49.5686	  518.00	  507.90	-1781.90	  410.20
     49.6021	  497.00	  515.06	-1810.06	  409.42
     49.6355	  523.00	  514.52	-1783.52	  408.64
     49.6689	  532.00	  514.00	-1774.00	  407.86
     49.7023	  519.00	  513.49	-1786.49	  407.08
     49.7357	  512.00	  516.94	-1796.94	  406.30
     49.7692	  493.00	  516.58	-1815.58	  405.52
     49.8026	  530.00	  516.25	-1778.25	  404.74
     49.8360	  527.00	  515.93	-1780.93	  403.96
     49.8694	  549.00	  515.64	-1758.64	  403.18
     49.9029	  541.00	  515.37	-1766.37	  402.40
     49.9363	  519.00	  515.14	-1788.14	  401.62
     49.9697	  529.00	  514.93	-1777.93	  400.84
     50.0031	  520.00	  514.75	-1786.75	  400.06
     50.0366	  511.00	  514.60	-1795.60	  399.28
     50.0700	  528.00	  514.50	-1778.50	  398.50
     50.1034	  539.00	  514.43	-1767.43	  397.72
     50.1368	  532.00	  514.40	-1774.40	  396.94
     50.1702	  511.00	  514.42	-1795.42	  396.17
     50.2037	  529.00	  514.49	-1777.49	  395.39
     50.2371	  480.00	  514.61	-1826.61	  394.61
     50.2705	  529.00	  514.79	-1777.79	  393.83
     50.3039	  540.00	  515.03	-1767.03	  393.05
     50.3374	  530.00	  515.34	-1777.34	  392.27
     50.3708	  548.00	  515.73	-1759.73	  391.49
     50.4042	  540.00	  516.20	-1768.20	  390.71
     50.4376	  498.00	  516.76	-1810.76	  389.93
     50.4710	  483.00	  517.42	-1826.42	  389.15
     50.5045	  523.00	  518.18	-1787.18	  388.37
     50.5379	  510.00	  519.08	-1801.08	  387.59
     50.5713	  544.00	  520.65	-1768.65	  387.37
     50.6047	  557.00	  522.37	-1757.37	  387.14
     50.6382	  526.00	  524.26	-1790.26	  386.92
     50.6716	  546.00	  526.33	-1772.33	  386.69
     50.7050	  508.00	  528.60	-1812.60	  386.47
     50.7384	  537.00	  531.10	-1786.10	  386.24
     50.7718	  509.00	  533.86	-1816.86	  386.02
     50.8053	  521.00	  536.91	-1807.91	  385.79
     50.8387	  492.00	  540.29	-1840.29	  385.57
     50.8721	  532.00	  544.05	-1804.05	  385.34
     50.9055	  537.00	  548.23	-1803.23	  385.12
     50.9390	  585.00	  552.91	-1759.91	  384.89
     50.9724	  547.00	  558.15	-1803.15	  384.67
     51.0058	  551.00	  564.06	-1805.06	  384.44
     51.0392	  571.00	  570.73	-1791.73	  384.22
     51.0726	  554.00	  578.30	-1816.30	  383.99
     51.1061	  562.00	  586.93	-1816.93	  383.77
     51.1395	  630.00	  596.82	-1758.82	  383.54
     51.1729	  629.00	  608.22	-1771.22	  383.32
     51.2063	  630.00	  621.44	-1783.44	  383.09
     51.2398	  665.00	  636.88	-1763.88	  382.87
     51.2732	  674.00	  655.04	-1773.04	  382.64
     51.3066	  759.00	  676.58	-1709.58	  382.41
     51.3400	  768.00	  702.39	-1726.39	  382.19
     51.3735	  781.00	  733.68	-1744.68	  381.96
     51.4069	  830.00	  772.10	-1734.10	  381.74
     51.4403	  913.00	  819.88	-1698.88	  381.51
     51.4737	 1039.00	  880.14	-1633.14	  381.29
     51.5071	 1158.00	  957.02	-1591.02	  381.06
     51.5406	 1251.00	 1055.96	-1596.96	  380.84
     51.5740	 1553.00	 1183.78	-1422.78	  380.61
     51.6074	 1733.00	 1348.29	-1407.29	  380.39
     51.6408	 2019.00	 1556.89	-1329.89	  380.16
     51.6743	 2359.00	 1811.92	-1244.92	  379.94
     51.7077	 2642.00	 2101.09	-1251.09	  379.71
     51.7411	 2806.00	 2384.85	-1370.85	  379.49
     51.7745	 3086.00	 2597.02	-1303.02	  379.26
     51.8079	 3111.00	 2682.63	-1363.63	  379.04
     51.8414	 3205.00	 2644.16	-1231.16	  378.81
     51.8748	 3013.00	 2526.33	-1305.33	  378.59
     51.9082	 2748.00	 2360.38	-1404.38	  378.36
     51.9416	 2546.00	 2152.39	-1398.39	  378.14
     51.9751	 2250.00	 1913.27	-1455.27	  377.91
     52.0085	 2040.00	 1670.95	-1422.95	  377.69
     52.0419	 1710.00	 1452.16	-1534.16	  377.46
     52.0753	 1516.00	 1269.40	-1545.40	  377.24
     52.1087	 1279.00	 1123.14	-1636.14	  377.01
     52.1422	 1101.00	 1008.35	-1699.35	  376.79
     52.1756	 1045.00	  918.68	-1665.68	  376.56
     52.2090	  953.00	  848.43	-1687.43	  376.33
     52.2424	  822.00	  792.94	-1762.94	  376.11
     52.2759	  755.00	  748.63	-1785.63	  375.88
     52.3093	  739.00	  712.77	-1765.77	  375.66
     52.3427	  694.00	  683.38	-1781.38	  375.43
     52.3761	  684.00	  659.00	-1767.00	  375.21
     52.4096	  639.00	  638.53	-1791.53	  374.98
     52.4430	  625.00	  621.17	-1788.17	  374.76
     52.4764	  612.00	  606.32	-1786.32	  374.53
     52.5098	  591.00	  593.50	-1794.50	  374.31
     52.5432	  543.00	  582.37	-1831.37	  374.08
     52.5767	  602.00	  572.63	-1762.63	  373.86
     52.6101	  560.00	  564.05	-1796.05	  373.63
     52.6435	  578.00	  556.47	-1770.47	  373.41
     52.6769	  513.00	  549.72	-1828.72	  373.18
     52.7104	  493.00	  543.69	-1842.69	  372.96
     52.7438	  510.00	  538.28	-1820.28	  372.73
     52.7772	  519.00	  533.39	-1806.39	  372.51
     52.8106	  549.00	  528.97	-1771.97	  372.28
     52.8440	  530.00	  524.95	-1786.95	  372.06
     52.8775	  529.00	  521.29	-1784.29	  371.83
     52.9109	  512.00	  517.93	-1797.93	  371.61
     52.9443	  511.00	  514.85	-1795.85	  371.38
     52.9777	  512.00	  512.00	-1792.00	  371.14
     53.0112	  501.00	  509.37	-1800.37	  370.90
     53.0446	  502.00	  506.93	-1796.93	  370.66
     53.0780	  486.00	  504.66	-1810.66	  370.42
     53.1114	  505.00	  502.55	-1789.55	  370.18
     53.1448	  521.00	  500.57	-1771.57	  369.94
     53.1783	  503.00	  498.73	-1787.73	  369.70
     53.2117	  493.00	  497.00	-1796.00	  369.47
     53.2451	  497.00	  495.37	-1790.37	  369.23
     53.2785	  492.00	  493.84	-1793.84	  368.99
     53.3120	  490.00	  492.39	-1794.39	  368.75
     53.3454	  489.00	  491.03	-1794.03	  368.51
     53.3788	  480.00	  489.73	-1801.73	  368.27
     53.4122	  507.00	  488.50	-1773.50	  368.03
     53.4456	  507.00	  487.33	-1772.33	  367.79
     53.4791	  481.00	  486.22	-1797.22	  367.55
     53.5125	  468.00	  485.15	-1809.15	  367.31
     53.5459	  481.00	  484.14	-1795.14	  367.07
     53.5793	  485.00	  483.17	-1790.17	  366.83
     53.6128	  499.00	  482.24	-1775.24	  366.59
     53.6462	  509.00	  481.35	-1764.35	  366.36
     53.6796	  502.00	  480.49	-1770.49	  366.12
     53.7130	  488.00	  479.66	-1783.66	  365.88
     53.7465	  482.00	  478.87	-1788.87	  365.64
     53.7799	  517.00	  478.10	-1753.10	  365.40
     53.8133	  465.00	  477.36	-1804.36	  365.16
     53.8467	  479.00	  476.65	-1789.65	  364.92
     53.8801	  488.00	  475.96	-1779.96	  364.68
     53.9136	  464.00	  475.29	-1803.29	  364.44
     53.9470	  439.00	  474.63	-1827.63	  364.20
     53.9804	  477.00	  466.13	-1781.13	  363.96
     54.0138	  520.00	  465.75	-1737.75	  363.72
     54.0473	  451.00	  465.37	-1806.37	  363.48
     54.0807	  487.00	  465.01	-1770.01	  363.25
     54.1141	  466.00	  464.64	-1790.64	  363.01
     54.1475	  478.00	  460.47	-1774.47	  362.77
     54.1809	  481.00	  460.23	-1771.23	  362.53
     54.2144	  486.00	  459.99	-1765.99	  362.29
     54.2478	  449.00	  459.75	-1802.75	  362.05
     54.2812	  449.00	  459.51	-1802.51	  361.81
     54.3146	  492.00	  459.27	-1759.27	  361.57
     54.3481	  460.00	  459.03	-1791.03	  361.33
     54.3815	  448.00	  458.79	-1802.79	  361.09
     54.4149	  464.00	  458.55	-1786.55	  360.85
     54.4483	  466.00	  458.31	-1784.31	  360.61
     54.4818	  441.00	  458.07	-1809.07	  360.37
     54.5152	  455.00	  457.84	-1794.84	  360.13
     54.5486	  503.00	  457.60	-1746.60	  359.90
     54.5820	  458.00	  457.36	-1791.36	  359.66
     54.6154	  462.00	  457.12	-1787.12	  359.42
     54.6489	  480.00	  456.88	-1768.88	  359.18
     54.6823	  467.00	  456.64	-1781.64	  358.94
     54.7157	  475.00	  456.40	-1773.40	  358.70
     54.7491	  521.00	  456.16	-1727.16	  358.46
     54.7825	  441.00	  455.92	-1806.92	  358.22
     54.8160	  478.00	  455.68	-1769.68	  357.98
     54.8494	  499.00	  455.44	-1748.44	  357.74
     54.8828	  485.00	  455.20	-1762.20	  357.50
     54.9162	  485.00	  454.96	-1761.96	  357.26
     54.9497	  466.00	  454.72	-1780.72	  357.02
     54.9831	  469.00	  454.49	-1777.49	  356.79
     55.0165	  481.00	  454.25	-1765.25	  356.55
     55.0499	  447.00	  454.01	-1799.01	  356.31
     55.0834	  421.00	  453.77	-1824.77	  356.07
     55.1168	  448.00	  453.53	-1797.53	  355.83
     55.1502	  440.00	  453.29	-1805.29	  355.59
     55.1836	  490.00	  453.05	-1755.05	  355.35
     55.2170	  480.00	  452.87	-1764.87	  355.17
     55.2505	  437.00	  452.78	-1807.78	  355.08
     55.2839	  489.00	  452.70	-1755.70	  355.00
     55.3173	  440.00	  452.62	-1804.62	  354.92
     55.3507	  440.00	  452.54	-1804.54	  354.84
     55.3842	  461.00	  452.46	-1783.46	  354.75
     55.4176	  447.00	  452.37	-1797.37	  354.67
     55.4510	  447.00	  452.29	-1797.29	  354.59
     55.4844	  440.00	  452.21	-1804.21	  354.51
     55.5178	  477.00	  452.13	-1767.13	  354.43
     55.5513	  499.00	  452.04	-1745.04	  354.34
     55.5847	  471.00	  451.96	-1772.96	  354.26
     55.6181	  443.00	  451.88	-1800.88	  354.18
     55.6515	  461.00	  451.80	-1782.80	  354.10
     55.6850	  420.00	  451.71	-1823.71	  354.01
     55.7184	  450.00	  451.63	-1793.63	  353.93
     55.7518	  441.00	  451.55	-1802.55	  353.85
     55.7852	  426.00	  451.47	-1817.47	  353.77
     55.8186	  452.00	  451.39	-1791.39	  353.68
     55.8521	  502.00	  451.30	-1741.30	  353.60
     55.8855	  398.00	  451.22	-1845.22	  353.52
     55.9189	  514.00	  451.14	-1729.14	  353.44
     55.9523	  469.00	  451.06	-1774.06	  353.36
     55.9858	  450.00	  450.97	-1792.97	  353.27
     56.0192	  441.00	  450.89	-1801.89	  353.19
     56.0526	  424.00	  450.81	-1818.81	  353.11
     56.0860	  468.00	  450.73	-1774.73	  353.03
     56.1195	  421.00	  450.64	-1821.64	  352.94
     56.1529	  472.00	  450.56	-1770.56	  352.86
     56.1863	  469.00	  450.48	-1773.48	  352.78
     56.2197	  434.00	  450.40	-1808.40	  352.70
     56.2531	  450.00	  450.31	-1792.31	  352.61
     56.2866	  466.00	  450.23	-1776.23	  352.53
     56.3200	  436.00	  450.15	-1806.15	  352.45
     56.3534	  420.00	  450.07	-1822.07	  352.37
     56.3868	  446.00	  449.99	-1795.99	  352.29
     56.4203	  527.00	  449.90	-1714.90	  352.20
     56.4537	  456.00	  449.82	-1785.82	  352.12
     56.4871	  474.00	  449.74	-1767.74	  352.04
     56.5205	  409.00	  449.66	-1832.66	  351.96
     56.5539	  429.00	  449.57	-1812.57	  351.87
     56.5874	  459.00	  449.49	-1782.49	  351.79
     56.6208	  407.00	  449.41	-1834.41	  351.71
     56.6542	  465.00	  449.33	-1776.33	  351.63
     56.6876	  475.00	  449.24	-1766.24	  351.54
     56.7211	  448.00	  449.16	-1793.16	  351.46
     56.7545	  467.00	  449.08	-1774.08	  351.38
     56.7879	  454.00	  449.00	-1787.00	  351.30
     56.8213	  431.00	  448.92	-1809.92	  351.22
     56.8547	  445.00	  448.83	-1795.83	  351.13
     56.8882	  466.00	  448.75	-1774.75	  351.05
     56.9216	  436.00	  448.67	-1804.67	  350.97
     56.9550	  490.00	  448.59	-1750.59	  350.89
     56.9884	  462.00	  448.50	-1778.50	  350.80
     57.0219	  452.00	  448.42	-1788.42	  350.72
     57.0553	  455.00	  448.34	-1785.34	  350.64
     57.0887	  454.00	  448.26	-1786.26	  350.56
     57.1221	  449.00	  448.17	-1791.17	  350.47
     57.1555	  444.00	  448.09	-1796.09	  350.39
     57.1890	  430.00	  448.01	-1810.01	  350.31
     57.2224	  457.00	  447.93	-1782.93	  350.23
     57.2558	  461.00	  447.85	-1778.85	  350.14
     57.2892	  458.00	  447.76	-1781.76	  350.06
     57.3227	  435.00	  447.68	-1804.68	  349.98
     57.3561	  461.00	  447.60	-1778.60	  349.90
     57.3895	  475.00	  447.52	-1764.52	  349.82
     57.4229	  470.00	  447.43	-1769.43	  349.73
     57.4564	  431.00	  447.35	-1808.35	  349.65
     57.4898	  431.00	  447.27	-1808.27	  349.57
     57.5232	  455.00	  447.19	-1784.19	  349.49
     57.5566	  455.00	  447.10	-1784.10	  349.40
     57.5900	  452.00	  447.02	-1787.02	  349.32
     57.6235	  429.00	  446.94	-1809.94	  349.24
     57.6569	  445.00	  446.86	-1793.86	  349.16
     57.6903	  423.00	  446.78	-1815.78	  349.07
     57.7237	  439.00	  446.69	-1799.69	  348.99
     57.7572	  414.00	  446.61	-1824.61	  348.91
     57.7906	  428.00	  446.53	-1810.53	  348.83
     57.8240	  482.00	  446.45	-1756.45	  348.75
     57.8574	  447.00	  446.36	-1791.36	  348.66
     57.8908	  475.00	  446.28	-1763.28	  348.58
     57.9243	  441.00	  446.20	-1797.20	  348.50
     57.9577	  481.00	  446.12	-1757.12	  348.42
     57.9911	  405.00	  446.03	-1833.03	  348.33
     58.0245	  427.00	  445.95	-1810.95	  348.25
     58.0580	  441.00	  445.87	-1796.87	  348.17
     58.0914	  430.00	  445.79	-1807.79	  348.09
     58.1248	  409.00	  445.70	-1828.70	  348.00
     58.1582	  410.00	  445.62	-1827.62	  347.92
     58.1917	  423.00	  445.54	-1814.54	  347.84
     58.2251	  420.00	  445.46	-1817.46	  347.76
     58.2585	  417.00	  445.38	-1820.38	  347.68
     58.2919	  466.00	  445.29	-1771.29	  347.59
     58.3253	  449.00	  445.21	-1788.21	  347.51
     58.3588	  468.00	  445.13	-1769.13	  347.43
     58.3922	  421.00	  445.05	-1816.05	  347.35
     58.4256	  451.00	  444.96	-1785.96	  347.26
     58.4590	  477.00	  444.88	-1759.88	  347.18
     58.4925	  426.00	  444.80	-1810.80	  347.10
     58.5259	  446.00	  444.72	-1790.72	  347.02
     58.5593	  434.00	  444.63	-1802.63	  346.93
     58.5927	  435.00	  444.55	-1801.55	  346.85
     58.6261	  426.00	  444.47	-1810.47	  346.77
     58.6596	  452.00	  444.39	-1784.39	  346.69
     58.6930	  434.00	  444.31	-1802.31	  346.60
     58.7264	  443.00	  444.22	-1793.22	  346.52
     58.7598	  436.00	  444.14	-1800.14	  346.44
     58.7933	  443.00	  444.06	-1793.06	  346.36
     58.8267	  462.00	  443.98	-1773.98	  346.28
     58.8601	  411.00	  443.89	-1824.89	  346.19
     58.8935	  460.00	  443.81	-1775.81	  346.11
     58.9269	  408.00	  443.73	-1827.73	  346.03
     58.9604	  437.00	  443.65	-1798.65	  345.95
     58.9938	  429.00	  443.56	-1806.56	  345.86
     59.0272	  502.00	  443.48	-1733.48	  345.78
     59.0606	  477.00	  443.40	-1758.40	  345.70
     59.0941	  441.00	  443.32	-1794.32	  345.62
     59.1275	  462.00	  443.24	-1773.24	  345.53
     59.1609	  435.00	  443.15	-1800.15	  345.45
     59.1943	  382.00	  443.07	-1853.07	  345.37
     59.2277	  439.00	  442.99	-1795.99	  345.29
     59.2612	  440.00	  442.91	-1794.91	  345.21
     59.2946	  440.00	  442.82	-1794.82	  345.12
     59.3280	  448.00	  442.74	-1786.74	  345.04
     59.3614	  423.00	  442.66	-1811.66	  344.96
     59.3949	  443.00	  442.58	-1791.58	  344.88
     59.4283	  430.00	  442.49	-1804.49	  344.79
     59.4617	  491.00	  442.41	-1743.41	  344.71
     59.4951	  444.00	  442.33	-1790.33	  344.63
     59.5285	  410.00	  442.25	-1824.25	  344.55
     59.5620	  430.00	  442.16	-1804.16	  344.46
     59.5954	  406.00	  442.08	-1828.08	  344.38
     59.6288	  387.00	  442.00	-1847.00	  344.30
     59.6622	  427.00	  441.92	-1806.92	  344.22
     59.6957	  464.00	  441.83	-1769.83	  344.13
     59.7291	  437.00	  441.75	-1796.75	  344.05
     59.7625	  429.00	  441.67	-1804.67	  343.97
     59.7959	  410.00	  441.58	-1823.58	  343.88
     59.8294	  425.00	  441.50	-1808.50	  343.80
     59.8628	  413.00	  441.42	-1820.42	  343.72
     59.8962	  488.00	  441.33	-1745.33	  343.63
     59.9296	  397.00	  441.25	-1836.25	  343.55
     59.9630	  413.00	  441.17	-1820.17	  343.47
     59.9965	  450.00	  441.08	-1783.08	  343.38
     60.0299	  448.00	  441.00	-1785.00	  343.30
     60.0633	  462.00	  440.92	-1770.92	  343.22
     60.0967	  389.00	  440.83	-1843.83	  343.13
     60.1302	  420.00	  440.75	-1812.75	  343.05
     60.1636	  451.00	  440.67	-1781.67	  342.97
     60.1970	  436.00	  440.58	-1796.58	  342.88
     60.2304	  456.00	  440.50	-1776.50	  342.80
     60.2638	  451.00	  440.42	-1781.42	  342.72
     60.2973	  415.00	  440.33	-1817.33	  342.63
     60.3307	  437.00	  440.25	-1795.25	  342.55
     60.3641	  427.00	  440.17	-1805.17	  342.47
     60.3975	  420.00	  440.09	-1812.09	  342.38
     60.4310	  398.00	  440.00	-1834.00	  342.30
     60.4644	  418.00	  439.92	-1813.92	  342.22
     60.4978	  459.00	  439.84	-1772.84	  342.14
     60.5312	  439.00	  439.75	-1792.75	  342.05
     60.5647	  462.00	  439.67	-1769.67	  341.97
     60.5981	  400.00	  439.59	-1831.59	  341.89
     60.6315	  425.00	  439.50	-1806.50	  341.80
     60.6649	  448.00	  439.42	-1783.42	  341.72
     60.6983	  426.00	  439.34	-1805.34	  341.64
     60.7318	  406.00	  439.25	-1825.25	  341.55
     60.7652	  474.00	  439.17	-1757.17	  341.47
     60.7986	  471.00	  439.09	-1760.09	  341.39
     60.8320	  459.00	  439.00	-1772.00	  341.30
     60.8654	  438.00	  438.92	-1792.92	  341.22
     60.8989	  438.00	  438.84	-1792.84	  341.14
     60.9323	  429.00	  438.75	-1801.75	  341.05
     60.9657	  424.00	  438.67	-1806.67	  340.97
     60.9991	  420.00	  438.59	-1810.59	  340.89
     61.0326	  420.00	  438.50	-1810.50	  340.80
     61.0660	  462.00	  438.42	-1768.42	  340.72
     61.0994	  426.00	  438.34	-1804.34	  340.64
     61.1328	  419.00	  438.25	-1811.25	  340.55
     61.1663	  421.00	  438.17	-1809.17	  340.47
     61.1997	  450.00	  438.09	-1780.09	  340.39
     61.2331	  479.00	  438.00	-1751.00	  340.30
     61.2665	  449.00	  437.92	-1780.92	  340.22
     61.2999	  419.00	  437.84	-1810.84	  340.14
     61.3334	  439.00	  437.75	-1790.76	  340.05
     61.3668	  461.00	  437.67	-1768.67	  339.97
     61.4002	  448.00	  437.59	-1781.59	  339.89
     61.4336	  417.00	  437.51	-1812.51	  339.80
     61.4671	  460.00	  437.42	-1769.42	  339.72
     61.5005	  411.00	  437.34	-1818.34	  339.64
     61.5339	  414.00	  437.26	-1815.26	  339.56
     61.5673	  397.00	  437.17	-1832.17	  339.47
     61.6007	  444.00	  437.09	-1785.09	  339.39
     61.6342	  416.00	  437.01	-1813.01	  339.31
     61.6676	  411.00	  436.92	-1817.92	  339.22
     61.7010	  435.00	  436.84	-1793.84	  339.14
     61.7344	  434.00	  436.76	-1794.76	  339.06
     61.7679	  419.00	  436.67	-1809.67	  338.97
     61.8013	  409.00	  436.59	-1819.59	  338.89
     61.8347	  427.00	  436.51	-1801.51	  338.81
     61.8681	  447.00	  436.42	-1781.42	  338.72
     61.9016	  437.00	  436.34	-1791.34	  338.64
     61.9350	  447.00	  436.26	-1781.26	  338.56
     61.9684	  462.00	  436.17	-1766.17	  338.47
     62.0018	  431.00	  436.09	-1797.09	  338.39
     62.0352	  434.00	  436.01	-1794.01	  338.31
     62.0687	  472.00	  435.92	-1755.92	  338.22
     62.1021	  417.00	  435.84	-1810.84	  338.14
     62.1355	  435.00	  435.76	-1792.76	  338.06
     62.1689	  378.00	  435.67	-1849.67	  337.97
     62.2024	  425.00	  435.59	-1802.59	  337.89
     62.2358	  414.00	  435.51	-1813.51	  337.81
     62.2692	  423.00	  435.42	-1804.42	  337.72
     62.3026	  440.00	  435.34	-1787.34	  337.64
     62.3360	  435.00	  435.26	-1792.26	  337.56
     62.3695	  455.00	  435.18	-1772.18	  337.47
     62.4029	  440.00	  435.09	-1787.09	  337.39
     62.4363	  464.00	  435.01	-1763.01	  337.31
     62.4697	  433.00	  434.93	-1793.93	  337.23
     62.5032	  441.00	  434.84	-1785.84	  337.14
     62.5366	  384.00	  434.76	-1842.76	  337.06
     62.5700	  425.00	  434.68	-1801.68	  336.98
     62.6034	  444.00	  434.59	-1782.59	  336.89
     62.6368	  451.00	  434.51	-1775.51	  336.81
     62.6703	  448.00	  434.43	-1778.43	  336.73
     62.7037	  441.00	  434.34	-1785.34	  336.64
     62.7371	  428.00	  434.26	-1798.26	  336.56
     62.7705	  455.00	  434.18	-1771.18	  336.48
     62.8040	  480.00	  434.09	-1746.09	  336.39
     62.8374	  440.00	  434.01	-1786.01	  336.31
     62.8708	  425.00	  433.95	-1800.95	  336.25
     62.9042	  435.00	  433.89	-1790.89	  336.19
     62.9377	  406.00	  433.84	-1819.84	  336.14
     62.9711	  444.00	  433.78	-1781.78	  336.08
     63.0045	  456.00	  433.73	-1769.73	  336.03
     63.0379	  418.00	  433.67	-1807.67	  335.97
     63.0713	  441.00	  433.62	-1784.62	  335.92
     63.1048	  399.00	  433.56	-1826.56	  335.86
     63.1382	  395.00	  433.51	-1830.51	  335.81
     63.1716	  397.00	  433.45	-1828.45	  335.75
     63.2050	  459.00	  433.40	-1766.40	  335.69
     63.2384	  438.00	  433.34	-1787.34	  335.64
     63.2719	  429.00	  433.28	-1796.28	  335.58
     63.3053	  398.00	  433.23	-1827.23	  335.53
     63.3387	  433.00	  433.17	-1792.17	  335.47
     63.3721	  436.00	  433.12	-1789.12	  335.42
     63.4056	  431.00	  433.06	-1794.06	  335.36
     63.4390	  436.00	  433.01	-1789.01	  335.31
     63.4724	  394.00	  432.95	-1830.95	  335.25
     63.5058	  411.00	  432.90	-1813.90	  335.20
     63.5393	  474.00	  432.84	-1750.84	  335.14
     63.5727	  424.00	  432.78	-1800.78	  335.08
     63.6061	  452.00	  432.73	-1772.73	  335.03
     63.6395	  433.00	  432.67	-1791.67	  334.97
     63.6729	  445.00	  432.62	-1779.62	  334.92
     63.7064	  419.00	  432.56	-1805.56	  334.86
     63.7398	  380.00	  432.51	-1844.51	  334.81
     63.7732	  436.00	  432.45	-1788.45	  334.75
     63.8066	  410.00	  432.40	-1814.40	  334.70
     63.8401	  451.00	  432.34	-1773.34	  334.64
     63.8735	  449.00	  432.29	-1775.29	  334.59
     63.9069	  425.00	  432.23	-1799.23	  334.53
     63.9403	  425.00	  432.17	-1799.17	  334.47
     63.9737	  385.00	  432.12	-1839.12	  334.42
     64.0072	  415.00	  432.06	-1809.06	  334.36
     64.0406	  420.00	  432.01	-1804.01	  334.31
     64.0740	  396.00	  431.95	-1827.95	  334.25
     64.1074	  430.00	  431.90	-1793.90	  334.20
     64.1409	  428.00	  431.84	-1795.84	  334.14
     64.1743	  388.00	  431.79	-1835.79	  334.09
     64.2077	  429.00	  431.73	-1794.73	  334.03
     64.2411	  408.00	  431.68	-1815.68	  333.97
     64.2746	  384.00	  431.62	-1839.62	  333.92
     64.3080	  421.00	  431.56	-1802.56	  333.86
     64.3414	  443.00	  431.51	-1780.51	  333.81
     64.3748	  429.00	  431.45	-1794.45	  333.75
     64.4082	  421.00	  431.40	-1802.40	  333.70
     64.4417	  452.00	  431.34	-1771.34	  333.64
     64.4751	  480.00	  431.29	-1743.29	  333.59
     64.5085	  407.00	  431.23	-1816.23	  333.53
     64.5419	  421.00	  431.18	-1802.18	  333.48
     64.5754	  398.00	  431.12	-1825.12	  333.42
     64.6088	  447.00	  431.07	-1776.07	  333.36
     64.6422	  433.00	  431.01	-1790.01	  333.31
     64.6756	  396.00	  430.95	-1826.95	  333.25
     64.7090	  449.00	  430.90	-1773.90	  333.20
     64.7425	  415.00	  430.84	-1807.84	  333.14
     64.7759	  417.00	  430.79	-1805.79	  333.09
     64.8093	  408.00	  430.73	-1814.73	  333.03
     64.8427	  436.00	  430.68	-1786.68	  332.98
     64.8762	  415.00	  430.62	-1807.62	  332.92
     64.9096	  425.00	  430.57	-1797.57	  332.87
     64.9430	  424.00	  430.51	-1798.51	  332.81
     64.9764	  409.00	  430.45	-1813.45	  332.75
     65.0098	  410.00	  430.40	-1812.40	  332.70
     65.0433	  415.00	  430.34	-1807.34	  332.64
     65.0767	  425.00	  430.29	-1797.29	  332.59
     65.1101	  414.00	  430.23	-1808.23	  332.53
     65.1435	  454.00	  430.18	-1768.18	  332.48
     65.1770	  424.00	  430.12	-1798.12	  332.42
     65.2104	  452.00	  430.07	-1770.07	  332.37
     65.2438	  416.00	  430.01	-1806.01	  332.31
     65.2772	  419.00	  429.96	-1802.96	  332.26
     65.3106	  439.00	  429.90	-1782.90	  332.20
     65.3441	  426.00	  429.84	-1795.84	  332.14
     65.3775	  404.00	  429.79	-1817.79	  332.09
     65.4109	  402.00	  429.73	-1819.73	  332.03
     65.4443	  408.00	  429.68	-1813.68	  331.98
     65.4778	  414.00	  429.62	-1807.62	  331.92
     65.5112	  386.00	  429.57	-1835.57	  331.87
     65.5446	  403.00	  429.51	-1818.51	  331.81
     65.5780	  410.00	  429.46	-1811.46	  331.76
     65.6115	  425.00	  429.40	-1796.40	  331.70
     65.6449	  425.00	  429.35	-1796.35	  331.64
     65.6783	  450.00	  429.29	-1771.29	  331.59
     65.7117	  417.00	  429.23	-1804.23	  331.53
     65.7451	  470.00	  429.18	-1751.18	  331.48
     65.7786	  405.00	  429.12	-1816.12	  331.42
     65.8120	  423.00	  429.07	-1798.07	  331.37
     65.8454	  420.00	  429.01	-1801.01	  331.31
     65.8788	  411.00	  428.96	-1809.96	  331.26
     65.9123	  415.00	  428.90	-1805.90	  331.20
     65.9457	  402.00	  428.85	-1818.85	  331.15
     65.9791	  424.00	  428.79	-1796.79	  331.09
     66.0125	  423.00	  428.73	-1797.73	  331.03
     66.0459	  415.00	  428.68	-1805.68	  330.98
     66.0794	  414.00	  428.62	-1806.62	  330.92
     66.1128	  425.00	  428.52	-1795.52	  330.82
     66.1462	  414.00	  428.37	-1806.37	  330.67
     66.1796	  388.00	  428.21	-1832.21	  330.51
     66.2131	  433.00	  428.06	-1787.06	  330.36
     66.2465	  374.00	  427.91	-1845.91	  330.21
     66.2799	  443.00	  427.75	-1776.75	  330.05
     66.3133	  437.00	  427.60	-1782.60	  329.90
     66.3467	  394.00	  427.45	-1825.45	  329.75
     66.3802	  416.00	  427.29	-1803.29	  329.59
     66.4136	  429.00	  427.14	-1790.14	  329.44
     66.4470	  426.00	  426.99	-1792.99	  329.29
     66.4804	  396.00	  426.84	-1822.84	  329.14
     66.5139	  410.00	  426.68	-1808.68	  328.98
     66.5473	  434.00	  426.53	-1784.53	  328.83
     66.5807	  404.00	  426.38	-1814.38	  328.68
     66.6141	  405.00	  426.22	-1813.22	  328.52
     66.6476	  433.00	  426.07	-1785.07	  328.37
     66.6810	  430.00	  425.92	-1787.92	  328.22
     66.7144	  414.00	  425.76	-1803.76	  328.06
     66.7478	  413.00	  425.61	-1804.61	  327.91
     66.7812	  443.00	  425.46	-1774.46	  327.76
     66.8147	  407.00	  425.30	-1810.30	  327.60
     66.8481	  425.00	  425.15	-1792.15	  327.45
     66.8815	  405.00	  425.00	-1812.00	  327.30
     66.9149	  420.00	  424.84	-1796.84	  327.14
     66.9484	  428.00	  424.69	-1788.69	  326.99
     66.9818	  417.00	  424.54	-1799.54	  326.84
     67.0152	  438.00	  424.39	-1778.39	  326.69
     67.0486	  405.00	  424.23	-1811.23	  326.53
     67.0820	  385.00	  424.08	-1831.08	  326.38
     67.1155	  426.00	  423.93	-1789.93	  326.23
     67.1489	  424.00	  423.77	-1791.77	  326.07
     67.1823	  402.00	  423.62	-1813.62	  325.92
     67.2157	  396.00	  423.47	-1819.47	  325.77
     67.2492	  415.00	  423.31	-1800.31	  325.61
     67.2826	  404.00	  423.16	-1811.16	  325.46
     67.3160	  395.00	  423.01	-1820.01	  325.31
     67.3494	  400.00	  422.85	-1814.85	  325.15
     67.3828	  416.00	  422.70	-1798.70	  325.00
     67.4163	  450.00	  422.55	-1764.55	  324.85
     67.4497	  375.00	  422.39	-1839.39	  324.69
     67.4831	  436.00	  422.24	-1778.24	  324.54
     67.5165	  390.00	  422.09	-1824.09	  324.39
     67.5500	  434.00	  421.94	-1779.94	  324.24
     67.5834	  411.00	  421.78	-1802.78	  324.08
     67.6168	  460.00	  421.63	-1753.63	  323.93
     67.6502	  382.00	  421.48	-1831.48	  323.78
     67.6836	  445.00	  421.32	-1768.32	  323.62
     67.7171	  434.00	  421.17	-1779.17	  323.47
     67.7505	  415.00	  421.02	-1798.02	  323.32
     67.7839	  430.00	  420.86	-1782.86	  323.16
     67.8173	  389.00	  420.71	-1823.71	  323.01
     67.8508	  446.00	  420.56	-1766.56	  322.86
     67.8842	  405.00	  420.40	-1807.40	  322.70
     67.9176	  395.00	  420.25	-1817.25	  322.55
     67.9510	  435.00	  420.10	-1777.10	  322.40
     67.9845	  406.00	  419.94	-1805.94	  322.24
     68.0179	  398.00	  419.79	-1813.79	  322.09
     68.0513	  386.00	  419.64	-1825.64	  321.94
     68.0847	  425.00	  419.49	-1786.49	  321.79
     68.1181	  451.00	  419.33	-1760.33	  321.63
     68.1516	  415.00	  419.18	-1796.18	  321.48
     68.1850	  415.00	  419.03	-1796.03	  321.33
     68.2184	  375.00	  418.87	-1835.87	  321.17
     68.2518	  389.00	  418.72	-1821.72	  321.02
     68.2853	  445.00	  418.57	-1765.57	  320.87
     68.3187	  440.00	  418.41	-1770.41	  320.71
     68.3521	  425.00	  418.26	-1785.26	  320.56
     68.3855	  467.00	  418.11	-1743.11	  320.41
     68.4189	  415.00	  417.95	-1794.95	  320.25
     68.4524	  405.00	  417.80	-1804.80	  320.10
     68.4858	  385.00	  417.65	-1824.65	  319.95
     68.5192	  419.00	  417.49	-1790.49	  319.79
     68.5526	  408.00	  417.34	-1801.34	  319.64
     68.5861	  408.00	  417.19	-1801.19	  319.49
     68.6195	  372.00	  417.04	-1837.04	  319.34
     68.6529	  421.00	  416.88	-1787.88	  319.18
     68.6863	  393.00	  416.73	-1815.73	  319.03
     68.7197	  427.00	  416.58	-1781.58	  318.88
     68.7532	  441.00	  416.42	-1767.42	  318.72
     68.7866	  433.00	  416.27	-1775.27	  318.57
     68.8200	  423.00	  416.12	-1785.12	  318.42
     68.8534	  376.00	  415.96	-1831.96	  318.26
     68.8869	  398.00	  415.81	-1809.81	  318.11
     68.9203	  437.00	  415.66	-1770.66	  317.96
     68.9537	  455.00	  415.50	-1752.50	  317.80
     68.9871	  403.00	  415.35	-1804.35	  317.65
     69.0206	  409.00	  415.20	-1798.20	  317.50
     69.0540	  382.00	  415.04	-1825.04	  317.34
     69.0874	  421.00	  414.89	-1785.89	  317.19
     69.1208	  424.00	  414.74	-1782.74	  317.04
     69.1542	  456.00	  414.59	-1750.59	  316.89
     69.1877	  405.00	  414.43	-1801.43	  316.73
     69.2211	  414.00	  414.28	-1792.28	  316.58
     69.2545	  372.00	  414.13	-1834.13	  316.43
     69.2879	  413.00	  413.97	-1792.97	  316.27
     69.3214	  376.00	  413.82	-1829.82	  316.12
     69.3548	  440.00	  413.67	-1765.67	  315.97
     69.3882	  407.00	  413.51	-1798.51	  315.81
     69.4216	  431.00	  413.36	-1774.36	  315.66
     69.4550	  413.00	  413.21	-1792.21	  315.51
     69.4885	  397.00	  413.05	-1808.05	  315.35
     69.5219	  426.00	  412.90	-1778.90	  315.20
     69.5553	  405.00	  412.75	-1799.75	  315.05
     69.5887	  377.00	  412.59	-1827.59	  314.89
     69.6222	  384.00	  412.44	-1820.44	  314.74
     69.6556	  441.00	  412.40	-1763.40	  314.70
     69.6890	  435.00	  412.40	-1769.40	  314.70
     69.7224	  436.00	  412.40	-1768.40	  314.70
     69.7558	  437.00	  412.40	-1767.40	  314.70
     69.7893	  446.00	  412.40	-1758.40	  314.70
     69.8227	  395.00	  412.40	-1809.40	  314.70
     69.8561	  451.00	  412.40	-1753.40	  314.70
     69.8895	  418.00	  412.40	-1786.40	  314.70
     69.9230	  424.00	  412.40	-1780.40	  314.70
     69.9564	  415.00	  412.40	-1789.40	  314.70
     69.9898	  447.00	  412.40	-1757.40	  314.70
     70.0232	  376.00	  412.40	-1828.40	  314.70
     70.0566	  469.00	  412.40	-1735.40	  314.70
     70.0901	  476.00	  412.40	-1728.40	  314.70
     70.1235	  436.00	  412.40	-1768.40	  314.70
     70.1569	  399.00	  412.40	-1805.40	  314.70
     70.1903	  413.00	  412.40	-1791.40	  314.70
     70.2238	  395.00	  412.40	-1809.40	  314.70
     70.2572	  379.00	  412.40	-1825.40	  314.70
     70.2906	  389.00	  412.40	-1815.40	  314.70
     70.3240	  434.00	  412.40	-1770.40	  314.70
     70.3575	  434.00	  412.40	-1770.40	  314.70
     70.3909	  402.00	  412.40	-1802.40	  314.70
     70.4243	  448.00	  412.40	-1756.40	  314.70
     70.4577	  420.00	  412.40	-1784.40	  314.70
     70.4911	  371.00	  412.40	-1833.40	  314.70
     70.5246	  408.00	  412.40	-1796.40	  314.70
     70.5580	  415.00	  412.40	-1789.40	  314.70
     70.5914	  421.00	  412.40	-1783.40	  314.70
     70.6248	  398.00	  412.40	-1806.40	  314.70
     70.6583	  471.00	  412.40	-1733.40	  314.70
     70.6917	  407.00	  412.40	-1797.40	  314.70
     70.7251	  408.00	  412.40	-1796.40	  314.70
     70.7585	  396.00	  412.40	-1808.40	  314.70
     70.7919	  467.00	  412.40	-1737.40	  314.70
     70.8254	  447.00	  412.40	-1757.40	  314.70
     70.8588	  427.00	  412.40	-1777.40	  314.70
     70.8922	  405.00	  412.40	-1799.40	  314.70
     70.9256	  416.00	  412.40	-1788.40	  314.70
     70.9591	  426.00	  412.40	-1778.40	  314.70
     70.9925	  375.00	  412.40	-1829.40	  314.70
     71.0259	  410.00	  412.40	-1794.40	  314.70
     71.0593	  421.00	  412.40	-1783.40	  314.70
     71.0928	  437.00	  412.40	-1767.40	  314.70
     71.1262	  444.00	  412.40	-1760.40	  314.70
     71.1596	  409.00	  412.40	-1795.40	  314.70
     71.1930	  439.00	  412.40	-1765.40	  314.70
     71.2264	  448.00	  412.40	-1756.40	  314.70
     71.2599	  425.00	  412.40	-1779.40	  314.70
     71.2933	  395.00	  412.40	-1809.40	  314.70
     71.3267	  390.00	  412.40	-1814.40	  314.70
     71.3601	  428.00	  412.40	-1776.40	  314.70
     71.3936	  462.00	  412.40	-1742.40	  314.70
     71.4270	  460.00	  412.40	-1744.40	  314.70
     71.4604	  409.00	  412.40	-1795.40	  314.70
     71.4938	  427.00	  412.40	-1777.40	  314.70
     71.5272	  379.00	  412.40	-1825.40	  314.70
     71.5607	  414.00	  412.40	-1790.40	  314.70
     71.5941	  378.00	  412.40	-1826.40	  314.70
     71.6275	  419.00	  412.40	-1785.40	  314.70
     71.6609	  409.00	  412.40	-1795.40	  314.70
     71.6944	  418.00	  412.40	-1786.40	  314.70
     71.7278	  403.00	  412.40	-1801.40	  314.70
     71.7612	  430.00	  412.40	-1774.40	  314.70
     71.7946	  429.00	  412.40	-1775.40	  314.70
     71.8280	  449.00	  412.40	-1755.40	  314.70
     71.8615	  470.00	  412.40	-1734.40	  314.70
     71.8949	  418.00	  412.40	-1786.40	  314.70
     71.9283	  395.00	  412.40	-1809.40	  314.70
     71.9617	  426.00	  412.40	-1778.40	  314.70
     71.9952	  455.00	  412.40	-1749.40	  314.70
     72.0286	  409.00	  412.40	-1795.40	  314.70
     72.0620	  459.00	  412.40	-1745.40	  314.70
     72.0954	  435.00	  412.40	-1769.40	  314.70
     72.1288	  404.00	  412.40	-1800.40	  314.70
     72.1623	  411.00	  412.40	-1793.40	  314.70
     72.1957	  402.00	  412.40	-1802.40	  314.70
     72.2291	  407.00	  412.40	-1797.40	  314.70
     72.2625	  397.00	  412.40	-1807.40	  314.70
     72.2960	  446.00	  412.40	-1758.40	  314.70
     72.3294	  445.00	  412.40	-1759.40	  314.70
     72.3628	  409.00	  412.40	-1795.40	  314.70
     72.3962	  419.00	  412.40	-1785.40	  314.70
     72.4296	  430.00	  412.40	-1774.40	  314.70
     72.4631	  427.00	  412.40	-1777.40	  314.70
     72.4965	  410.00	  412.40	-1794.40	  314.70
     72.5299	  469.00	  412.40	-1735.40	  314.70
     72.5633	  459.00	  412.40	-1745.40	  314.70
     72.5968	  380.00	  412.40	-1824.40	  314.70
     72.6302	  417.00	  412.40	-1787.40	  314.70
     72.6636	  437.00	  412.40	-1767.40	  314.70
     72.6970	  426.00	  412.40	-1778.40	  314.70
     72.7305	  395.00	  412.40	-1809.40	  314.70
     72.7639	  420.00	  412.40	-1784.40	  314.70
     72.7973	  425.00	  412.40	-1779.40	  314.70
     72.8307	  409.00	  412.40	-1795.40	  314.70
     72.8641	  429.00	  412.40	-1775.40	  314.70
     72.8976	  413.00	  412.40	-1791.40	  314.70
     72.9310	  434.00	  412.40	-1770.40	  314.70
     72.9644	  408.00	  412.40	-1796.40	  314.70
     72.9978	  437.00	  412.40	-1767.40	  314.70
     73.0313	  420.00	  412.40	-1784.40	  314.70
     73.0647	  398.00	  412.40	-1806.40	  314.70
     73.0981	  415.00	  412.40	-1789.40	  314.70
     73.1315	  415.00	  412.40	-1789.40	  314.70
     73.1649	  438.00	  412.40	-1766.40	  314.70
     73.1984	  424.00	  412.40	-1780.40	  314.70
     73.2318	  397.00	  412.40	-1807.40	  314.70
     73.2652	  452.00	  412.40	-1752.40	  314.70
     73.2986	  415.00	  412.40	-1789.40	  314.70
     73.3321	  384.00	  412.40	-1820.40	  314.70
     73.3655	  430.00	  412.40	-1774.40	  314.70
     73.3989	  428.00	  412.40	-1776.40	  314.70
     73.4323	  431.00	  412.40	-1773.40	  314.70
     73.4658	  430.00	  412.40	-1774.40	  314.70
     73.4992	  434.00	  412.40	-1770.40	  314.70
     73.5326	  430.00	  412.40	-1774.40	  314.70
     73.5660	  426.00	  412.40	-1778.40	  314.70
     73.5994	  444.00	  412.40	-1760.40	  314.70
     73.6329	  420.00	  412.40	-1784.40	  314.70
     73.6663	  415.00	  412.40	-1789.40	  314.70
     73.6997	  418.00	  412.40	-1786.40	  314.70
     73.7331	  457.00	  412.40	-1747.40	  314.70
     73.7665	  420.00	  412.40	-1784.40	  314.70
     73.8000	  431.00	  412.40	-1773.40	  314.70
     73.8334	  429.00	  412.40	-1775.40	  314.70
     73.8668	  433.00	  412.40	-1771.40	  314.70
     73.9002	  416.00	  412.40	-1788.40	  314.70
     73.9337	  458.00	  412.40	-1746.40	  314.70
     73.9671	  404.00	  412.40	-1800.40	  314.70
     74.0005	  455.00	  412.40	-1749.40	  314.70
     74.0339	  419.00	  412.40	-1785.40	  314.70
     74.0674	  405.00	  412.40	-1799.40	  314.70
     74.1008	  398.00	  412.40	-1806.40	  314.70
     74.1342	  437.00	  412.40	-1767.40	  314.70
     74.1676	  413.00	  419.66	-1798.66	  314.70
     74.2010	  426.00	  419.89	-1785.89	  314.70
     74.2345	  423.00	  420.13	-1789.13	  314.70
     74.2679	  452.00	  420.38	-1760.38	  314.70
     74.3013	  434.00	  420.64	-1778.64	  314.70
     74.3347	  410.00	  420.92	-1802.92	  314.70
     74.3682	  400.00	  421.21	-1813.21	  314.70
     74.4016	  382.00	  425.18	-1835.18	  314.70
     74.4350	  433.00	  425.62	-1784.62	  314.70
     74.4684	  464.00	  426.08	-1754.08	  314.70
     74.5018	  402.00	  426.57	-1816.57	  314.70
     74.5353	  447.00	  427.08	-1772.08	  314.70
     74.5687	  440.00	  427.61	-1779.61	  314.70
     74.6021	  406.00	  428.18	-1814.18	  314.70
     74.6355	  419.00	  428.78	-1801.78	  314.70
     74.6690	  404.00	  429.42	-1817.42	  314.70
     74.7024	  448.00	  430.09	-1774.09	  314.70
     74.7358	  433.00	  430.80	-1789.80	  314.70
     74.7692	  408.00	  431.56	-1815.56	  314.70
     74.8027	  445.00	  432.36	-1779.36	  314.70
     74.8361	  446.00	  433.22	-1779.22	  314.70
     74.8695	  424.00	  434.13	-1802.13	  314.70
     74.9029	  449.00	  435.10	-1778.10	  314.70
     74.9363	  437.00	  436.14	-1791.14	  314.70
     74.9698	  413.00	  437.25	-1816.25	  314.70
     75.0032	  464.00	  438.44	-1766.44	  314.70
     75.0366	  419.00	  439.72	-1812.72	  314.70
     75.0700	  464.00	  441.09	-1769.09	  314.70
     75.1035	  506.00	  442.57	-1728.57	  314.70
     75.1369	  464.00	  444.16	-1772.16	  314.70
     75.1703	  452.00	  445.89	-1785.89	  314.70
     75.2037	  438.00	  447.75	-1801.75	  314.70
     75.2371	  491.00	  449.78	-1750.78	  314.70
     75.2706	  440.00	  451.98	-1803.98	  314.70
     75.3040	  448.00	  454.38	-1798.38	  314.70
     75.3374	  489.00	  457.00	-1760.00	  314.70
     75.3708	  421.00	  459.87	-1830.87	  314.70
     75.4043	  458.00	  463.02	-1797.02	  314.70
     75.4377	  483.00	  466.49	-1775.49	  314.70
     75.4711	  448.00	  470.33	-1814.33	  314.70
     75.5045	  464.00	  474.58	-1802.58	  314.70
     75.5379	  445.00	  479.31	-1826.31	  314.70
     75.5714	  458.00	  484.58	-1818.58	  314.70
     75.6048	  478.00	  490.49	-1804.49	  314.70
     75.6382	  503.00	  497.14	-1786.14	  314.70
     75.6716	  496.00	  504.66	-1800.66	  314.70
     75.7051	  483.00	  513.19	-1822.19	  314.70
     75.7385	  512.00	  522.92	-1802.92	  314.70
     75.7719	  497.00	  534.07	-1829.07	  314.70
     75.8053	  553.00	  546.92	-1785.92	  314.70
     75.8387	  562.00	  561.79	-1791.79	  314.70
     75.8722	  602.00	  579.09	-1769.09	  314.70
     75.9056	  591.00	  599.29	-1800.29	  314.70
     75.9390	  612.00	  622.94	-1802.94	  314.70
     75.9724	  654.00	  650.70	-1788.70	  314.70
     76.0059	  665.00	  683.31	-1810.31	  314.70
     76.0393	  709.00	  721.51	-1804.51	  314.70
     76.0727	  790.00	  765.98	-1767.98	  314.70
     76.1061	  796.00	  817.17	-1813.17	  314.70
     76.1395	  884.00	  874.93	-1782.93	  314.70
     76.1730	 1027.00	  938.04	-1703.04	  314.70
     76.2064	 1147.00	 1003.62	-1648.62	  314.70
     76.2398	 1208.00	 1066.77	-1650.77	  314.70
     76.2732	 1272.00	 1121.06	-1641.06	  314.70
     76.3067	 1410.00	 1160.09	-1542.09	  314.70
     76.3401	 1410.00	 1179.93	-1561.93	  314.70
     76.3735	 1420.00	 1180.78	-1552.78	  314.70
     76.4069	 1319.00	 1166.49	-1639.49	  314.70
     76.4404	 1290.00	 1142.02	-1644.02	  314.70
     76.4738	 1329.00	 1110.96	-1573.96	  314.70
     76.5072	 1279.00	 1074.54	-1587.54	  314.70
     76.5406	 1176.00	 1032.63	-1648.63	  314.70
     76.5740	 1126.00	  985.15	-1651.15	  314.70
     76.6075	 1082.00	  933.41	-1643.41	  314.70
     76.6409	  918.00	  879.93	-1753.93	  314.70
     76.6743	  893.00	  827.57	-1726.57	  314.70
     76.7077	  754.00	  778.59	-1816.59	  314.70
     76.7412	  794.00	  734.34	-1732.34	  314.70
     76.7746	  662.00	  695.33	-1825.33	  314.70
     76.8080	  624.00	  661.46	-1829.46	  314.70
     76.8414	  643.00	  632.31	-1781.31	  314.70
     76.8748	  561.00	  607.32	-1838.32	  314.70
     76.9083	  537.00	  585.92	-1840.92	  314.70
     76.9417	  559.00	  567.58	-1800.58	  314.70
     76.9751	  553.00	  551.81	-1790.81	  314.70
     77.0085	  497.00	  538.21	-1833.21	  314.70
     77.0420	  483.00	  526.43	-1835.43	  314.70
     77.0754	  500.00	  516.18	-1808.18	  314.70
     77.1088	  476.00	  507.22	-1823.22	  314.70
     77.1422	  479.00	  499.34	-1812.34	  314.70
     77.1757	  476.00	  492.39	-1808.39	  314.70
     77.2091	  439.00	  486.23	-1839.23	  314.70
     77.2425	  450.00	  480.75	-1822.75	  314.70
     77.2759	  456.00	  475.85	-1811.85	  314.70
     77.3093	  469.00	  471.45	-1794.45	  314.70
     77.3428	  465.00	  467.48	-1794.48	  314.70
     77.3762	  441.00	  463.90	-1814.90	  314.70
     77.4096	  469.00	  460.66	-1783.66	  314.70
     77.4430	  437.00	  457.71	-1812.71	  314.70
     77.4765	  445.00	  455.01	-1802.01	  314.70
     77.5099	  436.00	  452.55	-1808.55	  314.70
     77.5433	  436.00	  450.30	-1806.30	  314.70
     77.5767	  454.00	  448.23	-1786.23	  314.70
     77.6101	  450.00	  446.32	-1788.32	  314.70
     77.6436	  428.00	  444.56	-1808.56	  314.70
     77.6770	  450.00	  442.93	-1784.93	  314.70
     77.7104	  413.00	  441.42	-1820.42	  314.70
     77.7438	  402.00	  440.03	-1830.03	  314.70
     77.7773	  444.00	  438.72	-1786.72	  314.70
     77.8107	  433.00	  437.51	-1796.51	  314.70
     77.8441	  433.00	  436.38	-1795.38	  314.70
     77.8775	  438.00	  435.33	-1789.33	  314.70
     77.9109	  427.00	  434.34	-1799.34	  314.70
     77.9444	  428.00	  433.41	-1797.41	  314.70
     77.9778	  405.00	  432.54	-1819.54	  314.70
     78.0112	  446.00	  431.73	-1777.73	  314.70
     78.0446	  388.00	  430.96	-1834.96	  314.70
     78.0781	  410.00	  430.24	-1812.24	  314.70
     78.1115	  423.00	  429.56	-1798.56	  314.70
     78.1449	  405.00	  428.91	-1815.91	  314.70
     78.1783	  378.00	  428.30	-1842.30	  314.70
     78.2117	  433.00	  427.73	-1786.73	  314.70
     78.2452	  421.00	  427.19	-1798.19	  314.70
     78.2786	  456.00	  426.67	-1762.67	  314.70
     78.3120	  425.00	  426.18	-1793.18	  314.70
     78.3454	  440.00	  425.71	-1777.71	  314.70
     78.3789	  447.00	  425.27	-1770.27	  314.70
     78.4123	  408.00	  424.85	-1808.85	  314.70
     78.4457	  424.00	  424.45	-1792.45	  314.70
     78.4791	  397.00	  424.07	-1819.07	  314.70
     78.5126	  436.00	  416.71	-1772.71	  314.70
     78.5460	  434.00	  416.57	-1774.57	  314.70
     78.5794	  489.00	  416.44	-1719.44	  314.70
     78.6128	  430.00	  416.31	-1778.31	  314.70
     78.6462	  415.00	  416.19	-1793.19	  314.70
     78.6797	  409.00	  416.07	-1799.07	  314.70
     78.7131	  441.00	  412.40	-1763.40	  314.70
     78.7465	  423.00	  412.40	-1781.40	  314.70
     78.7799	  410.00	  412.40	-1794.40	  314.70
     78.8134	  424.00	  412.40	-1780.40	  314.70
     78.8468	  417.00	  412.40	-1787.40	  314.70
     78.8802	  403.00	  412.40	-1801.40	  314.70
     78.9136	  407.00	  412.40	-1797.40	  314.70
     78.9470	  435.00	  412.40	-1769.40	  314.70
     78.9805	  388.00	  412.40	-1816.40	  314.70
     79.0139	  443.00	  412.40	-1761.40	  314.70
     79.0473	  430.00	  412.40	-1774.40	  314.70
     79.0807	  417.00	  412.40	-1787.40	  314.70
     79.1142	  436.00	  412.40	-1768.40	  314.70
     79.1476	  429.00	  412.40	-1775.40	  314.70
     79.1810	  402.00	  412.40	-1802.40	  314.70
     79.2144	  440.00	  412.40	-1764.40	  314.70
     79.2478	  434.00	  412.40	-1770.40	  314.70
     79.2813	  465.00	  412.40	-1739.40	  314.70
     79.3147	  447.00	  412.40	-1757.40	  314.70
     79.3481	  385.00	  412.40	-1819.40	  314.70
     79.3815	  418.00	  412.40	-1786.40	  314.70
     79.4150	  468.00	  412.36	-1736.36	  314.66
     79.4484	  444.00	  412.31	-1760.31	  314.61
     79.4818	  429.00	  412.27	-1775.27	  314.57
     79.5152	  461.00	  412.22	-1743.22	  314.52
     79.5487	  492.00	  412.17	-1712.17	  314.47
     79.5821	  423.00	  412.12	-1781.12	  314.42
     79.6155	  464.00	  412.07	-1740.07	  314.37
     79.6489	  384.00	  412.03	-1820.03	  314.32
     79.6823	  426.00	  411.98	-1777.98	  314.28
     79.7158	  454.00	  411.93	-1749.93	  314.23
     79.7492	  444.00	  411.88	-1759.88	  314.18
     79.7826	  372.00	  411.83	-1831.83	  314.13
     79.8160	  424.00	  411.78	-1779.78	  314.08
     79.8494	  428.00	  411.74	-1775.74	  314.04
     79.8829	  447.00	  411.69	-1756.69	  313.99
     79.9163	  426.00	  411.64	-1777.64	  313.94
     79.9497	  434.00	  411.59	-1769.59	  313.89
     79.9831	  382.00	  411.54	-1821.54	  313.84
     80.0166	  466.00	  411.50	-1737.50	  313.80
     80.0500	  402.00	  411.45	-1801.45	  313.75
     80.0834	  421.00	  411.40	-1782.40	  313.70
     80.1168	  441.00	  411.35	-1762.35	  313.65
     80.1503	  434.00	  411.30	-1769.30	  313.60
     80.1837	  439.00	  411.25	-1764.25	  313.55
     80.2171	  389.00	  411.21	-1814.21	  313.51
     80.2505	  425.00	  411.16	-1778.16	  313.46
     80.2839	  420.00	  411.11	-1783.11	  313.41
     80.3174	  387.00	  411.06	-1816.06	  313.36
     80.3508	  418.00	  411.01	-1785.01	  313.31
     80.3842	  395.00	  410.97	-1807.97	  313.27
     80.4176	  447.00	  410.92	-1755.92	  313.22
     80.4511	  410.00	  410.87	-1792.87	  313.17
     80.4845	  434.00	  410.82	-1768.82	  313.12
     80.5179	  423.00	  410.77	-1779.77	  313.07
     80.5513	  425.00	  410.73	-1777.73	  313.02
     80.5847	  415.00	  410.68	-1787.68	  312.98
     80.6182	  407.00	  410.63	-1795.63	  312.93
     80.6516	  406.00	  410.58	-1796.58	  312.88
     80.6850	  444.00	  410.53	-1758.53	  312.83
     80.7184	  400.00	  410.48	-1802.48	  312.78
     80.7519	  394.00	  410.44	-1808.44	  312.74
     80.7853	  454.00	  410.39	-1748.39	  312.69
     80.8187	  407.00	  410.34	-1795.34	  312.64
     80.8521	  353.00	  410.29	-1849.29	  312.59
     80.8856	  385.00	  410.24	-1817.24	  312.54
     80.9190	  409.00	  410.20	-1793.20	  312.50
     80.9524	  419.00	  410.15	-1783.15	  312.45
     80.9858	  403.00	  410.10	-1799.10	  312.40
     81.0192	  413.00	  410.05	-1789.05	  312.35
     81.0527	  411.00	  410.00	-1791.00	  312.30
     81.0861	  388.00	  409.95	-1813.95	  312.25
     81.1195	  417.00	  409.91	-1784.91	  312.21
     81.1529	  386.00	  409.86	-1815.86	  312.16
     81.1864	  413.00	  409.81	-1788.81	  312.11
     81.2198	  460.00	  409.76	-1741.76	  312.06
     81.2532	  399.00	  409.71	-1802.71	  312.01
     81.2866	  425.00	  409.67	-1776.67	  311.97
     81.3200	  398.00	  409.62	-1803.62	  311.92
     81.3535	  372.00	  409.57	-1829.57	  311.87
     81.3869	  450.00	  409.52	-1751.52	  311.82
     81.4203	  383.00	  409.47	-1818.47	  311.77
     81.4537	  397.00	  409.43	-1804.43	  311.72
     81.4872	  404.00	  409.38	-1797.38	  311.68
     81.5206	  404.00	  409.33	-1797.33	  311.63
     81.5540	  474.00	  409.28	-1727.28	  311.58
     81.5874	  435.00	  409.23	-1766.23	  311.53
     81.6208	  458.00	  409.18	-1743.18	  311.48
     81.6543	  439.00	  409.14	-1762.14	  311.44
     81.6877	  396.00	  409.09	-1805.09	  311.39
     81.7211	  444.00	  409.04	-1757.04	  311.34
     81.7545	  383.00	  408.99	-1817.99	  311.29
     81.7880	  389.00	  408.94	-1811.94	  311.24
     81.8214	  394.00	  408.90	-1806.90	  311.19
     81.8548	  408.00	  408.85	-1792.85	  311.15
     81.8882	  393.00	  408.80	-1807.80	  311.10
     81.9217	  451.00	  408.75	-1749.75	  311.05
     81.9551	  457.00	  408.70	-1743.70	  311.00
     81.9885	  435.00	  408.65	-1765.65	  310.95
     82.0219	  410.00	  408.61	-1790.61	  310.91
     82.0553	  439.00	  408.56	-1761.56	  310.86
     82.0888	  430.00	  408.51	-1770.51	  310.81
     82.1222	  433.00	  408.46	-1767.46	  310.76
     82.1556	  421.00	  408.41	-1779.41	  310.71
     82.1890	  440.00	  408.37	-1760.37	  310.67
     82.2225	  414.00	  408.32	-1786.32	  310.62
     82.2559	  408.00	  408.27	-1792.27	  310.57
     82.2893	  438.00	  408.22	-1762.22	  310.52
     82.3227	  428.00	  408.17	-1772.17	  310.47
     82.3561	  428.00	  408.12	-1772.12	  310.42
     82.3896	  426.00	  408.08	-1774.08	  310.38
     82.4230	  414.00	  408.03	-1786.03	  310.33
     82.4564	  421.00	  407.98	-1778.98	  310.28
     82.4898	  421.00	  407.93	-1778.93	  310.23
     82.5233	  450.00	  407.88	-1749.88	  310.18
     82.5567	  416.00	  407.84	-1783.84	  310.14
     82.5901	  431.00	  407.79	-1768.79	  310.09
     82.6235	  429.00	  407.74	-1770.74	  310.04
     82.6569	  400.00	  407.69	-1799.69	  309.99
     82.6904	  425.00	  407.64	-1774.64	  309.94
     82.7238	  402.00	  407.60	-1797.60	  309.89
     82.7572	  419.00	  407.55	-1780.55	  309.85
     82.7906	  420.00	  407.50	-1779.50	  309.80
     82.8241	  465.00	  407.45	-1734.45	  309.75
     82.8575	  407.00	  407.40	-1792.40	  309.70
     82.8909	  377.00	  407.35	-1822.35	  309.65
     82.9243	  447.00	  407.31	-1752.31	  309.61
     82.9577	  396.00	  407.26	-1803.26	  309.56
     82.9912	  384.00	  407.21	-1815.21	  309.51
     83.0246	  392.00	  407.16	-1807.16	  309.46
     83.0580	  438.00	  407.11	-1761.11	  309.41
     83.0914	  407.00	  407.07	-1792.07	  309.37
     83.1249	  415.00	  407.02	-1784.02	  309.32
     83.1583	  452.00	  406.97	-1746.97	  309.27
     83.1917	  409.00	  406.92	-1789.92	  309.22
     83.2251	  424.00	  406.87	-1774.87	  309.17
     83.2586	  398.00	  406.82	-1800.82	  309.12
     83.2920	  403.00	  406.78	-1795.78	  309.08
     83.3254	  398.00	  406.73	-1800.73	  309.03
     83.3588	  396.00	  406.68	-1802.68	  308.98
     83.3922	  379.00	  406.63	-1819.63	  308.93
     83.4257	  411.00	  406.58	-1787.58	  308.88
     83.4591	  407.00	  406.54	-1791.54	  308.84
     83.4925	  420.00	  406.49	-1778.49	  308.79
     83.5259	  437.00	  406.44	-1761.44	  308.74
     83.5594	  403.00	  406.39	-1795.39	  308.69
     83.5928	  407.00	  406.34	-1791.34	  308.64
     83.6262	  423.00	  406.30	-1775.30	  308.59
     83.6596	  413.00	  406.25	-1785.25	  308.55
     83.6930	  400.00	  406.20	-1798.20	  308.50
     83.7265	  411.00	  406.15	-1787.15	  308.45
     83.7599	  425.00	  406.10	-1773.10	  308.40
     83.7933	  441.00	  406.05	-1757.05	  308.35
     83.8267	  438.00	  406.01	-1760.01	  308.31
     83.8602	  407.00	  405.96	-1790.96	  308.26
     83.8936	  417.00	  405.91	-1780.91	  308.21
     83.9270	  415.00	  405.86	-1782.86	  308.16
     83.9604	  426.00	  405.81	-1771.81	  308.11
     83.9939	  435.00	  405.77	-1762.77	  308.07
     84.0273	  396.00	  405.72	-1801.72	  308.02
     84.0607	  380.00	  405.67	-1817.67	  307.97
     84.0941	  461.00	  405.62	-1736.62	  307.92
     84.1275	  420.00	  405.57	-1777.57	  307.87
     84.1610	  444.00	  405.52	-1753.52	  307.82
     84.1944	  413.00	  405.48	-1784.48	  307.78
     84.2278	  405.00	  405.43	-1792.43	  307.73
     84.2612	  431.00	  405.38	-1766.38	  307.68
     84.2946	  446.00	  405.33	-1751.33	  307.63
     84.3281	  434.00	  405.28	-1763.28	  307.58
     84.3615	  411.00	  405.24	-1786.24	  307.54
     84.3949	  384.00	  405.19	-1813.19	  307.49
     84.4283	  428.00	  405.14	-1769.14	  307.44
     84.4618	  405.00	  405.09	-1792.09	  307.39
     84.4952	  402.00	  405.04	-1795.04	  307.34
     84.5286	  364.00	  405.00	-1833.00	  307.29
     84.5620	  427.00	  404.95	-1769.95	  307.25
     84.5955	  420.00	  404.90	-1776.90	  307.20
     84.6289	  399.00	  404.85	-1797.85	  307.15
     84.6623	  386.00	  404.80	-1810.80	  307.10
     84.6957	  441.00	  404.75	-1755.75	  307.05
     84.7291	  415.00	  404.71	-1781.71	  307.01
     84.7626	  396.00	  404.66	-1800.66	  306.96
     84.7960	  406.00	  404.61	-1790.61	  306.91
     84.8294	  400.00	  404.56	-1796.56	  306.86
     84.8628	  406.00	  404.51	-1790.51	  306.81
     84.8963	  408.00	  404.47	-1788.47	  306.77
     84.9297	  443.00	  404.42	-1753.42	  306.72
     84.9631	  409.00	  404.37	-1787.37	  306.67
     84.9965	  417.00	  404.32	-1779.32	  306.62
     85.0299	  428.00	  404.27	-1768.27	  306.57
     85.0634	  445.00	  404.22	-1751.22	  306.52
     85.0968	  417.00	  404.18	-1779.18	  306.48
     85.1302	  426.00	  404.13	-1770.13	  306.43
     85.1636	  384.00	  404.08	-1812.08	  306.38
     85.1971	  388.00	  404.03	-1808.03	  306.33
     85.2305	  423.00	  403.98	-1772.98	  306.28
     85.2639	  393.00	  403.94	-1802.94	  306.24
     85.2973	  452.00	  403.89	-1743.89	  306.19
     85.3307	  379.00	  403.84	-1816.84	  306.14
     85.3642	  425.00	  403.79	-1770.79	  306.09
     85.3976	  420.00	  403.74	-1775.74	  306.04
     85.4310	  389.00	  403.70	-1806.70	  305.99
     85.4644	  416.00	  403.65	-1779.65	  305.95
     85.4979	  455.00	  403.60	-1740.60	  305.90
     85.5313	  399.00	  403.55	-1796.55	  305.85
     85.5647	  395.00	  403.50	-1800.50	  305.80
     85.5981	  458.00	  403.45	-1737.45	  305.75
     85.6316	  423.00	  403.41	-1772.41	  305.71
     85.6650	  403.00	  403.36	-1792.36	  305.66
     85.6984	  417.00	  403.31	-1778.31	  305.61
     85.7318	  386.00	  403.26	-1809.26	  305.56
     85.7652	  421.00	  403.21	-1774.21	  305.51
     85.7987	  419.00	  403.17	-1776.17	  305.46
     85.8321	  420.00	  403.12	-1775.12	  305.42
     85.8655	  420.00	  403.07	-1775.07	  305.37
     85.8989	  397.00	  403.02	-1798.02	  305.32
     85.9324	  438.00	  402.97	-1756.97	  305.27
     85.9658	  384.00	  402.92	-1810.92	  305.22
     85.9992	  396.00	  402.88	-1798.88	  305.18
     86.0326	  426.00	  402.83	-1768.83	  305.13
     86.0660	  439.00	  402.78	-1755.78	  305.08
     86.0995	  418.00	  402.73	-1776.73	  305.03
     86.1329	  389.00	  402.68	-1805.68	  304.98
     86.1663	  390.00	  402.64	-1804.64	  304.94
     86.1997	  394.00	  402.59	-1800.59	  304.89
     86.2332	  374.00	  402.54	-1820.54	  304.84
     86.2666	  404.00	  402.49	-1790.49	  304.79
     86.3000	  426.00	  402.44	-1768.44	  304.74
     86.3334	  421.00	  402.39	-1773.39	  304.69
     86.3668	  413.00	  402.35	-1781.35	  304.65
     86.4003	  398.00	  402.30	-1796.30	  304.60
     86.4337	  363.00	  402.25	-1831.25	  304.55
     86.4671	  415.00	  402.20	-1779.20	  304.50
     86.5005	  421.00	  402.15	-1773.15	  304.45
     86.5340	  434.00	  402.11	-1760.11	  304.41
     86.5674	  447.00	  402.06	-1747.06	  304.36
     86.6008	  417.00	  402.01	-1777.01	  304.31
     86.6342	  410.00	  401.96	-1783.96	  304.26
     86.6676	  446.00	  401.91	-1747.91	  304.21
     86.7011	  386.00	  401.87	-1807.87	  304.16
     86.7345	  418.00	  401.82	-1775.82	  304.12
     86.7679	  390.00	  401.77	-1803.77	  304.07
     86.8013	  405.00	  401.72	-1788.72	  304.02
     86.8348	  425.00	  401.67	-1768.67	  303.97
     86.8682	  458.00	  401.62	-1735.62	  303.92
     86.9016	  394.00	  401.59	-1799.59	  303.89
     86.9350	  419.00	  401.56	-1774.56	  303.86
     86.9685	  406.00	  401.54	-1787.54	  303.84
     87.0019	  390.00	  401.51	-1803.51	  303.81
     87.0353	  431.00	  401.49	-1762.49	  303.79
     87.0687	  415.00	  401.46	-1778.46	  303.76
     87.1021	  377.00	  401.44	-1816.44	  303.74
     87.1356	  394.00	  401.41	-1799.41	  303.71
     87.1690	  351.00	  401.39	-1842.39	  303.69
     87.2024	  425.00	  401.36	-1768.36	  303.66
     87.2358	  390.00	  401.34	-1803.34	  303.64
     87.2693	  425.00	  401.32	-1768.32	  303.62
     87.3027	  415.00	  401.29	-1778.29	  303.59
     87.3361	  416.00	  401.27	-1777.27	  303.57
     87.3695	  395.00	  401.24	-1798.24	  303.54
     87.4029	  426.00	  401.22	-1767.22	  303.52
     87.4364	  440.00	  401.19	-1753.19	  303.49
     87.4698	  382.00	  401.17	-1811.17	  303.47
     87.5032	  403.00	  401.14	-1790.14	  303.44
     87.5366	  421.00	  401.12	-1772.12	  303.42
     87.5701	  424.00	  401.09	-1769.09	  303.39
     87.6035	  457.00	  401.07	-1736.07	  303.37
     87.6369	  415.00	  401.05	-1778.05	  303.35
     87.6703	  375.00	  401.02	-1818.02	  303.32
     87.7038	  409.00	  401.00	-1784.00	  303.30
     87.7372	  356.00	  400.97	-1836.97	  303.27
     87.7706	  423.00	  400.95	-1769.95	  303.25
     87.8040	  385.00	  400.92	-1807.92	  303.22
     87.8374	  428.00	  400.90	-1764.90	  303.20
     87.8709	  407.00	  400.87	-1785.87	  303.17
     87.9043	  417.00	  400.85	-1775.85	  303.15
     87.9377	  424.00	  400.83	-1768.82	  303.12
     87.9711	  405.00	  400.80	-1787.80	  303.10
     88.0045	  383.00	  400.78	-1809.78	  303.08
     88.0380	  396.00	  400.75	-1796.75	  303.05
     88.0714	  390.00	  400.73	-1802.73	  303.03
     88.1048	  423.00	  400.70	-1769.70	  303.00
     88.1382	  376.00	  400.68	-1816.68	  302.98
     88.1717	  423.00	  400.65	-1769.65	  302.95
     88.2051	  421.00	  400.63	-1771.63	  302.93
     88.2385	  418.00	  400.60	-1774.60	  302.90
     88.2719	  419.00	  400.58	-1773.58	  302.88
     88.3054	  437.00	  400.56	-1755.56	  302.85
     88.3388	  393.00	  400.53	-1799.53	  302.83
     88.3722	  403.00	  400.51	-1789.51	  302.81
     88.4056	  429.00	  400.48	-1763.48	  302.78
     88.4390	  407.00	  400.46	-1785.46	  302.76
     88.4725	  416.00	  400.43	-1776.43	  302.73
     88.5059	  394.00	  400.41	-1798.41	  302.71
     88.5393	  404.00	  400.38	-1788.38	  302.68
     88.5727	  366.00	  400.36	-1826.36	  302.66
     88.6062	  373.00	  400.33	-1819.33	  302.63
     88.6396	  395.00	  400.31	-1797.31	  302.61
     88.6730	  399.00	  400.29	-1793.29	  302.58
     88.7064	  398.00	  400.26	-1794.26	  302.56
     88.7398	  398.00	  400.24	-1794.24	  302.54
     88.7733	  374.00	  400.21	-1818.21	  302.51
     88.8067	  388.00	  400.19	-1804.19	  302.49
     88.8401	  413.00	  400.16	-1779.16	  302.46
     88.8735	  411.00	  400.14	-1781.14	  302.44
     88.9070	  410.00	  400.11	-1782.11	  302.41
     88.9404	  354.00	  400.09	-1838.09	  302.39
     88.9738	  410.00	  400.06	-1782.06	  302.36
     89.0072	  358.00	  400.04	-1834.04	  302.34
     89.0406	  425.00	  400.02	-1767.02	  302.31
     89.0741	  423.00	  399.99	-1768.99	  302.29
     89.1075	  396.00	  399.97	-1795.97	  302.27
     89.1409	  415.00	  399.94	-1776.94	  302.24
     89.1743	  384.00	  399.92	-1807.92	  302.22
     89.2078	  404.00	  399.89	-1787.89	  302.19
     89.2412	  451.00	  399.87	-1740.87	  302.17
     89.2746	  433.00	  399.84	-1758.84	  302.14
     89.3080	  411.00	  399.82	-1780.82	  302.12
     89.3415	  387.00	  399.79	-1804.79	  302.09
     89.3749	  406.00	  399.77	-1785.77	  302.07
     89.4083	  408.00	  399.75	-1783.75	  302.04
     89.4417	  384.00	  399.72	-1807.72	  302.02
     89.4751	  389.00	  399.70	-1802.70	  302.00
     89.5086	  425.00	  399.67	-1766.67	  301.97
     89.5420	  428.00	  399.65	-1763.65	  301.95
     89.5754	  418.00	  399.62	-1773.62	  301.92
     89.6088	  362.00	  399.60	-1829.60	  301.90
     89.6423	  435.00	  399.57	-1756.57	  301.87
     89.6757	  437.00	  399.55	-1754.55	  301.85
     89.7091	  431.00	  399.52	-1760.52	  301.82
     89.7425	  417.00	  399.50	-1774.50	  301.80
     89.7759	  424.00	  399.48	-1767.48	  301.77
     89.8094	  446.00	  399.45	-1745.45	  301.75
     89.8428	  425.00	  399.43	-1766.43	  301.73
     89.8762	  426.00	  399.40	-1765.40	  301.70
     89.9096	  382.00	  399.38	-1809.38	  301.68
     89.9431	  377.00	  399.35	-1814.35	  301.65
     89.9765	  396.00	  399.33	-1795.33	  301.63
     90.0099	  427.00	  399.30	-1764.30	  301.60
     90.0433	  394.00	  399.28	-1797.28	  301.58
     90.0767	  408.00	  399.25	-1783.25	  301.55
     90.1102	  397.00	  399.23	-1794.23	  301.53
     90.1436	  415.00	  399.21	-1776.21	  301.51
     90.1770	  440.00	  399.18	-1751.18	  301.48
     90.2104	  411.00	  399.16	-1780.16	  301.46
     90.2439	  400.00	  399.13	-1791.13	  301.43
     90.2773	  414.00	  399.11	-1777.11	  301.41
     90.3107	  434.00	  399.08	-1757.08	  301.38
     90.3441	  405.00	  399.06	-1786.06	  301.36
     90.3775	  382.00	  399.03	-1809.03	  301.33
     90.4110	  438.00	  399.01	-1753.01	  301.31
     90.4444	  470.00	  398.98	-1720.98	  301.28
     90.4778	  457.00	  398.96	-1733.96	  301.26
     90.5112	  426.00	  398.94	-1764.94	  301.24
     90.5447	  394.00	  398.91	-1796.91	  301.21
     90.5781	  399.00	  398.89	-1791.89	  301.19
     90.6115	  418.00	  398.86	-1772.86	  301.16
     90.6449	  410.00	  409.48	-1791.48	  301.14
     90.6784	  421.00	  409.78	-1780.78	  301.11
     90.7118	  397.00	  410.09	-1805.09	  301.09
     90.7452	  414.00	  410.41	-1788.41	  301.06
     90.7786	  427.00	  410.75	-1775.75	  301.04
     90.8120	  416.00	  411.11	-1787.11	  301.01
     90.8455	  405.00	  411.49	-1798.49	  300.99
     90.8789	  406.00	  411.89	-1797.89	  300.97
     90.9123	  392.00	  417.51	-1817.51	  300.94
     90.9457	  402.00	  418.10	-1808.10	  300.92
     90.9792	  426.00	  418.73	-1784.73	  300.89
     91.0126	  397.00	  419.39	-1814.39	  300.87
     91.0460	  437.00	  420.08	-1775.08	  300.84
     91.0794	  428.00	  420.81	-1784.81	  300.82
     91.1128	  386.00	  421.58	-1827.58	  300.79
     91.1463	  415.00	  422.39	-1799.39	  300.77
     91.1797	  419.00	  423.25	-1796.25	  300.74
     91.2131	  436.00	  424.16	-1780.16	  300.72
     91.2465	  397.00	  425.12	-1820.12	  300.70
     91.2800	  410.00	  426.14	-1808.14	  300.67
     91.3134	  392.00	  427.22	-1827.22	  300.65
     91.3468	  461.00	  428.37	-1759.37	  300.62
     91.3802	  421.00	  429.59	-1800.59	  300.60
     91.4137	  438.00	  430.89	-1784.89	  300.57
     91.4471	  443.00	  432.28	-1781.28	  300.55
     91.4805	  416.00	  433.75	-1809.75	  300.52
     91.5139	  438.00	  435.33	-1789.33	  300.50
     91.5473	  406.00	  437.02	-1823.02	  300.47
     91.5808	  421.00	  438.82	-1809.82	  300.45
     91.6142	  398.00	  440.76	-1834.76	  300.43
     91.6476	  420.00	  442.84	-1814.84	  300.40
     91.6810	  440.00	  445.07	-1797.07	  300.38
     91.7145	  451.00	  447.48	-1788.48	  300.35
     91.7479	  444.00	  450.08	-1798.08	  300.33
     91.7813	  426.00	  452.89	-1818.89	  300.30
     91.8147	  431.00	  455.93	-1816.93	  300.28
     91.8481	  438.00	  459.23	-1813.23	  300.25
     91.8816	  444.00	  462.82	-1810.82	  300.23
     91.9150	  407.00	  466.74	-1851.74	  300.20
     91.9484	  436.00	  471.01	-1827.01	  300.18
     91.9818	  429.00	  475.68	-1838.68	  300.16
     92.0153	  467.00	  480.81	-1805.81	  300.13
     92.0487	  461.00	  486.46	-1817.46	  300.11
     92.0821	  470.00	  492.68	-1814.68	  300.08
     92.1155	  478.00	  499.57	-1813.57	  300.06
     92.1489	  461.00	  507.20	-1838.20	  300.03
     92.1824	  502.00	  515.68	-1805.68	  300.01
     92.2158	  510.00	  525.14	-1807.14	  299.98
     92.2492	  492.00	  535.72	-1835.72	  299.96
     92.2826	  509.00	  547.57	-1830.57	  299.93
     92.3161	  561.00	  560.87	-1791.87	  299.91
     92.3495	  547.00	  575.84	-1820.84	  299.89
     92.3829	  590.00	  592.71	-1794.71	  299.86
     92.4163	  577.00	  611.75	-1826.75	  299.84
     92.4497	  596.00	  633.22	-1829.22	  299.81
     92.4832	  606.00	  657.44	-1843.44	  299.79
     92.5166	  649.00	  684.67	-1827.67	  299.76
     92.5500	  711.00	  715.17	-1796.17	  299.74
     92.5834	  761.00	  749.08	-1780.08	  299.71
     92.6169	  749.00	  786.39	-1829.39	  299.69
     92.6503	  853.00	  826.81	-1765.81	  299.66
     92.6837	  926.00	  869.63	-1735.63	  299.64
     92.7171	  934.00	  913.63	-1771.63	  299.62
     92.7505	  989.00	  957.00	-1760.00	  299.59
     92.7840	 1057.00	  997.39	-1732.39	  299.57
     92.8174	 1117.00	 1032.18	-1707.18	  299.54
     92.8508	 1064.00	 1058.98	-1786.98	  299.52
     92.8842	 1161.00	 1076.19	-1707.19	  299.49
     92.9177	 1171.00	 1083.38	-1704.38	  299.47
     92.9511	 1175.00	 1081.42	-1698.42	  299.44
     92.9845	 1168.00	 1072.02	-1696.02	  299.42
     93.0179	 1076.00	 1057.15	-1773.15	  299.39
     93.0514	 1048.00	 1038.49	-1782.49	  299.37
     93.0848	 1058.00	 1017.00	-1751.00	  299.35
     93.1182	 1145.00	  992.98	-1639.98	  299.32
     93.1516	 1044.00	  966.28	-1714.28	  299.30
     93.1850	  941.00	  936.73	-1787.73	  299.27
     93.2185	  932.00	  904.47	-1764.47	  299.25
     93.2519	  856.00	  870.08	-1806.08	  299.22
     93.2853	  828.00	  834.50	-1798.50	  299.20
     93.3187	  784.00	  798.84	-1806.84	  299.17
     93.3522	  771.00	  764.13	-1785.13	  299.15
     93.3856	  729.00	  731.19	-1794.19	  299.12
     93.4190	  709.00	  700.56	-1783.56	  299.10
     93.4524	  705.00	  672.50	-1759.50	  299.08
     93.4858	  610.00	  647.09	-1829.09	  299.05
     93.5193	  615.00	  624.25	-1801.25	  299.03
     93.5527	  572.00	  603.84	-1823.84	  299.00
     93.5861	  580.00	  585.63	-1797.63	  298.98
     93.6195	  543.00	  569.42	-1818.42	  298.95
     93.6530	  586.00	  554.98	-1760.98	  298.93
     93.6864	  469.00	  542.12	-1865.12	  298.90
     93.7198	  469.00	  530.64	-1853.64	  298.88
     93.7532	  514.00	  520.38	-1798.38	  298.85
     93.7867	  493.00	  511.18	-1810.18	  298.83
     93.8201	  451.00	  502.93	-1843.93	  298.81
     93.8535	  480.00	  495.49	-1807.49	  298.78
     93.8869	  493.00	  488.78	-1787.78	  298.76
     93.9203	  485.00	  482.70	-1789.70	  298.73
     93.9538	  448.00	  477.18	-1821.18	  298.71
     93.9872	  445.00	  472.16	-1819.16	  298.68
     94.0206	  427.00	  467.58	-1832.58	  298.66
     94.0540	  434.00	  463.40	-1821.40	  298.63
     94.0874	  459.00	  459.56	-1792.56	  298.61
     94.1209	  435.00	  456.03	-1813.03	  298.58
     94.1543	  429.00	  452.78	-1815.78	  298.56
     94.1877	  443.00	  449.78	-1798.78	  298.54
     94.2211	  410.00	  447.01	-1829.01	  298.51
     94.2546	  423.00	  444.45	-1813.45	  298.49
     94.2880	  445.00	  442.08	-1789.08	  298.48
     94.3214	  400.00	  439.87	-1831.87	  298.47
     94.3548	  451.00	  437.82	-1778.82	  298.46
     94.3883	  465.00	  435.91	-1762.91	  298.44
     94.4217	  451.00	  434.12	-1775.12	  298.43
     94.4551	  421.00	  432.45	-1803.45	  298.42
     94.4885	  436.00	  430.88	-1786.88	  298.41
     94.5219	  430.00	  429.41	-1791.41	  298.40
     94.5554	  409.00	  428.03	-1811.03	  298.38
     94.5888	  404.00	  426.73	-1814.73	  298.37
     94.6222	  403.00	  425.51	-1814.51	  298.36
     94.6556	  424.00	  424.35	-1792.35	  298.35
     94.6891	  420.00	  423.27	-1795.27	  298.34
     94.7225	  444.00	  422.24	-1770.24	  298.33
     94.7559	  429.00	  421.26	-1784.26	  298.31
     94.7893	  431.00	  420.34	-1781.34	  298.30
     94.8227	  420.00	  419.47	-1791.47	  298.29
     94.8562	  395.00	  418.64	-1815.64	  298.28
     94.8896	  418.00	  417.85	-1791.85	  298.27
     94.9230	  413.00	  417.11	-1796.11	  298.25
     94.9564	  433.00	  416.40	-1775.40	  298.24
     94.9899	  426.00	  415.72	-1781.72	  298.23
     95.0233	  403.00	  415.07	-1804.07	  298.22
     95.0567	  390.00	  414.46	-1816.46	  298.21
     95.0901	  386.00	  413.87	-1819.87	  298.20
     95.1236	  420.00	  413.31	-1785.31	  298.18
     95.1570	  415.00	  402.58	-1779.58	  298.17
     95.1904	  435.00	  402.36	-1759.36	  298.16
     95.2238	  443.00	  402.14	-1751.14	  298.15
     95.2572	  378.00	  401.93	-1815.93	  298.14
     95.2907	  400.00	  401.74	-1793.74	  298.12
     95.3241	  450.00	  401.55	-1743.55	  298.11
     95.3575	  415.00	  401.36	-1778.36	  298.10
     95.3909	  409.00	  401.19	-1784.19	  298.09
     95.4244	  426.00	  401.02	-1767.02	  298.08
     95.4578	  390.00	  395.77	-1797.77	  298.07
     95.4912	  409.00	  395.75	-1778.75	  298.05
     95.5246	  369.00	  395.74	-1818.74	  298.04
     95.5580	  366.00	  395.73	-1821.73	  298.03
     95.5915	  439.00	  395.72	-1748.72	  298.02
     95.6249	  416.00	  395.71	-1771.71	  298.01
     95.6583	  440.00	  395.70	-1747.70	  297.99
     95.6917	  408.00	  395.68	-1779.68	  297.98
     95.7252	  400.00	  395.67	-1787.67	  297.97
     95.7586	  405.00	  395.66	-1782.66	  297.96
     95.7920	  394.00	  395.65	-1793.65	  297.95
     95.8254	  400.00	  395.64	-1787.64	  297.94
     95.8588	  447.00	  395.62	-1740.62	  297.92
     95.8923	  377.00	  395.61	-1810.61	  297.91
     95.9257	  384.00	  395.60	-1803.60	  297.90
     95.9591	  423.00	  395.59	-1764.59	  297.89
     95.9925	  400.00	  395.58	-1787.58	  297.88
     96.0260	  394.00	  395.57	-1793.57	  297.86
     96.0594	  405.00	  398.80	-1785.80	  297.85
     96.0928	  405.00	  398.88	-1785.88	  297.84
     96.1262	  443.00	  398.97	-1747.97	  297.83
     96.1597	  376.00	  399.06	-1815.06	  297.82
     96.1931	  424.00	  399.15	-1767.15	  297.81
     96.2265	  387.00	  399.25	-1804.25	  297.79
     96.2599	  441.00	  399.36	-1750.36	  297.78
     96.2933	  383.00	  399.47	-1808.47	  297.77
     96.3268	  373.00	  399.58	-1818.58	  297.76
     96.3602	  433.00	  399.70	-1758.70	  297.75
     96.3936	  379.00	  401.47	-1814.47	  297.73
     96.4270	  382.00	  401.66	-1811.66	  297.72
     96.4604	  363.00	  401.85	-1830.85	  297.71
     96.4939	  392.00	  402.05	-1802.05	  297.70
     96.5273	  431.00	  402.26	-1763.26	  297.69
     96.5607	  410.00	  402.49	-1784.49	  297.68
     96.5941	  374.00	  402.72	-1820.72	  297.66
     96.6276	  414.00	  402.97	-1780.97	  297.65
     96.6610	  396.00	  403.24	-1799.24	  297.64
     96.6944	  428.00	  403.52	-1767.52	  297.63
     96.7278	  376.00	  403.81	-1819.81	  297.62
     96.7613	  421.00	  404.12	-1775.12	  297.60
     96.7947	  419.00	  404.45	-1777.45	  297.59
     96.8281	  383.00	  404.81	-1813.81	  297.58
     96.8615	  400.00	  405.18	-1797.18	  297.57
     96.8949	  445.00	  405.57	-1752.57	  297.56
     96.9284	  388.00	  406.00	-1810.00	  297.55
     96.9618	  385.00	  406.45	-1813.45	  297.53
     96.9952	  410.00	  406.93	-1788.93	  297.52
     97.0286	  417.00	  407.44	-1782.44	  297.51
     97.0621	  366.00	  407.99	-1833.99	  297.50
     97.0955	  426.00	  408.57	-1774.57	  297.49
     97.1289	  393.00	  409.20	-1808.20	  297.47
     97.1623	  380.00	  409.88	-1821.88	  297.46
     97.1957	  421.00	  410.60	-1781.60	  297.45
     97.2292	  397.00	  411.38	-1806.38	  297.44
     97.2626	  411.00	  412.22	-1793.22	  297.43
     97.2960	  394.00	  413.13	-1811.13	  297.42
     97.3294	  379.00	  414.12	-1827.12	  297.40
     97.3629	  403.00	  415.19	-1804.19	  297.39
     97.3963	  386.00	  416.34	-1822.34	  297.38
     97.4297	  414.00	  417.61	-1795.61	  297.37
     97.4631	  407.00	  418.98	-1803.98	  297.36
     97.4966	  395.00	  420.49	-1817.49	  297.34
     97.5300	  392.00	  422.13	-1822.13	  297.33
     97.5634	  459.00	  423.94	-1756.94	  297.32
     97.5968	  455.00	  425.93	-1762.93	  297.31
     97.6302	  395.00	  428.12	-1825.12	  297.30
     97.6637	  404.00	  430.54	-1818.54	  297.29
     97.6971	  434.00	  433.22	-1791.22	  297.27
     97.7305	  413.00	  436.20	-1815.20	  297.26
     97.7639	  423.00	  439.50	-1808.50	  297.25
     97.7974	  455.00	  443.18	-1780.18	  297.24
     97.8308	  458.00	  447.28	-1781.28	  297.23
     97.8642	  477.00	  451.86	-1766.86	  297.21
     97.8976	  430.00	  456.97	-1818.97	  297.20
     97.9310	  413.00	  462.67	-1841.67	  297.19
     97.9645	  472.00	  469.02	-1789.02	  297.18
     97.9979	  468.00	  476.08	-1800.08	  297.17
     98.0313	  467.00	  483.89	-1808.89	  297.16
     98.0647	  464.00	  492.48	-1820.48	  297.14
     98.0982	  425.00	  501.83	-1868.83	  297.13
     98.1316	  451.00	  511.88	-1852.88	  297.12
     98.1650	  497.00	  522.48	-1817.48	  297.11
     98.1984	  505.00	  533.38	-1820.38	  297.10
     98.2318	  476.00	  544.25	-1860.25	  297.09
     98.2653	  536.00	  554.60	-1810.60	  297.07
     98.2987	  500.00	  563.93	-1855.93	  297.06
     98.3321	  550.00	  571.69	-1813.69	  297.05
     98.3655	  608.00	  577.46	-1761.46	  297.04
     98.3990	  579.00	  580.98	-1793.98	  297.03
     98.4324	  523.00	  582.27	-1851.27	  297.01
     98.4658	  640.00	  581.54	-1733.54	  297.00
     98.4992	  557.00	  579.15	-1814.15	  296.99
     98.5326	  591.00	  575.53	-1776.53	  296.98
     98.5661	  549.00	  571.02	-1814.02	  296.97
     98.5995	  551.00	  565.85	-1806.85	  296.96
     98.6329	  537.00	  560.11	-1815.11	  296.94
     98.6663	  554.00	  553.78	-1791.78	  296.93
     98.6998	  537.00	  546.84	-1801.84	  296.92
     98.7332	  529.00	  539.24	-1802.24	  296.91
     98.7666	  518.00	  531.07	-1805.07	  296.90
     98.8000	  511.00	  522.46	-1803.46	  296.88
     98.8335	  506.00	  513.61	-1799.61	  296.87
     98.8669	  429.00	  504.75	-1867.75	  296.86
     98.9003	  467.00	  496.10	-1821.10	  296.85
     98.9337	  449.00	  487.83	-1830.83	  296.84
     98.9671	  462.00	  480.07	-1810.07	  296.83
     99.0006	  483.00	  472.86	-1781.86	  296.81
     99.0340	  465.00	  466.26	-1793.26	  296.80
     99.0674	  461.00	  460.24	-1791.24	  296.79
     99.1008	  447.00	  454.80	-1799.80	  296.78
     99.1343	  423.00	  449.88	-1818.88	  296.77
     99.1677	  430.00	  445.46	-1807.46	  296.75
     99.2011	  434.00	  441.47	-1799.47	  296.74
     99.2345	  423.00	  437.88	-1806.88	  296.73
     99.2679	  457.00	  434.65	-1769.65	  296.72
     99.3014	  410.00	  431.74	-1813.74	  296.71
     99.3348	  413.00	  429.11	-1808.11	  296.70
     99.3682	  426.00	  426.73	-1792.73	  296.68
     99.4016	  376.00	  424.57	-1840.57	  296.67
     99.4351	  478.00	  422.61	-1736.61	  296.66
     99.4685	  421.00	  420.82	-1791.82	  296.65
     99.5019	  411.00	  419.20	-1800.20	  296.64
     99.5353	  362.00	  417.71	-1847.71	  296.62
     99.5687	  411.00	  416.34	-1797.34	  296.61
     99.6022	  408.00	  415.09	-1799.09	  296.60
     99.6356	  364.00	  413.94	-1841.94	  296.59
     99.6690	  404.00	  412.87	-1800.87	  296.58
     99.7024	  427.00	  411.89	-1776.89	  296.57
     99.7359	  372.00	  410.98	-1830.98	  296.55
     99.7693	  395.00	  410.14	-1807.14	  296.54
     99.8027	  399.00	  409.35	-1802.35	  296.53
     99.8361	  387.00	  408.62	-1813.62	  296.52
     99.8696	  405.00	  407.94	-1794.94	  296.51
     99.9030	  380.00	  407.31	-1819.31	  296.49
     99.9364	  406.00	  406.71	-1792.71	  296.48
     99.9698	  386.00	  406.16	-1812.16	  296.47
    100.0032	  374.00	  405.63	-1823.63	  296.46
    100.0367	  387.00	  405.14	-1810.14	  296.45
    100.0701	  398.00	  404.68	-1798.68	  296.44
    100.1035	  363.00	  404.25	-1833.24	  296.42
    100.1369	  413.00	  403.83	-1782.83	  296.41
    100.1704	  423.00	  403.45	-1772.45	  296.40
    100.2038	  386.00	  403.08	-1809.08	  296.39
    100.2372	  394.00	  402.73	-1800.73	  296.38
    100.2706	  397.00	  402.41	-1797.41	  296.36
    100.3040	  410.00	  402.10	-1784.10	  296.35
    100.3375	  392.00	  401.80	-1801.80	  296.34
    100.3709	  374.00	  401.52	-1819.52	  296.33
    100.4043	  404.00	  401.25	-1789.25	  296.32
    100.4377	  373.00	  401.00	-1820.00	  296.31
    100.4712	  399.00	  400.75	-1793.75	  296.29
    100.5046	  395.00	  400.52	-1797.52	  296.28
    100.5380	  396.00	  400.30	-1796.30	  296.27
    100.5714	  382.00	  400.09	-1810.09	  296.26
    100.6048	  399.00	  399.89	-1792.89	  296.25
    100.6383	  368.00	  399.70	-1823.70	  296.23
    100.6717	  379.00	  399.51	-1812.51	  296.22
    100.7051	  431.00	  396.10	-1757.10	  296.21
    100.7385	  443.00	  396.02	-1745.02	  296.20
    100.7720	  387.00	  395.94	-1800.94	  296.19
    100.8054	  364.00	  395.86	-1823.86	  296.18
    100.8388	  417.00	  395.79	-1770.79	  296.16
    100.8722	  390.00	  395.72	-1797.72	  296.15
    100.9056	  396.00	  395.66	-1791.66	  296.14
    100.9391	  373.00	  395.59	-1814.59	  296.13
    100.9725	  402.00	  395.53	-1785.53	  296.12
    101.0059	  392.00	  395.47	-1795.47	  296.10
    101.0393	  410.00	  393.79	-1775.79	  296.09
    101.0728	  466.00	  393.78	-1719.78	  296.08
    101.1062	  399.00	  393.77	-1786.77	  296.07
    101.1396	  425.00	  393.76	-1760.76	  296.06
    101.1730	  407.00	  393.75	-1778.75	  296.05
    101.2065	  382.00	  393.73	-1803.73	  296.03
    101.2399	  389.00	  393.72	-1796.72	  296.02
    101.2733	  426.00	  393.71	-1759.71	  296.01
    101.3067	  377.00	  393.70	-1808.70	  296.00
    101.3401	  386.00	  393.69	-1799.69	  295.99
    101.3736	  399.00	  393.67	-1786.67	  295.97
    101.4070	  396.00	  393.66	-1789.66	  295.96
    101.4404	  378.00	  393.65	-1807.65	  295.95
    101.4738	  399.00	  393.64	-1786.64	  295.94
    101.5073	  340.00	  393.63	-1845.63	  295.93
    101.5407	  386.00	  393.62	-1799.62	  295.92
    101.5741	  400.00	  393.60	-1785.60	  295.90
    101.6075	  372.00	  393.59	-1813.59	  295.89
    101.6409	  359.00	  393.58	-1826.58	  295.88
    101.6744	  382.00	  393.57	-1803.57	  295.87
    101.7078	  382.00	  393.56	-1803.56	  295.86
    101.7412	  385.00	  393.54	-1800.54	  295.84
    101.7746	  353.00	  393.53	-1832.53	  295.83
    101.8081	  393.00	  393.52	-1792.52	  295.82
    101.8415	  387.00	  393.51	-1798.51	  295.81
    101.8749	  371.00	  393.50	-1814.50	  295.80
    101.9083	  415.00	  393.50	-1770.50	  295.79
    101.9417	  372.00	  393.50	-1813.50	  295.79
    101.9752	  414.00	  393.50	-1771.50	  295.79
    102.0086	  410.00	  393.50	-1775.50	  295.79
    102.0420	  379.00	  393.50	-1806.50	  295.79
    102.0754	  425.00	  393.50	-1760.50	  295.79
    102.1089	  345.00	  393.50	-1840.50	  295.79
    102.1423	  392.00	  393.50	-1793.50	  295.79
    102.1757	  388.00	  393.50	-1797.50	  295.79
    102.2091	  414.00	  393.50	-1771.50	  295.79
    102.2426	  404.00	  393.50	-1781.50	  295.79
    102.2760	  378.00	  393.50	-1807.50	  295.79
    102.3094	  397.00	  393.50	-1788.50	  295.79
    102.3428	  380.00	  393.50	-1805.50	  295.79
    102.3762	  399.00	  393.50	-1786.50	  295.79
    102.4097	  336.00	  393.50	-1849.50	  295.79
    102.4431	  417.00	  393.50	-1768.50	  295.79
    102.4765	  355.00	  393.50	-1830.50	  295.79
    102.5099	  383.00	  393.50	-1802.50	  295.79
    102.5434	  414.00	  393.50	-1771.50	  295.79
    102.5768	  423.00	  393.50	-1762.50	  295.79
    102.6102	  369.00	  393.50	-1816.50	  295.79
    102.6436	  392.00	  393.50	-1793.50	  295.79
    102.6770	  417.00	  393.50	-1768.50	  295.79
    102.7105	  393.00	  393.50	-1792.50	  295.79
    102.7439	  398.00	  393.50	-1787.50	  295.79
    102.7773	  415.00	  393.50	-1770.50	  295.79
    102.8107	  394.00	  393.50	-1791.50	  295.79
    102.8442	  431.00	  393.50	-1754.50	  295.79
    102.8776	  414.00	  393.50	-1771.50	  295.79
    102.9110	  354.00	  393.50	-1831.50	  295.79
    102.9444	  366.00	  393.50	-1819.50	  295.79
    102.9778	  417.00	  393.50	-1768.50	  295.79
    103.0113	  396.00	  393.50	-1789.50	  295.79
    103.0447	  373.00	  393.50	-1812.50	  295.79
    103.0781	  393.00	  393.50	-1792.50	  295.79
    103.1115	  396.00	  393.50	-1789.50	  295.79
    103.1450	  346.00	  393.50	-1839.50	  295.79
    103.1784	  392.00	  393.50	-1793.50	  295.79
    103.2118	  392.00	  393.50	-1793.50	  295.79
    103.2452	  367.00	  393.50	-1818.50	  295.79
    103.2786	  404.00	  393.50	-1781.50	  295.79
    103.3121	  406.00	  393.50	-1779.50	  295.79
    103.3455	  404.00	  393.50	-1781.50	  295.79
    103.3789	  373.00	  393.50	-1812.50	  295.79
    103.4123	  407.00	  393.50	-1778.50	  295.79
    103.4458	  383.00	  393.50	-1802.50	  295.79
    103.4792	  384.00	  393.50	-1801.50	  295.79
    103.5126	  397.00	  393.50	-1788.50	  295.79
    103.5460	  395.00	  393.50	-1790.50	  295.79
    103.5795	  386.00	  393.50	-1799.50	  295.79
    103.6129	  388.00	  393.50	-1797.50	  295.79
    103.6463	  394.00	  393.50	-1791.50	  295.79
    103.6797	  397.00	  393.50	-1788.50	  295.79
    103.7131	  403.00	  393.50	-1782.50	  295.79
    103.7466	  393.00	  393.50	-1792.50	  295.79
    103.7800	  405.00	  393.50	-1780.50	  295.79
    103.8134	  392.00	  393.50	-1793.50	  295.79
    103.8468	  383.00	  393.50	-1802.50	  295.79
    103.8803	  365.00	  393.50	-1820.50	  295.79
    103.9137	  409.00	  393.50	-1776.50	  295.79
    103.9471	  366.00	  393.50	-1819.50	  295.79
    103.9805	  389.00	  393.50	-1796.50	  295.79
    104.0139	  434.00	  393.50	-1751.50	  295.79
    104.0474	  358.00	  393.50	-1827.50	  295.79
    104.0808	  400.00	  393.50	-1785.50	  295.79
    104.1142	  392.00	  393.50	-1793.50	  295.79
    104.1476	  418.00	  393.50	-1767.50	  295.79
    104.1811	  404.00	  393.50	-1781.50	  295.79
    104.2145	  409.00	  393.50	-1776.50	  295.79
    104.2479	  380.00	  393.50	-1805.50	  295.79
    104.2813	  374.00	  393.50	-1811.50	  295.79
    104.3148	  414.00	  393.50	-1771.50	  295.79
    104.3482	  378.00	  393.50	-1807.50	  295.79
    104.3816	  409.00	  393.50	-1776.50	  295.79
    104.4150	  408.00	  393.50	-1777.50	  295.79
    104.4484	  379.00	  393.50	-1806.50	  295.79
    104.4819	  427.00	  393.50	-1758.50	  295.79
    104.5153	  398.00	  393.50	-1787.50	  295.79
    104.5487	  384.00	  393.50	-1801.50	  295.79
    104.5821	  385.00	  393.50	-1800.50	  295.79
    104.6155	  411.00	  393.50	-1774.50	  295.79
    104.6490	  440.00	  393.50	-1745.50	  295.79
    104.6824	  414.00	  393.50	-1771.50	  295.79
    104.7158	  371.00	  393.50	-1814.50	  295.79
    104.7492	  375.00	  393.50	-1810.50	  295.79
    104.7827	  380.00	  393.50	-1805.50	  295.79
    104.8161	  376.00	  393.50	-1809.50	  295.79
    104.8495	  382.00	  393.50	-1803.50	  295.79
    104.8829	  397.00	  393.50	-1788.50	  295.79
    104.9164	  394.00	  393.50	-1791.50	  295.79
    104.9498	  379.00	  393.50	-1806.50	  295.79
    104.9832	  390.00	  393.50	-1795.50	  295.79
    105.0166	  392.00	  393.50	-1793.50	  295.79
    105.0500	  384.00	  393.50	-1801.50	  295.79
    105.0835	  419.00	  393.50	-1766.50	  295.79
    105.1169	  351.00	  393.50	-1834.50	  295.79
    105.1503	  427.00	  393.50	-1758.50	  295.79
    105.1837	  383.00	  393.50	-1802.50	  295.79
    105.2172	  383.00	  393.50	-1802.50	  295.79
    105.2506	  398.00	  393.50	-1787.50	  295.79
    105.2840	  417.00	  393.50	-1768.50	  295.79
    105.3174	  411.00	  393.50	-1774.50	  295.79
    105.3508	  396.00	  393.50	-1789.50	  295.79
    105.3843	  358.00	  393.50	-1827.50	  295.79
    105.4177	  404.00	  393.50	-1781.50	  295.79
    105.4511	  388.00	  393.50	-1797.50	  295.79
    105.4845	  386.00	  393.50	-1799.50	  295.79
    105.5180	  385.00	  393.50	-1800.50	  295.79
    105.5514	  446.00	  393.50	-1739.50	  295.79
    105.5848	  366.00	  393.50	-1819.50	  295.79
    105.6182	  393.00	  393.50	-1792.50	  295.79
    105.6516	  417.00	  393.50	-1768.50	  295.79
    105.6851	  386.00	  393.50	-1799.50	  295.79
    105.7185	  393.00	  393.50	-1792.50	  295.79
    105.7519	  396.00	  393.50	-1789.50	  295.79
    105.7853	  365.00	  393.50	-1820.50	  295.79
    105.8188	  440.00	  393.50	-1745.50	  295.79
    105.8522	  392.00	  393.50	-1793.50	  295.79
    105.8856	  415.00	  393.50	-1770.50	  295.79
    105.9190	  382.00	  393.50	-1803.50	  295.79
    105.9525	  429.00	  393.50	-1756.50	  295.79
    105.9859	  410.00	  393.50	-1775.50	  295.79
    106.0193	  398.00	  393.50	-1787.50	  295.79
    106.0527	  376.00	  393.50	-1809.50	  295.79
    106.0861	  414.00	  393.50	-1771.50	  295.79
    106.1196	  398.00	  393.50	-1787.50	  295.79
    106.1530	  415.00	  393.50	-1770.50	  295.79
    106.1864	  388.00	  393.50	-1797.50	  295.79
    106.2198	  413.00	  393.50	-1772.50	  295.79
    106.2533	  386.00	  393.50	-1799.50	  295.79
    106.2867	  408.00	  393.50	-1777.50	  295.79
    106.3201	  344.00	  393.50	-1841.50	  295.79
    106.3535	  386.00	  393.50	-1799.50	  295.79
    106.3869	  424.00	  393.50	-1761.50	  295.79
    106.4204	  390.00	  393.50	-1795.50	  295.79
    106.4538	  404.00	  393.50	-1781.50	  295.79
    106.4872	  411.00	  393.50	-1774.50	  295.79
    106.5206	  414.00	  393.50	-1771.50	  295.79
    106.5541	  388.00	  393.50	-1797.50	  295.79
    106.5875	  395.00	  393.50	-1790.50	  295.79
    106.6209	  398.00	  393.50	-1787.50	  295.79
    106.6543	  374.00	  393.50	-1811.50	  295.79
    106.6878	  379.00	  393.50	-1806.50	  295.79
    106.7212	  437.00	  393.50	-1748.50	  295.79
    106.7546	  408.00	  393.50	-1777.50	  295.79
    106.7880	  372.00	  393.50	-1813.50	  295.79
    106.8214	  366.00	  393.50	-1819.50	  295.79
    106.8549	  416.00	  393.50	-1769.50	  295.79
    106.8883	  421.00	  393.50	-1764.50	  295.79
    106.9217	  383.00	  393.50	-1802.50	  295.79
    106.9551	  395.00	  393.50	-1790.50	  295.79
    106.9885	  408.00	  393.50	-1777.50	  295.79
    107.0220	  389.00	  393.50	-1796.50	  295.79
    107.0554	  361.00	  393.50	-1824.50	  295.79
    107.0888	  400.00	  393.50	-1785.50	  295.79
    107.1222	  419.00	  393.50	-1766.50	  295.79
    107.1557	  383.00	  393.50	-1802.50	  295.79
    107.1891	  383.00	  393.50	-1802.50	  295.79
    107.2225	  382.00	  393.50	-1803.50	  295.79
    107.2559	  398.00	  393.50	-1787.50	  295.79
    107.2894	  386.00	  393.50	-1799.50	  295.79
    107.3228	  402.00	  393.50	-1783.50	  295.79
    107.3562	  407.00	  393.50	-1778.50	  295.79
    107.3896	  407.00	  393.50	-1778.50	  295.79
    107.4230	  351.00	  393.50	-1834.50	  295.79
    107.4565	  382.00	  393.50	-1803.50	  295.79
    107.4899	  413.00	  393.50	-1772.50	  295.79
    107.5233	  402.00	  393.50	-1783.50	  295.79
    107.5567	  367.00	  393.50	-1818.50	  295.79
    107.5902	  377.00	  393.50	-1808.50	  295.79
    107.6236	  399.00	  393.50	-1786.50	  295.79
    107.6570	  356.00	  393.50	-1829.50	  295.79
    107.6904	  378.00	  393.50	-1807.50	  295.79
    107.7238	  382.00	  393.50	-1803.50	  295.79
    107.7573	  355.00	  393.50	-1830.50	  295.79
    107.7907	  406.00	  393.50	-1779.50	  295.79
    107.8241	  404.00	  393.50	-1781.50	  295.79
    107.8575	  392.00	  393.50	-1793.50	  295.79
    107.8910	  417.00	  393.50	-1768.50	  295.79
    107.9244	  385.00	  393.50	-1800.50	  295.79
    107.9578	  399.00	  393.50	-1786.50	  295.79
    107.9912	  437.00	  393.50	-1748.50	  295.79
    108.0247	  399.00	  393.50	-1786.50	  295.79
    108.0581	  398.00	  393.50	-1787.50	  295.79
    108.0915	  373.00	  393.50	-1812.50	  295.79
    108.1249	  354.00	  393.50	-1831.50	  295.79
    108.1583	  396.00	  393.50	-1789.50	  295.79
    108.1918	  367.00	  393.50	-1818.50	  295.79
    108.2252	  403.00	  393.50	-1782.50	  295.79
    108.2586	  409.00	  393.50	-1776.50	  295.79
    108.2920	  425.00	  393.50	-1760.50	  295.79
    108.3255	  347.00	  393.50	-1838.50	  295.79
    108.3589	  369.00	  393.50	-1816.50	  295.79
    108.3923	  361.00	  393.50	-1824.50	  295.79
    108.4257	  374.00	  393.50	-1811.50	  295.79
    108.4591	  379.00	  393.50	-1806.50	  295.79
    108.4926	  405.00	  393.50	-1780.50	  295.79
    108.5260	  385.00	  393.50	-1800.50	  295.79
    108.5594	  399.00	  393.50	-1786.50	  295.79
    108.5928	  398.00	  393.50	-1787.50	  295.79
    108.6263	  358.00	  393.50	-1827.50	  295.79
    108.6597	  390.00	  393.50	-1795.50	  295.79
    108.6931	  372.00	  393.50	-1813.50	  295.79
    108.7265	  405.00	  393.50	-1780.50	  295.79
    108.7599	  386.00	  393.50	-1799.50	  295.79
    108.7934	  367.00	  393.50	-1818.50	  295.79
    108.8268	  399.00	  393.50	-1786.50	  295.79
    108.8602	  427.00	  393.50	-1758.50	  295.79
    108.8936	  376.00	  393.50	-1809.50	  295.79
    108.9271	  444.00	  393.50	-1741.50	  295.79
    108.9605	  423.00	  393.50	-1762.50	  295.79
    108.9939	  380.00	  393.50	-1805.50	  295.79
    109.0273	  346.00	  393.50	-1839.50	  295.79
    109.0607	  396.00	  393.50	-1789.50	  295.79
    109.0942	  372.00	  393.50	-1813.50	  295.79
    109.1276	  369.00	  393.50	-1816.50	  295.79
    109.1610	  415.00	  393.50	-1770.50	  295.79
    109.1944	  372.00	  393.50	-1813.50	  295.79
    109.2279	  418.00	  393.50	-1767.50	  295.79
    109.2613	  421.00	  393.50	-1764.50	  295.79
    109.2947	  414.00	  393.50	-1771.50	  295.79
    109.3281	  392.00	  393.50	-1793.50	  295.79
    109.3615	  365.00	  393.50	-1820.50	  295.79
    109.3950	  394.00	  393.49	-1791.49	  295.79
    109.4284	  400.00	  393.47	-1785.47	  295.77
    109.4618	  376.00	  393.46	-1809.46	  295.75
    109.4952	  423.00	  393.44	-1762.44	  295.74
    109.5287	  353.00	  393.42	-1832.42	  295.72
    109.5621	  394.00	  393.41	-1791.41	  295.71
    109.5955	  413.00	  393.39	-1772.39	  295.69
    109.6289	  373.00	  393.38	-1812.38	  295.68
    109.6624	  413.00	  393.36	-1772.36	  295.66
    109.6958	  415.00	  393.34	-1770.34	  295.64
    109.7292	  390.00	  393.33	-1795.33	  295.63
    109.7626	  372.00	  393.31	-1813.31	  295.61
    109.7960	  408.00	  393.30	-1777.30	  295.60
    109.8295	  362.00	  393.28	-1823.28	  295.58
    109.8629	  393.00	  393.26	-1792.26	  295.56
    109.8963	  382.00	  393.25	-1803.25	  295.55
    109.9297	  387.00	  393.23	-1798.23	  295.53
    109.9632	  388.00	  393.22	-1797.22	  295.52
    109.9966	  388.00	  393.20	-1797.20	  295.50
    110.0300	  364.00	  393.18	-1821.18	  295.48
    110.0634	  358.00	  393.17	-1827.17	  295.47
    110.0968	  394.00	  393.15	-1791.15	  295.45
    110.1303	  373.00	  393.14	-1812.14	  295.44
    110.1637	  384.00	  393.12	-1801.12	  295.42
    110.1971	  389.00	  393.10	-1796.10	  295.40
    110.2305	  379.00	  393.09	-1806.09	  295.39
    110.2640	  399.00	  393.07	-1786.07	  295.37
    110.2974	  415.00	  393.06	-1770.06	  295.36
    110.3308	  405.00	  393.04	-1780.04	  295.34
    110.3642	  394.00	  393.02	-1791.02	  295.32
    110.3977	  395.00	  393.01	-1790.01	  295.31
    110.4311	  348.00	  392.99	-1836.99	  295.29
    110.4645	  402.00	  392.98	-1782.98	  295.28
    110.4979	  385.00	  392.96	-1799.96	  295.26
    110.5313	  397.00	  392.94	-1787.94	  295.24
    110.5648	  441.00	  392.93	-1743.93	  295.23
    110.5982	  395.00	  392.91	-1789.91	  295.21
    110.6316	  387.00	  392.90	-1797.90	  295.20
    110.6650	  419.00	  392.88	-1765.88	  295.18
    110.6985	  374.00	  392.87	-1810.86	  295.16
    110.7319	  368.00	  392.85	-1816.85	  295.15
    110.7653	  404.00	  392.83	-1780.83	  295.13
    110.7987	  368.00	  392.82	-1816.82	  295.12
    110.8321	  425.00	  392.80	-1759.80	  295.10
    110.8656	  377.00	  392.79	-1807.79	  295.08
    110.8990	  388.00	  392.77	-1796.77	  295.07
    110.9324	  396.00	  392.75	-1788.75	  295.05
    110.9658	  392.00	  392.74	-1792.74	  295.04
    110.9993	  431.00	  392.72	-1753.72	  295.02
    111.0327	  386.00	  392.71	-1798.71	  295.01
    111.0661	  394.00	  392.69	-1790.69	  294.99
    111.0995	  384.00	  392.67	-1800.67	  294.97
    111.1329	  374.00	  392.66	-1810.66	  294.96
    111.1664	  361.00	  392.64	-1823.64	  294.94
    111.1998	  426.00	  392.63	-1758.63	  294.93
    111.2332	  382.00	  392.61	-1802.61	  294.91
    111.2666	  371.00	  392.59	-1813.59	  294.89
    111.3001	  341.00	  392.58	-1843.58	  294.88
    111.3335	  385.00	  392.56	-1799.56	  294.86
    111.3669	  395.00	  392.55	-1789.55	  294.85
    111.4003	  394.00	  392.53	-1790.53	  294.83
    111.4337	  403.00	  392.51	-1781.51	  294.81
    111.4672	  384.00	  392.50	-1800.50	  294.80
    111.5006	  429.00	  392.48	-1755.48	  294.78
    111.5340	  397.00	  392.47	-1787.47	  294.77
    111.5674	  403.00	  392.45	-1781.45	  294.75
    111.6009	  349.00	  392.43	-1835.43	  294.73
    111.6343	  395.00	  392.42	-1789.42	  294.72
    111.6677	  409.00	  392.40	-1775.40	  294.70
    111.7011	  402.00	  392.39	-1782.39	  294.69
    111.7346	  405.00	  392.37	-1779.37	  294.67
    111.7680	  356.00	  392.35	-1828.35	  294.65
    111.8014	  380.00	  392.34	-1804.34	  294.64
    111.8348	  427.00	  392.32	-1757.32	  294.62
    111.8682	  383.00	  392.31	-1801.31	  294.61
    111.9017	  421.00	  392.29	-1763.29	  294.59
    111.9351	  365.00	  392.27	-1819.27	  294.57
    111.9685	  423.00	  392.26	-1761.26	  294.56
    112.0019	  386.00	  392.24	-1798.24	  294.54
    112.0354	  367.00	  392.23	-1817.23	  294.53
    112.0688	  393.00	  392.21	-1791.21	  294.51
    112.1022	  367.00	  392.20	-1817.20	  294.49
    112.1356	  382.00	  392.18	-1802.18	  294.48
    112.1690	  376.00	  392.16	-1808.16	  294.46
    112.2025	  386.00	  392.15	-1798.15	  294.45
    112.2359	  373.00	  392.13	-1811.13	  294.43
    112.2693	  403.00	  392.12	-1781.12	  294.41
    112.3027	  373.00	  392.10	-1811.10	  294.40
    112.3362	  418.00	  392.08	-1766.08	  294.38
    112.3696	  372.00	  392.07	-1812.07	  294.37
    112.4030	  411.00	  392.05	-1773.05	  294.35
    112.4364	  377.00	  392.04	-1807.04	  294.34
    112.4698	  371.00	  392.02	-1813.02	  294.32
    112.5033	  404.00	  392.00	-1780.00	  294.30
    112.5367	  405.00	  391.99	-1778.99	  294.29
    112.5701	  337.00	  391.97	-1846.97	  294.27
    112.6035	  426.00	  391.96	-1757.96	  294.26
    112.6370	  394.00	  391.94	-1789.94	  294.24
    112.6704	  374.00	  391.92	-1809.92	  294.22
    112.7038	  397.00	  391.91	-1786.91	  294.21
    112.7372	  362.00	  391.89	-1821.89	  294.19
    112.7707	  382.00	  391.88	-1801.88	  294.18
    112.8041	  357.00	  391.86	-1826.86	  294.16
    112.8375	  439.00	  391.84	-1744.84	  294.14
    112.8709	  421.00	  391.83	-1762.83	  294.13
    112.9043	  392.00	  391.81	-1791.81	  294.11
    112.9378	  383.00	  391.80	-1800.80	  294.10
    112.9712	  363.00	  391.78	-1820.78	  294.08
    113.0046	  449.00	  391.76	-1734.76	  294.06
    113.0380	  345.00	  391.75	-1838.75	  294.05
    113.0714	  365.00	  391.73	-1818.73	  294.03
    113.1049	  403.00	  391.72	-1780.72	  294.02
    113.1383	  405.00	  391.70	-1778.70	  294.00
    113.1717	  393.00	  391.68	-1790.68	  293.98
    113.2051	  421.00	  391.67	-1762.67	  293.97
    113.2386	  373.00	  391.65	-1810.65	  293.95
    113.2720	  410.00	  391.64	-1773.64	  293.94
    113.3054	  378.00	  391.62	-1805.62	  293.92
    113.3388	  411.00	  391.60	-1772.60	  293.90
    113.3723	  415.00	  391.59	-1768.59	  293.89
    113.4057	  402.00	  391.57	-1781.57	  293.87
    113.4391	  366.00	  391.56	-1817.56	  293.86
    113.4725	  392.00	  391.54	-1791.54	  293.84
    113.5059	  425.00	  391.53	-1758.53	  293.82
    113.5394	  395.00	  391.51	-1788.51	  293.81
    113.5728	  386.00	  391.49	-1797.49	  293.79
    113.6062	  379.00	  391.48	-1804.48	  293.78
    113.6396	  408.00	  391.46	-1775.46	  293.76
    113.6731	  413.00	  391.45	-1770.45	  293.75
    113.7065	  430.00	  391.43	-1753.43	  293.73
    113.7399	  397.00	  391.41	-1786.41	  293.71
    113.7733	  377.00	  391.40	-1806.40	  293.70
    113.8067	  376.00	  391.38	-1807.38	  293.68
    113.8402	  352.00	  391.37	-1831.37	  293.67
    113.8736	  411.00	  391.35	-1772.35	  293.65
    113.9070	  386.00	  391.33	-1797.33	  293.63
    113.9404	  408.00	  391.32	-1775.32	  293.62
    113.9739	  398.00	  391.30	-1785.30	  293.60
    114.0073	  397.00	  391.29	-1786.29	  293.59
    114.0407	  403.00	  391.27	-1780.27	  293.57
    114.0741	  367.00	  391.25	-1816.25	  293.55
    114.1076	  355.00	  391.24	-1828.24	  293.54
    114.1410	  402.00	  391.22	-1781.22	  293.52
    114.1744	  392.00	  391.21	-1791.21	  293.51
    114.2078	  404.00	  391.19	-1779.19	  293.49
    114.2412	  377.00	  391.17	-1806.17	  293.47
    114.2747	  343.00	  391.16	-1840.16	  293.46
    114.3081	  375.00	  391.14	-1808.14	  293.44
    114.3415	  421.00	  391.13	-1762.13	  293.43
    114.3749	  383.00	  391.11	-1800.11	  293.41
    114.4084	  436.00	  391.09	-1747.09	  293.39
    114.4418	  378.00	  391.08	-1805.08	  293.38
    114.4752	  397.00	  391.06	-1786.06	  293.36
    114.5086	  415.00	  391.05	-1768.05	  293.35
    114.5420	  409.00	  391.03	-1774.03	  293.33
    114.5755	  418.00	  391.01	-1765.01	  293.31
    114.6089	  423.00	  391.00	-1760.00	  293.30
    114.6423	  407.00	  390.98	-1775.98	  293.28
    114.6757	  354.00	  390.97	-1828.97	  293.27
    114.7092	  393.00	  390.95	-1789.95	  293.25
    114.7426	  406.00	  390.94	-1776.94	  293.23
    114.7760	  408.00	  390.92	-1774.92	  293.22
    114.8094	  368.00	  390.90	-1814.90	  293.20
    114.8428	  427.00	  390.89	-1755.89	  293.19
    114.8763	  390.00	  390.87	-1792.87	  293.17
    114.9097	  385.00	  390.86	-1797.86	  293.15
    114.9431	  371.00	  390.84	-1811.84	  293.14
    114.9765	  415.00	  390.82	-1767.82	  293.12
    115.0100	  420.00	  390.81	-1762.81	  293.11
    115.0434	  386.00	  390.80	-1796.80	  293.10
    115.0768	  410.00	  390.83	-1772.83	  293.13
    115.1102	  372.00	  390.85	-1810.85	  293.15
    115.1437	  410.00	  390.88	-1772.88	  293.18
    115.1771	  388.00	  390.91	-1794.91	  293.21
    115.2105	  402.00	  390.93	-1780.93	  293.23
    115.2439	  435.00	  390.96	-1747.96	  293.26
    115.2773	  364.00	  390.99	-1818.99	  293.29
    115.3108	  384.00	  391.01	-1799.01	  293.31
    115.3442	  358.00	  391.04	-1825.04	  293.34
    115.3776	  385.00	  391.07	-1798.07	  293.37
    115.4110	  429.00	  391.09	-1754.09	  293.39
    115.4445	  386.00	  391.12	-1797.12	  293.42
    115.4779	  336.00	  391.15	-1847.15	  293.45
    115.5113	  368.00	  391.17	-1815.17	  293.47
    115.5447	  435.00	  391.20	-1748.20	  293.50
    115.5781	  349.00	  391.23	-1834.23	  293.53
    115.6116	  356.00	  391.25	-1827.25	  293.55
    115.6450	  380.00	  391.28	-1803.28	  293.58
    115.6784	  388.00	  391.31	-1795.31	  293.61
    115.7118	  400.00	  391.33	-1783.33	  293.63
    115.7453	  433.00	  391.36	-1750.36	  293.66
    115.7787	  398.00	  391.39	-1785.39	  293.69
    115.8121	  394.00	  391.41	-1789.41	  293.71
    115.8455	  393.00	  391.44	-1790.44	  293.74
    115.8789	  410.00	  391.47	-1773.47	  293.77
    115.9124	  371.00	  391.49	-1812.49	  293.79
    115.9458	  393.00	  391.52	-1790.52	  293.82
    115.9792	  369.00	  391.55	-1814.55	  293.85
    116.0126	  394.00	  391.57	-1789.57	  293.87
    116.0461	  394.00	  391.60	-1789.60	  293.90
    116.0795	  406.00	  391.63	-1777.63	  293.93
    116.1129	  386.00	  391.65	-1797.65	  293.95
    116.1463	  383.00	  391.68	-1800.68	  293.98
    116.1797	  410.00	  391.71	-1773.71	  294.01
    116.2132	  410.00	  391.73	-1773.73	  294.03
    116.2466	  353.00	  391.76	-1830.76	  294.06
    116.2800	  415.00	  391.79	-1768.79	  294.08
    116.3134	  359.00	  391.81	-1824.81	  294.11
    116.3469	  368.00	  391.84	-1815.84	  294.14
    116.3803	  407.00	  391.87	-1776.86	  294.16
    116.4137	  380.00	  391.89	-1803.89	  294.19
    116.4471	  399.00	  391.92	-1784.92	  294.22
    116.4806	  371.00	  391.94	-1812.94	  294.24
    116.5140	  396.00	  391.97	-1787.97	  294.27
    116.5474	  368.00	  392.00	-1816.00	  294.30
    116.5808	  393.00	  392.02	-1791.02	  294.32
    116.6142	  392.00	  392.05	-1792.05	  294.35
    116.6477	  393.00	  392.08	-1791.08	  294.38
    116.6811	  390.00	  392.10	-1794.10	  294.40
    116.7145	  438.00	  392.13	-1746.13	  294.43
    116.7479	  368.00	  392.16	-1816.16	  294.46
    116.7814	  336.00	  392.18	-1848.18	  294.48
    116.8148	  403.00	  392.21	-1781.21	  294.51
    116.8482	  354.00	  392.24	-1830.24	  294.54
    116.8816	  426.00	  392.26	-1758.26	  294.56
    116.9150	  407.00	  392.29	-1777.29	  294.59
    116.9485	  386.00	  392.32	-1798.32	  294.62
    116.9819	  409.00	  392.34	-1775.34	  294.64
    117.0153	  417.00	  392.37	-1767.37	  294.67
    117.0487	  389.00	  392.40	-1795.40	  294.70
    117.0822	  377.00	  392.42	-1807.42	  294.72
    117.1156	  410.00	  392.45	-1774.45	  294.75
    117.1490	  395.00	  392.48	-1789.48	  294.78
    117.1824	  410.00	  392.50	-1774.50	  294.80
    117.2159	  411.00	  392.53	-1773.53	  294.83
    117.2493	  405.00	  392.56	-1779.56	  294.86
    117.2827	  406.00	  392.58	-1778.58	  294.88
    117.3161	  419.00	  392.61	-1765.61	  294.91
    117.3495	  416.00	  392.64	-1768.64	  294.94
    117.3830	  406.00	  392.66	-1778.66	  294.96
    117.4164	  364.00	  392.69	-1820.69	  294.99
    117.4498	  396.00	  392.72	-1788.72	  295.02
    117.4832	  399.00	  392.74	-1785.74	  295.04
    117.5166	  392.00	  392.77	-1792.77	  295.07
    117.5501	  382.00	  392.80	-1802.80	  295.10
    117.5835	  386.00	  392.82	-1798.82	  295.12
    117.6169	  404.00	  392.85	-1780.85	  295.15
    117.6503	  387.00	  392.88	-1797.88	  295.17
    117.6838	  425.00	  392.90	-1759.90	  295.20
    117.7172	  377.00	  392.93	-1807.93	  295.23
    117.7506	  389.00	  392.95	-1795.95	  295.25
    117.7840	  374.00	  392.98	-1810.98	  295.28
    117.8175	  348.00	  393.01	-1837.01	  295.31
    117.8509	  363.00	  393.03	-1822.03	  295.33
    117.8843	  394.00	  393.06	-1791.06	  295.36
    117.9177	  375.00	  393.09	-1810.09	  295.39
    117.9511	  410.00	  393.11	-1775.11	  295.41
    117.9846	  390.00	  393.14	-1795.14	  295.44
    118.0180	  380.00	  393.17	-1805.17	  295.47
    118.0514	  392.00	  393.19	-1793.19	  295.49
    118.0848	  402.00	  393.22	-1783.22	  295.52
    118.1183	  426.00	  393.25	-1759.25	  295.55
    118.1517	  398.00	  393.27	-1787.27	  295.57
    118.1851	  405.00	  393.30	-1780.30	  295.60
    118.2185	  382.00	  393.33	-1803.33	  295.63
    118.2519	  399.00	  393.35	-1786.35	  295.65
    118.2854	  426.00	  393.38	-1759.38	  295.68
    118.3188	  351.00	  393.41	-1834.41	  295.71
    118.3522	  361.00	  393.43	-1824.43	  295.73
    118.3856	  374.00	  393.46	-1811.46	  295.76
    118.4191	  396.00	  393.49	-1789.49	  295.79
    118.4525	  394.00	  393.51	-1791.51	  295.81
    118.4859	  400.00	  393.54	-1785.54	  295.84
    118.5193	  415.00	  393.57	-1770.57	  295.87
    118.5527	  417.00	  393.59	-1768.59	  295.89
    118.5862	  349.00	  393.62	-1836.62	  295.92
    118.6196	  373.00	  393.65	-1812.65	  295.95
    118.6530	  431.00	  393.67	-1754.67	  295.97
    118.6864	  398.00	  393.70	-1787.70	  296.00
    118.7199	  444.00	  393.73	-1741.73	  296.03
    118.7533	  377.00	  393.75	-1808.75	  296.05
    118.7867	  384.00	  393.78	-1801.78	  296.08
    118.8201	  396.00	  393.81	-1789.81	  296.11
    118.8536	  410.00	  393.83	-1775.83	  296.13
    118.8870	  431.00	  393.86	-1754.86	  296.16
    118.9204	  395.00	  395.99	-1792.99	  296.18
    118.9538	  368.00	  396.06	-1820.06	  296.21
    118.9872	  389.00	  396.14	-1799.14	  296.24
    119.0207	  336.00	  396.22	-1852.22	  296.26
    119.0541	  407.00	  396.29	-1781.29	  296.29
    119.0875	  390.00	  396.37	-1798.37	  296.32
    119.1209	  397.00	  396.46	-1791.46	  296.34
    119.1544	  377.00	  396.54	-1811.54	  296.37
    119.1878	  403.00	  396.63	-1785.63	  296.40
    119.2212	  402.00	  396.71	-1786.71	  296.42
    119.2546	  417.00	  396.80	-1771.80	  296.45
    119.2880	  398.00	  396.90	-1790.90	  296.48
    119.3215	  399.00	  396.99	-1789.99	  296.50
    119.3549	  420.00	  397.09	-1769.09	  296.53
    119.3883	  409.00	  397.19	-1780.19	  296.56
    119.4217	  395.00	  398.36	-1795.36	  296.58
    119.4552	  417.00	  398.49	-1773.49	  296.61
    119.4886	  392.00	  398.62	-1798.62	  296.64
    119.5220	  376.00	  398.76	-1814.76	  296.66
    119.5554	  416.00	  398.90	-1774.90	  296.69
    119.5888	  371.00	  399.05	-1820.05	  296.72
    119.6223	  358.00	  399.20	-1833.20	  296.74
    119.6557	  413.00	  399.36	-1778.36	  296.77
    119.6891	  417.00	  399.52	-1774.52	  296.80
    119.7225	  371.00	  399.69	-1820.69	  296.82
    119.7560	  383.00	  399.86	-1808.86	  296.85
    119.7894	  405.00	  400.04	-1787.04	  296.88
    119.8228	  384.00	  400.23	-1808.23	  296.90
    119.8562	  394.00	  400.42	-1798.42	  296.93
    119.8896	  382.00	  400.62	-1810.62	  296.96
    119.9231	  404.00	  400.83	-1788.83	  296.98
    119.9565	  379.00	  401.05	-1814.05	  297.01
    119.9899	  411.00	  401.27	-1782.27	  297.04
    120.0233	  394.00	  401.51	-1799.51	  297.06
    120.0568	  411.00	  401.75	-1782.75	  297.09
    120.0902	  395.00	  402.01	-1799.01	  297.12
    120.1236	  413.00	  402.27	-1781.27	  297.14
    120.1570	  420.00	  402.55	-1774.55	  297.17
    120.1905	  404.00	  402.84	-1790.84	  297.20
    120.2239	  347.00	  403.15	-1848.15	  297.22
    120.2573	  410.00	  403.47	-1785.47	  297.25
    120.2907	  421.00	  403.80	-1774.80	  297.27
    120.3241	  420.00	  404.15	-1776.15	  297.30
    120.3576	  389.00	  404.52	-1807.52	  297.33
    120.3910	  382.00	  404.91	-1814.91	  297.35
    120.4244	  414.00	  405.32	-1783.32	  297.38
    120.4578	  405.00	  405.75	-1792.75	  297.41
    120.4913	  384.00	  406.21	-1814.21	  297.43
    120.5247	  417.00	  406.68	-1781.68	  297.46
    120.5581	  357.00	  407.19	-1842.19	  297.49
    120.5915	  398.00	  407.73	-1801.73	  297.51
    120.6249	  394.00	  408.30	-1806.30	  297.54
    120.6584	  436.00	  408.90	-1764.90	  297.57
    120.6918	  389.00	  409.54	-1812.54	  297.59
    120.7252	  425.00	  410.22	-1777.22	  297.62
    120.7586	  425.00	  410.94	-1777.94	  297.65
    120.7921	  408.00	  411.71	-1795.71	  297.67
    120.8255	  426.00	  412.52	-1778.52	  297.70
    120.8589	  418.00	  413.40	-1787.40	  297.73
    120.8923	  454.00	  414.33	-1752.33	  297.75
    120.9258	  420.00	  415.33	-1787.33	  297.78
    120.9592	  389.00	  416.39	-1819.39	  297.81
    120.9926	  428.00	  417.53	-1781.53	  297.83
    121.0260	  394.00	  418.75	-1816.75	  297.86
    121.0594	  408.00	  420.06	-1804.06	  297.89
    121.0929	  414.00	  421.46	-1799.46	  297.91
    121.1263	  423.00	  422.97	-1791.97	  297.94
    121.1597	  439.00	  424.58	-1777.58	  297.97
    121.1931	  410.00	  426.30	-1808.30	  297.99
    121.2266	  410.00	  428.15	-1810.15	  298.02
    121.2600	  407.00	  430.13	-1815.13	  298.05
    121.2934	  427.00	  432.24	-1797.24	  298.07
    121.3268	  421.00	  434.49	-1805.49	  298.10
    121.3602	  458.00	  436.89	-1770.89	  298.13
    121.3937	  411.00	  439.43	-1820.43	  298.15
    121.4271	  430.00	  442.11	-1804.11	  298.18
    121.4605	  428.00	  444.92	-1808.92	  298.21
    121.4939	  428.00	  447.85	-1811.85	  298.23
    121.5274	  435.00	  450.89	-1807.89	  298.26
    121.5608	  452.00	  454.00	-1794.00	  298.29
    121.5942	  427.00	  457.15	-1822.15	  298.31
    121.6276	  451.00	  460.30	-1801.30	  298.34
    121.6610	  416.00	  463.39	-1839.39	  298.36
    121.6945	  474.00	  466.37	-1784.37	  298.39
    121.7279	  466.00	  469.16	-1795.17	  298.42
    121.7613	  420.00	  471.72	-1843.72	  298.44
    121.7947	  425.00	  473.96	-1840.96	  298.47
    121.8282	  499.00	  475.85	-1768.85	  298.51
    121.8616	  508.00	  477.41	-1761.41	  298.60
    121.8950	  464.00	  478.55	-1806.55	  298.69
    121.9284	  452.00	  479.26	-1819.26	  298.79
    121.9618	  467.00	  479.58	-1804.58	  298.88
    121.9953	  452.00	  479.52	-1819.52	  298.98
    122.0287	  459.00	  479.14	-1812.14	  299.07
    122.0621	  438.00	  478.48	-1832.48	  299.17
    122.0955	  466.00	  477.60	-1803.60	  299.26
    122.1290	  468.00	  476.53	-1800.53	  299.36
    122.1624	  454.00	  475.32	-1813.32	  299.45
    122.1958	  461.00	  473.98	-1804.98	  299.54
    122.2292	  483.00	  472.54	-1781.54	  299.64
    122.2626	  465.00	  471.01	-1798.01	  299.73
    122.2961	  510.00	  469.37	-1751.37	  299.83
    122.3295	  468.00	  467.62	-1791.62	  299.92
    122.3629	  466.00	  465.75	-1791.75	  300.02
    122.3963	  443.00	  463.77	-1812.77	  300.11
    122.4298	  480.00	  461.68	-1773.68	  300.21
    122.4632	  420.00	  459.47	-1831.47	  300.30
    122.4966	  497.00	  457.18	-1752.18	  300.40
    122.5300	  459.00	  454.82	-1787.82	  300.49
    122.5635	  437.00	  452.41	-1807.41	  300.58
    122.5969	  483.00	  449.98	-1758.98	  300.68
    122.6303	  468.00	  447.57	-1771.57	  300.77
    122.6637	  458.00	  445.19	-1779.19	  300.87
    122.6971	  434.00	  442.86	-1800.86	  300.96
    122.7306	  438.00	  440.61	-1794.61	  301.06
    122.7640	  438.00	  438.45	-1792.45	  301.15
    122.7974	  425.00	  436.39	-1803.39	  301.25
    122.8308	  397.00	  434.43	-1829.43	  301.34
    122.8643	  438.00	  432.58	-1786.58	  301.44
    122.8977	  420.00	  430.84	-1802.84	  301.53
    122.9311	  433.00	  429.21	-1788.21	  301.62
    122.9645	  403.00	  427.68	-1816.68	  301.72
    122.9979	  398.00	  426.25	-1820.26	  301.81
    123.0314	  408.00	  424.93	-1808.93	  301.91
    123.0648	  434.00	  423.69	-1781.69	  302.00
    123.0982	  411.00	  422.54	-1803.54	  302.10
    123.1316	  410.00	  421.48	-1803.48	  302.19
    123.1651	  420.00	  420.48	-1792.48	  302.29
    123.1985	  398.00	  419.57	-1813.57	  302.38
    123.2319	  413.00	  418.71	-1797.71	  302.47
    123.2653	  446.00	  417.92	-1763.92	  302.57
    123.2988	  376.00	  417.18	-1833.18	  302.66
    123.3322	  435.00	  416.50	-1773.50	  302.76
    123.3656	  411.00	  415.87	-1796.87	  302.85
    123.3990	  420.00	  415.28	-1787.28	  302.95
    123.4324	  378.00	  414.74	-1828.74	  303.04
    123.4659	  384.00	  414.23	-1822.23	  303.14
    123.4993	  392.00	  413.76	-1813.76	  303.23
    123.5327	  395.00	  413.32	-1810.32	  303.33
    123.5661	  425.00	  412.92	-1779.92	  303.42
    123.5995	  410.00	  412.54	-1794.54	  303.51
    123.6330	  418.00	  412.19	-1786.19	  303.61
    123.6664	  385.00	  411.86	-1818.86	  303.70
    123.6998	  390.00	  411.56	-1813.56	  303.80
    123.7332	  411.00	  411.28	-1792.28	  303.89
    123.7667	  415.00	  411.02	-1788.02	  303.99
    123.8001	  379.00	  410.78	-1823.78	  304.08
    123.8335	  406.00	  410.55	-1796.55	  304.18
    123.8669	  377.00	  410.35	-1825.34	  304.27
    123.9004	  419.00	  410.15	-1783.15	  304.37
    123.9338	  452.00	  409.97	-1749.97	  304.46
    123.9672	  400.00	  409.81	-1801.81	  304.55
    124.0006	  408.00	  409.66	-1793.66	  304.65
    124.0340	  384.00	  409.51	-1817.51	  304.74
    124.0675	  403.00	  409.38	-1798.38	  304.84
    124.1009	  397.00	  409.27	-1804.27	  304.93
    124.1343	  417.00	  409.16	-1784.16	  305.03
    124.1677	  362.00	  409.05	-1839.05	  305.12
    124.2012	  411.00	  408.96	-1789.96	  305.22
    124.2346	  413.00	  408.88	-1787.88	  305.31
    124.2680	  410.00	  408.80	-1790.80	  305.40
    124.3014	  413.00	  408.73	-1787.73	  305.50
    124.3348	  388.00	  408.67	-1812.67	  305.59
    124.3683	  400.00	  408.62	-1800.62	  305.69
    124.4017	  364.00	  408.57	-1836.57	  305.78
    124.4351	  433.00	  408.52	-1767.52	  305.88
    124.4685	  427.00	  408.48	-1773.48	  305.97
    124.5020	  425.00	  408.45	-1775.45	  306.07
    124.5354	  434.00	  408.42	-1766.42	  306.16
    124.5688	  384.00	  408.40	-1816.40	  306.26
    124.6022	  362.00	  408.38	-1838.38	  306.35
    124.6357	  374.00	  408.37	-1826.37	  306.44
    124.6691	  426.00	  408.36	-1774.36	  306.54
    124.7025	  428.00	  408.35	-1772.35	  306.63
    124.7359	  382.00	  408.35	-1818.35	  306.73
    124.7693	  426.00	  408.35	-1774.35	  306.82
    124.8028	  408.00	  408.35	-1792.35	  306.92
    124.8362	  407.00	  408.36	-1793.36	  307.01
    124.8696	  388.00	  406.31	-1810.31	  307.11
    124.9030	  386.00	  406.37	-1812.37	  307.20
    124.9365	  418.00	  406.42	-1780.42	  307.30
    124.9699	  408.00	  406.48	-1790.48	  307.39
    125.0033	  372.00	  406.54	-1826.54	  307.48
    125.0367	  368.00	  406.61	-1830.61	  307.58
    125.0701	  394.00	  406.67	-1804.67	  307.67
    125.1036	  408.00	  406.73	-1790.73	  307.77
    125.1370	  406.00	  406.80	-1792.80	  307.86
    125.1704	  387.00	  406.86	-1811.86	  307.96
    125.2038	  415.00	  406.93	-1783.93	  308.05
    125.2373	  433.00	  407.00	-1766.00	  308.15
    125.2707	  396.00	  407.07	-1803.07	  308.24
    125.3041	  405.00	  407.14	-1794.14	  308.34
    125.3375	  376.00	  407.21	-1823.21	  308.43
    125.3709	  371.00	  407.28	-1828.28	  308.52
    125.4044	  406.00	  406.32	-1792.32	  308.62
    125.4378	  429.00	  406.41	-1769.41	  308.71
    125.4712	  430.00	  406.51	-1768.51	  308.81
    125.5046	  385.00	  406.60	-1813.60	  308.90
    125.5381	  384.00	  406.70	-1814.70	  309.00
    125.5715	  414.00	  406.79	-1784.79	  309.09
    125.6049	  402.00	  406.89	-1796.89	  309.19
    125.6383	  438.00	  406.98	-1760.98	  309.28
    125.6718	  430.00	  407.00	-1769.00	  309.30
    125.7052	  375.00	  407.00	-1824.00	  309.30
    125.7386	  408.00	  407.00	-1791.00	  309.30
    125.7720	  421.00	  407.00	-1778.00	  309.30
    125.8054	  362.00	  407.00	-1837.00	  309.30
    125.8389	  425.00	  407.00	-1774.00	  309.30
    125.8723	  402.00	  407.00	-1797.00	  309.30
    125.9057	  377.00	  407.00	-1822.00	  309.30
    125.9391	  377.00	  407.00	-1822.00	  309.30
    125.9725	  405.00	  407.00	-1794.00	  309.30
    126.0060	  406.00	  407.00	-1793.00	  309.30
    126.0394	  427.00	  407.00	-1772.00	  309.30
    126.0728	  393.00	  407.00	-1806.00	  309.30
    126.1062	  404.00	  407.00	-1795.00	  309.30
    126.1397	  369.00	  407.00	-1830.00	  309.30
    126.1731	  405.00	  407.00	-1794.00	  309.30
    126.2065	  397.00	  407.00	-1802.00	  309.30
    126.2399	  428.00	  407.00	-1771.00	  309.30
    126.2734	  388.00	  407.00	-1811.00	  309.30
    126.3068	  390.00	  407.00	-1809.00	  309.30
    126.3402	  400.00	  407.00	-1799.00	  309.30
    126.3736	  367.00	  407.00	-1832.00	  309.30
    126.4070	  418.00	  407.00	-1781.00	  309.30
    126.4405	  397.00	  407.00	-1802.00	  309.30
    126.4739	  392.00	  407.00	-1807.00	  309.30
    126.5073	  398.00	  407.00	-1801.00	  309.30
    126.5407	  433.00	  407.00	-1766.00	  309.30
    126.5742	  378.00	  407.00	-1821.00	  309.30
    126.6076	  392.00	  407.00	-1807.00	  309.30
    126.6410	  405.00	  407.00	-1794.00	  309.30
    126.6744	  379.00	  407.00	-1820.00	  309.30
    126.7078	  420.00	  407.00	-1779.00	  309.30
    126.7413	  382.00	  407.00	-1817.00	  309.30
    126.7747	  392.00	  407.00	-1807.00	  309.30
    126.8081	  424.00	  407.00	-1775.00	  309.30
    126.8415	  372.00	  407.00	-1827.00	  309.30
    126.8750	  407.00	  407.00	-1792.00	  309.30
    126.9084	  362.00	  407.00	-1837.00	  309.30
    126.9418	  392.00	  407.00	-1807.00	  309.30
    126.9752	  393.00	  407.00	-1806.00	  309.30
    127.0087	  369.00	  407.00	-1830.00	  309.30
    127.0421	  397.00	  407.00	-1802.00	  309.30
    127.0755	  414.00	  407.00	-1785.00	  309.30
    127.1089	  405.00	  407.00	-1794.00	  309.30
    127.1423	  419.00	  407.00	-1780.00	  309.30
    127.1758	  392.00	  407.00	-1807.00	  309.30
    127.2092	  379.00	  407.00	-1820.00	  309.30
    127.2426	  359.00	  407.00	-1840.00	  309.30
    127.2760	  392.00	  407.00	-1807.00	  309.30
    127.3095	  371.00	  407.00	-1828.00	  309.30
    127.3429	  394.00	  407.00	-1805.00	  309.30
    127.3763	  384.00	  407.00	-1815.00	  309.30
    127.4097	  409.00	  407.00	-1790.00	  309.30
    127.4431	  394.00	  407.00	-1805.00	  309.30
    127.4766	  441.00	  407.00	-1758.00	  309.30
    127.5100	  364.00	  407.00	-1835.00	  309.30
    127.5434	  387.00	  407.00	-1812.00	  309.30
    127.5768	  413.00	  407.00	-1786.00	  309.30
    127.6103	  369.00	  407.00	-1830.00	  309.30
    127.6437	  380.00	  407.00	-1819.00	  309.30
    127.6771	  357.00	  407.00	-1842.00	  309.30
    127.7105	  388.00	  407.00	-1811.00	  309.30
    127.7439	  386.00	  407.00	-1813.00	  309.30
    127.7774	  373.00	  407.00	-1826.00	  309.30
    127.8108	  436.00	  407.00	-1763.00	  309.30
    127.8442	  402.00	  407.00	-1797.00	  309.30
    127.8776	  393.00	  407.00	-1806.00	  309.30
    127.9111	  393.00	  407.00	-1806.00	  309.30
    127.9445	  410.00	  407.00	-1789.00	  309.30
    127.9779	  418.00	  407.00	-1781.00	  309.30
    128.0113	  357.00	  407.00	-1842.00	  309.30
    128.0448	  410.00	  407.00	-1789.00	  309.30
    128.0782	  413.00	  407.00	-1786.00	  309.30
    128.1116	  407.00	  407.00	-1792.00	  309.30
    128.1450	  393.00	  407.00	-1806.00	  309.30
    128.1784	  395.00	  407.00	-1804.00	  309.30
    128.2119	  416.00	  407.00	-1783.00	  309.30
    128.2453	  405.00	  407.00	-1794.00	  309.30
    128.2787	  397.00	  407.00	-1802.00	  309.30
    128.3121	  398.00	  407.00	-1801.00	  309.30
    128.3456	  363.00	  407.00	-1836.00	  309.30
    128.3790	  385.00	  407.00	-1814.00	  309.30
    128.4124	  428.00	  407.00	-1771.00	  309.30
    128.4458	  367.00	  407.00	-1832.00	  309.30
    128.4792	  409.00	  407.00	-1790.00	  309.30
    128.5127	  410.00	  407.00	-1789.00	  309.30
    128.5461	  358.00	  407.00	-1841.00	  309.30
    128.5795	  388.00	  407.00	-1811.00	  309.30
    128.6129	  419.00	  407.00	-1780.00	  309.30
    128.6464	  398.00	  407.00	-1801.00	  309.30
    128.6798	  407.00	  407.00	-1792.00	  309.30
    128.7132	  425.00	  407.00	-1774.00	  309.30
    128.7466	  408.00	  407.00	-1791.00	  309.30
    128.7800	  377.00	  407.00	-1822.00	  309.30
    128.8135	  393.00	  407.00	-1806.00	  309.30
    128.8469	  425.00	  407.00	-1774.00	  309.30
    128.8803	  399.00	  407.00	-1800.00	  309.30
    128.9137	  393.00	  407.00	-1806.00	  309.30
    128.9472	  398.00	  407.00	-1801.00	  309.30
    128.9806	  398.00	  407.00	-1801.00	  309.30
    129.0140	  408.00	  407.00	-1791.00	  309.30
    129.0474	  408.00	  407.00	-1791.00	  309.30
    129.0809	  404.00	  407.00	-1795.00	  309.30
    129.1143	  407.00	  407.00	-1792.00	  309.30
    129.1477	  397.00	  407.00	-1802.00	  309.30
    129.1811	  394.00	  407.00	-1805.00	  309.30
    129.2145	  416.00	  407.00	-1783.00	  309.30
    129.2480	  429.00	  407.00	-1770.00	  309.30
    129.2814	  416.00	  407.00	-1783.00	  309.30
    129.3148	  403.00	  407.00	-1796.00	  309.30
    129.3482	  380.00	  407.00	-1819.00	  309.30
    129.3817	  415.00	  407.00	-1784.00	  309.30
    129.4151	  395.00	  407.00	-1804.00	  309.30
    129.4485	  437.00	  407.00	-1762.00	  309.30
    129.4819	  437.00	  407.00	-1762.00	  309.30
    129.5154	  375.00	  407.00	-1824.00	  309.30
    129.5488	  383.00	  407.00	-1816.00	  309.30
    129.5822	  404.00	  407.00	-1795.00	  309.30
    129.6156	  396.00	  407.00	-1803.00	  309.30
    129.6490	  406.00	  407.00	-1793.00	  309.30
    129.6825	  392.00	  407.00	-1807.00	  309.30
    129.7159	  389.00	  407.00	-1810.00	  309.30
    129.7493	  441.00	  407.00	-1758.00	  309.30
    129.7827	  414.00	  407.00	-1785.00	  309.30
    129.8161	  380.00	  407.00	-1819.00	  309.30
    129.8496	  399.00	  407.00	-1800.00	  309.30
    129.8830	  395.00	  407.00	-1804.00	  309.30
    129.9164	  418.00	  407.00	-1781.00	  309.30
    129.9498	  418.00	  407.00	-1781.00	  309.30
    129.9833	  383.00	  409.18	-1818.18	  309.30
     44.4339	        	        	        	        	       0	(  1  1  1)	  0  1
     44.5493	        	        	        	        	       0	(  1  1  1)	  0  2
     51.7872	        	        	        	        	       0	(  2  0  0)	  0  1
     51.9242	        	        	        	        	       0	(  2  0  0)	  0  2
     76.3194	        	        	        	        	       0	(  2  2  0)	  0  1
     76.5413	        	        	        	        	       0	(  2  2  0)	  0  2
     92.8755	        	        	        	        	       0	(  3  1  1)	  0  1
     93.1727	        	        	        	        	       0	(  3  1  1)	  0  2
     98.3802	        	        	        	        	       0	(  2  2  2)	  0  1
     98.7076	        	        	        	        	       0	(  2  2  2)	  0  2
    121.8779	        	        	        	        	       0	(  4  0  0)	  0  1
    122.3877	        	        	        	        	       0	(  4  0  0)	  0  2
    144.5824	        	        	        	        	       0	(  3  3  1)	  0  1
    145.4771	        	        	        	        	       0	(  3  3  1)	  0  2
    155.5846	        	        	        	        	       0	(  4  2  0)	  0  1
    156.9252	        	        	        	        	       0	(  4  2  0)	  0  2
