 Ni   Chi2:  1.9717  CELL:    3.52481   3.52481   3.52481   90.0000   90.0000   90.0000   SPGR: 225                    TEMP:      0.00
  1   3291     1.54060     1.54439     0.00000    -0.02652     0.00000    0
    12     0     1
       0.00000      35.00000
 2Theta	Yobs	Ycal	Yobs-Ycal	Backg	Posr	(hkl)	K
     20.0231	   709.0	   447.2	 -4678.8	   335.4
     20.0565	   676.0	   447.2	 -4678.8	   335.4
     20.0900	   686.0	   447.2	 -4678.8	   335.4
     20.1234	   606.0	   447.2	 -4678.8	   335.4
     20.1568	   682.0	   447.2	 -4678.8	   335.4
     20.1902	   684.0	   447.2	 -4678.8	   335.4
     20.2236	   703.0	   447.2	 -4678.8	   335.4
     20.2571	   693.0	   447.2	 -4678.8	   335.4
     20.2905	   670.0	   447.2	 -4678.8	   335.4
     20.3239	   672.0	   447.2	 -4678.8	   335.4
     20.3573	   682.0	   447.2	 -4678.8	   335.4
     20.3908	   699.0	   447.2	 -4678.8	   335.4
     20.4242	   680.0	   447.2	 -4678.8	   335.4
     20.4576	   620.0	   447.2	 -4678.8	   335.4
     20.4910	   665.0	   447.2	 -4678.8	   335.4
     20.5245	   627.0	   447.2	 -4678.8	   335.4
     20.5579	   663.0	   447.2	 -4678.8	   335.4
     20.5913	   682.0	   447.2	 -4678.8	   335.4
     20.6247	   672.0	   447.2	 -4678.8	   335.4
     20.6581	   617.0	   447.2	 -4678.8	   335.4
     20.6916	   647.0	   447.2	 -4678.8	   335.4
     20.7250	   634.0	   447.2	 -4678.8	   335.4
     20.7584	   678.0	   447.2	 -4678.8	   335.4
     20.7918	   644.0	   447.2	 -4678.8	   335.4
     20.8253	   634.0	   447.2	 -4678.8	   335.4
     20.8587	   646.0	   447.2	 -4678.8	   335.4
     20.8921	   559.0	   447.2	 -4678.8	   335.4
     20.9255	   647.0	   447.2	 -4678.8	   335.4
     20.9589	   632.0	   447.2	 -4678.8	   335.4
     20.9924	   629.0	   447.2	 -4678.8	   335.4
     21.0258	   637.0	   447.2	 -4678.8	   335.4
     21.0592	   623.0	   447.2	 -4678.8	   335.4
     21.0926	   668.0	   447.2	 -4678.8	   335.4
     21.1261	   672.0	   447.2	 -4678.8	   335.4
     21.1595	   622.0	   447.2	 -4678.8	   335.4
     21.1929	   606.0	   447.2	 -4678.8	   335.4
     21.2263	   675.0	   447.2	 -4678.8	   335.4
     21.2597	   636.0	   447.2	 -4678.8	   335.4
     21.2932	   630.0	   447.2	 -4678.8	   335.4
     21.3266	   615.0	   447.2	 -4678.8	   335.4
     21.3600	   627.0	   447.2	 -4678.8	   335.4
     21.3934	   603.0	   447.2	 -4678.8	   335.4
     21.4269	   639.0	   447.2	 -4678.8	   335.4
     21.4603	   620.0	   447.2	 -4678.8	   335.4
     21.4937	   627.0	   447.2	 -4678.8	   335.4
     21.5271	   599.0	   447.2	 -4678.8	   335.4
     21.5605	   651.0	   447.2	 -4678.8	   335.4
     21.5940	   593.0	   447.2	 -4678.8	   335.4
     21.6274	   643.0	   447.2	 -4678.8	   335.4
     21.6608	   602.0	   447.2	 -4678.8	   335.4
     21.6942	   558.0	   447.2	 -4678.8	   335.4
     21.7277	   583.0	   447.2	 -4678.8	   335.4
     21.7611	   603.0	   447.2	 -4678.8	   335.4
     21.7945	   635.0	   447.2	 -4678.8	   335.4
     21.8279	   627.0	   447.2	 -4678.8	   335.4
     21.8614	   649.0	   447.2	 -4678.8	   335.4
     21.8948	   552.0	   447.2	 -4678.8	   335.4
     21.9282	   583.0	   447.2	 -4678.8	   335.4
     21.9616	   577.0	   447.2	 -4678.8	   335.4
     21.9950	   573.0	   447.2	 -4678.8	   335.4
     22.0285	   575.0	   447.2	 -4678.8	   335.4
     22.0619	   577.0	   447.2	 -4678.8	   335.4
     22.0953	   604.0	   447.2	 -4678.8	   335.4
     22.1287	   593.0	   447.2	 -4678.8	   335.4
     22.1622	   558.0	   447.2	 -4678.8	   335.4
     22.1956	   603.0	   447.2	 -4678.8	   335.4
     22.2290	   570.0	   447.2	 -4678.8	   335.4
     22.2624	   543.0	   447.2	 -4678.8	   335.4
     22.2958	   601.0	   447.2	 -4678.8	   335.4
     22.3293	   552.0	   447.2	 -4678.8	   335.4
     22.3627	   577.0	   447.2	 -4678.8	   335.4
     22.3961	   564.0	   447.2	 -4678.8	   335.4
     22.4295	   542.0	   447.2	 -4678.8	   335.4
     22.4630	   577.0	   447.2	 -4678.8	   335.4
     22.4964	   517.0	   447.2	 -4678.8	   335.4
     22.5298	   521.0	   447.2	 -4678.8	   335.4
     22.5632	   572.0	   447.2	 -4678.8	   335.4
     22.5966	   561.0	   447.2	 -4678.8	   335.4
     22.6301	   537.0	   447.2	 -4678.8	   335.4
     22.6635	   585.0	   447.2	 -4678.8	   335.4
     22.6969	   498.0	   447.2	 -4678.8	   335.4
     22.7303	   596.0	   447.2	 -4678.8	   335.4
     22.7638	   513.0	   447.2	 -4678.8	   335.4
     22.7972	   543.0	   447.2	 -4678.8	   335.4
     22.8306	   516.0	   447.2	 -4678.8	   335.4
     22.8640	   574.0	   447.2	 -4678.8	   335.4
     22.8974	   538.0	   447.2	 -4678.8	   335.4
     22.9309	   598.0	   447.2	 -4678.8	   335.4
     22.9643	   563.0	   447.2	 -4678.8	   335.4
     22.9977	   555.0	   447.2	 -4678.8	   335.4
     23.0311	   531.0	   447.2	 -4678.8	   335.4
     23.0646	   546.0	   447.2	 -4678.8	   335.4
     23.0980	   510.0	   447.2	 -4678.8	   335.4
     23.1314	   552.0	   447.2	 -4678.8	   335.4
     23.1648	   501.0	   447.2	 -4678.8	   335.4
     23.1983	   565.0	   447.2	 -4678.8	   335.4
     23.2317	   518.0	   447.2	 -4678.8	   335.4
     23.2651	   510.0	   447.2	 -4678.8	   335.4
     23.2985	   514.0	   447.2	 -4678.8	   335.4
     23.3319	   565.0	   447.2	 -4678.8	   335.4
     23.3654	   480.0	   447.2	 -4678.8	   335.4
     23.3988	   547.0	   447.2	 -4678.8	   335.4
     23.4322	   510.0	   447.2	 -4678.8	   335.4
     23.4656	   502.0	   447.2	 -4678.8	   335.4
     23.4991	   529.0	   447.2	 -4678.8	   335.4
     23.5325	   508.0	   447.2	 -4678.8	   335.4
     23.5659	   481.0	   447.2	 -4678.8	   335.4
     23.5993	   498.0	   447.2	 -4678.8	   335.4
     23.6327	   519.0	   447.2	 -4678.8	   335.4
     23.6662	   543.0	   447.2	 -4678.8	   335.4
     23.6996	   514.0	   447.2	 -4678.8	   335.4
     23.7330	   501.0	   447.2	 -4678.8	   335.4
     23.7664	   530.0	   447.2	 -4678.8	   335.4
     23.7999	   520.0	   447.2	 -4678.8	   335.4
     23.8333	   571.0	   447.2	 -4678.8	   335.4
     23.8667	   497.0	   447.2	 -4678.8	   335.4
     23.9001	   507.0	   447.2	 -4678.8	   335.4
     23.9335	   485.0	   447.2	 -4678.8	   335.4
     23.9670	   498.0	   447.2	 -4678.8	   335.4
     24.0004	   497.0	   447.2	 -4678.8	   335.4
     24.0338	   520.0	   447.2	 -4678.8	   335.4
     24.0672	   479.0	   447.2	 -4678.8	   335.4
     24.1007	   528.0	   447.2	 -4678.8	   335.4
     24.1341	   550.0	   447.2	 -4678.8	   335.4
     24.1675	   518.0	   447.2	 -4678.8	   335.4
     24.2009	   489.0	   447.2	 -4678.8	   335.4
     24.2344	   530.0	   447.2	 -4678.8	   335.4
     24.2678	   483.0	   447.2	 -4678.8	   335.4
     24.3012	   528.0	   447.2	 -4678.8	   335.4
     24.3346	   509.0	   447.2	 -4678.8	   335.4
     24.3680	   467.0	   447.2	 -4678.8	   335.4
     24.4015	   452.0	   447.2	 -4678.8	   335.4
     24.4349	   459.0	   447.2	 -4678.8	   335.4
     24.4683	   472.0	   447.2	 -4678.8	   335.4
     24.5017	   508.0	   447.2	 -4678.8	   335.4
     24.5352	   485.0	   447.2	 -4678.8	   335.4
     24.5686	   456.0	   447.2	 -4678.8	   335.4
     24.6020	   479.0	   447.2	 -4678.8	   335.4
     24.6354	   492.0	   447.2	 -4678.8	   335.4
     24.6688	   439.0	   447.2	 -4678.8	   335.4
     24.7023	   467.0	   447.2	 -4678.8	   335.4
     24.7357	   498.0	   447.2	 -4678.8	   335.4
     24.7691	   505.0	   447.2	 -4678.8	   335.4
     24.8025	   493.0	   447.2	 -4678.8	   335.4
     24.8360	   495.0	   447.2	 -4678.8	   335.4
     24.8694	   493.0	   447.2	 -4678.8	   335.4
     24.9028	   464.0	   447.2	 -4678.8	   335.4
     24.9362	   530.0	   447.2	 -4678.8	   335.4
     24.9696	   519.0	   447.2	 -4678.8	   335.4
     25.0031	   456.0	   447.2	 -4678.8	   335.4
     25.0365	   470.0	   447.2	 -4678.8	   335.4
     25.0699	   469.0	   447.2	 -4678.8	   335.4
     25.1033	   462.0	   447.2	 -4678.8	   335.4
     25.1368	   469.0	   447.2	 -4678.8	   335.4
     25.1702	   487.0	   447.2	 -4678.8	   335.4
     25.2036	   455.0	   447.2	 -4678.8	   335.4
     25.2370	   449.0	   447.2	 -4678.8	   335.4
     25.2705	   476.0	   447.2	 -4678.8	   335.4
     25.3039	   423.0	   447.2	 -4678.8	   335.4
     25.3373	   498.0	   447.2	 -4678.8	   335.4
     25.3707	   501.0	   447.2	 -4678.8	   335.4
     25.4041	   478.0	   447.2	 -4678.8	   335.4
     25.4376	   440.0	   447.2	 -4678.8	   335.4
     25.4710	   514.0	   447.2	 -4678.8	   335.4
     25.5044	   493.0	   447.2	 -4678.8	   335.4
     25.5378	   476.0	   447.2	 -4678.8	   335.4
     25.5713	   497.0	   447.2	 -4678.8	   335.4
     25.6047	   477.0	   447.2	 -4678.8	   335.4
     25.6381	   445.0	   447.2	 -4678.8	   335.4
     25.6715	   441.0	   447.2	 -4678.8	   335.4
     25.7049	   399.0	   447.2	 -4678.8	   335.4
     25.7384	   475.0	   447.2	 -4678.8	   335.4
     25.7718	   467.0	   447.2	 -4678.8	   335.4
     25.8052	   470.0	   447.2	 -4678.8	   335.4
     25.8386	   467.0	   447.2	 -4678.8	   335.4
     25.8721	   467.0	   447.2	 -4678.8	   335.4
     25.9055	   457.0	   447.2	 -4678.8	   335.4
     25.9389	   464.0	   447.2	 -4678.8	   335.4
     25.9723	   441.0	   447.2	 -4678.8	   335.4
     26.0057	   465.0	   447.2	 -4678.8	   335.4
     26.0392	   438.0	   447.2	 -4678.8	   335.4
     26.0726	   436.0	   447.2	 -4678.8	   335.4
     26.1060	   445.0	   447.2	 -4678.8	   335.4
     26.1394	   447.0	   447.2	 -4678.8	   335.4
     26.1729	   459.0	   447.2	 -4678.8	   335.4
     26.2063	   455.0	   447.2	 -4678.8	   335.4
     26.2397	   489.0	   447.2	 -4678.8	   335.4
     26.2731	   470.0	   447.2	 -4678.8	   335.4
     26.3065	   486.0	   447.2	 -4678.8	   335.4
     26.3400	   447.0	   447.2	 -4678.8	   335.4
     26.3734	   417.0	   447.2	 -4678.8	   335.4
     26.4068	   465.0	   447.2	 -4678.8	   335.4
     26.4402	   486.0	   447.2	 -4678.8	   335.4
     26.4737	   438.0	   447.2	 -4678.8	   335.4
     26.5071	   481.0	   447.2	 -4678.8	   335.4
     26.5405	   437.0	   447.2	 -4678.8	   335.4
     26.5739	   396.0	   447.2	 -4678.8	   335.4
     26.6074	   462.0	   447.2	 -4678.8	   335.4
     26.6408	   417.0	   447.2	 -4678.8	   335.4
     26.6742	   430.0	   447.2	 -4678.8	   335.4
     26.7076	   488.0	   447.2	 -4678.8	   335.4
     26.7410	   395.0	   447.2	 -4678.8	   335.4
     26.7745	   458.0	   447.2	 -4678.8	   335.4
     26.8079	   447.0	   447.2	 -4678.8	   335.4
     26.8413	   438.0	   447.2	 -4678.8	   335.4
     26.8747	   450.0	   447.2	 -4678.8	   335.4
     26.9082	   468.0	   447.2	 -4678.8	   335.4
     26.9416	   425.0	   447.2	 -4678.8	   335.4
     26.9750	   452.0	   447.2	 -4678.8	   335.4
     27.0084	   421.0	   447.2	 -4678.8	   335.4
     27.0418	   444.0	   447.2	 -4678.8	   335.4
     27.0753	   443.0	   447.2	 -4678.8	   335.4
     27.1087	   451.0	   447.2	 -4678.8	   335.4
     27.1421	   441.0	   447.2	 -4678.8	   335.4
     27.1755	   476.0	   447.2	 -4678.8	   335.4
     27.2090	   459.0	   447.2	 -4678.8	   335.4
     27.2424	   441.0	   447.2	 -4678.8	   335.4
     27.2758	   449.0	   447.2	 -4678.8	   335.4
     27.3092	   446.0	   447.2	 -4678.8	   335.4
     27.3426	   402.0	   447.2	 -4678.8	   335.4
     27.3761	   436.0	   447.2	 -4678.8	   335.4
     27.4095	   431.0	   447.2	 -4678.8	   335.4
     27.4429	   410.0	   447.2	 -4678.8	   335.4
     27.4763	   437.0	   447.2	 -4678.8	   335.4
     27.5098	   436.0	   447.2	 -4678.8	   335.4
     27.5432	   462.0	   447.2	 -4678.8	   335.4
     27.5766	   399.0	   447.2	 -4678.8	   335.4
     27.6100	   434.0	   447.2	 -4678.8	   335.4
     27.6434	   413.0	   447.2	 -4678.8	   335.4
     27.6769	   468.0	   447.2	 -4678.8	   335.4
     27.7103	   429.0	   447.2	 -4678.8	   335.4
     27.7437	   400.0	   447.2	 -4678.8	   335.4
     27.7771	   449.0	   447.2	 -4678.8	   335.4
     27.8106	   431.0	   447.2	 -4678.8	   335.4
     27.8440	   480.0	   447.2	 -4678.8	   335.4
     27.8774	   430.0	   447.2	 -4678.8	   335.4
     27.9108	   433.0	   447.2	 -4678.8	   335.4
     27.9443	   419.0	   447.2	 -4678.8	   335.4
     27.9777	   440.0	   447.2	 -4678.8	   335.4
     28.0111	   441.0	   447.2	 -4678.8	   335.4
     28.0445	   449.0	   447.2	 -4678.8	   335.4
     28.0779	   438.0	   447.2	 -4678.8	   335.4
     28.1114	   414.0	   447.2	 -4678.8	   335.4
     28.1448	   429.0	   447.2	 -4678.8	   335.4
     28.1782	   449.0	   447.2	 -4678.8	   335.4
     28.2116	   438.0	   447.2	 -4678.8	   335.4
     28.2451	   416.0	   447.2	 -4678.8	   335.4
     28.2785	   394.0	   447.2	 -4678.8	   335.4
     28.3119	   426.0	   447.2	 -4678.8	   335.4
     28.3453	   437.0	   447.2	 -4678.8	   335.4
     28.3787	   430.0	   447.2	 -4678.8	   335.4
     28.4122	   431.0	   447.2	 -4678.8	   335.4
     28.4456	   410.0	   447.2	 -4678.8	   335.4
     28.4790	   388.0	   447.2	 -4678.8	   335.4
     28.5124	   388.0	   447.2	 -4678.8	   335.4
     28.5459	   436.0	   447.2	 -4678.8	   335.4
     28.5793	   446.0	   447.2	 -4678.8	   335.4
     28.6127	   430.0	   447.2	 -4678.8	   335.4
     28.6461	   460.0	   447.2	 -4678.8	   335.4
     28.6795	   425.0	   447.2	 -4678.8	   335.4
     28.7130	   461.0	   447.2	 -4678.8	   335.4
     28.7464	   439.0	   447.2	 -4678.8	   335.4
     28.7798	   462.0	   447.2	 -4678.8	   335.4
     28.8132	   408.0	   447.2	 -4678.8	   335.4
     28.8467	   456.0	   447.2	 -4678.8	   335.4
     28.8801	   420.0	   447.2	 -4678.8	   335.4
     28.9135	   441.0	   447.2	 -4678.8	   335.4
     28.9469	   423.0	   447.2	 -4678.8	   335.4
     28.9804	   420.0	   447.2	 -4678.8	   335.4
     29.0138	   428.0	   447.2	 -4678.8	   335.4
     29.0472	   437.0	   447.2	 -4678.8	   335.4
     29.0806	   414.0	   447.2	 -4678.8	   335.4
     29.1140	   438.0	   447.2	 -4678.8	   335.4
     29.1475	   437.0	   447.2	 -4678.8	   335.4
     29.1809	   389.0	   447.2	 -4678.8	   335.4
     29.2143	   436.0	   447.2	 -4678.8	   335.4
     29.2477	   397.0	   447.2	 -4678.8	   335.4
     29.2812	   392.0	   447.2	 -4678.8	   335.4
     29.3146	   450.0	   447.2	 -4678.8	   335.4
     29.3480	   431.0	   447.2	 -4678.8	   335.4
     29.3814	   414.0	   447.2	 -4678.8	   335.4
     29.4148	   417.0	   447.2	 -4678.8	   335.4
     29.4483	   440.0	   447.2	 -4678.8	   335.4
     29.4817	   408.0	   447.2	 -4678.8	   335.4
     29.5151	   447.0	   447.2	 -4678.8	   335.4
     29.5485	   436.0	   447.2	 -4678.8	   335.4
     29.5820	   420.0	   447.2	 -4678.8	   335.4
     29.6154	   454.0	   447.2	 -4678.8	   335.4
     29.6488	   423.0	   447.2	 -4678.8	   335.4
     29.6822	   408.0	   447.2	 -4678.8	   335.4
     29.7156	   418.0	   447.2	 -4678.8	   335.4
     29.7491	   427.0	   447.2	 -4678.8	   335.4
     29.7825	   439.0	   447.2	 -4678.8	   335.4
     29.8159	   430.0	   447.2	 -4678.8	   335.4
     29.8493	   451.0	   447.2	 -4678.8	   335.4
     29.8828	   441.0	   447.2	 -4678.8	   335.4
     29.9162	   425.0	   447.2	 -4678.8	   335.4
     29.9496	   456.0	   447.2	 -4678.8	   335.4
     29.9830	   436.0	   447.2	 -4678.8	   335.4
     30.0164	   460.0	   447.2	 -4678.8	   335.4
     30.0499	   415.0	   447.2	 -4678.8	   335.4
     30.0833	   447.0	   447.2	 -4678.8	   335.4
     30.1167	   395.0	   447.2	 -4678.8	   335.4
     30.1501	   410.0	   447.2	 -4678.8	   335.4
     30.1836	   446.0	   447.2	 -4678.8	   335.4
     30.2170	   420.0	   447.2	 -4678.8	   335.4
     30.2504	   425.0	   447.2	 -4678.8	   335.4
     30.2838	   474.0	   447.2	 -4678.8	   335.4
     30.3173	   437.0	   447.2	 -4678.8	   335.4
     30.3507	   416.0	   447.2	 -4678.8	   335.4
     30.3841	   394.0	   447.2	 -4678.8	   335.4
     30.4175	   452.0	   447.2	 -4678.8	   335.4
     30.4509	   397.0	   447.2	 -4678.8	   335.4
     30.4844	   464.0	   447.2	 -4678.8	   335.4
     30.5178	   435.0	   447.2	 -4678.8	   335.4
     30.5512	   418.0	   447.2	 -4678.8	   335.4
     30.5846	   426.0	   447.2	 -4678.8	   335.4
     30.6181	   457.0	   447.2	 -4678.8	   335.4
     30.6515	   408.0	   447.2	 -4678.8	   335.4
     30.6849	   403.0	   447.2	 -4678.8	   335.4
     30.7183	   413.0	   447.2	 -4678.8	   335.4
     30.7517	   425.0	   447.2	 -4678.8	   335.4
     30.7852	   445.0	   447.2	 -4678.8	   335.4
     30.8186	   483.0	   447.2	 -4678.8	   335.4
     30.8520	   446.0	   447.2	 -4678.8	   335.4
     30.8854	   431.0	   447.2	 -4678.8	   335.4
     30.9189	   439.0	   447.2	 -4678.8	   335.4
     30.9523	   430.0	   447.2	 -4678.8	   335.4
     30.9857	   388.0	   447.2	 -4678.8	   335.4
     31.0191	   474.0	   447.2	 -4678.8	   335.4
     31.0525	   420.0	   447.2	 -4678.8	   335.4
     31.0860	   445.0	   447.2	 -4678.8	   335.4
     31.1194	   437.0	   447.2	 -4678.8	   335.4
     31.1528	   449.0	   447.2	 -4678.8	   335.4
     31.1862	   379.0	   447.2	 -4678.8	   335.4
     31.2197	   413.0	   447.2	 -4678.8	   335.4
     31.2531	   467.0	   447.2	 -4678.8	   335.4
     31.2865	   430.0	   447.2	 -4678.8	   335.4
     31.3199	   416.0	   447.2	 -4678.8	   335.4
     31.3534	   411.0	   447.2	 -4678.8	   335.4
     31.3868	   438.0	   447.2	 -4678.8	   335.4
     31.4202	   474.0	   447.2	 -4678.8	   335.4
     31.4536	   402.0	   447.2	 -4678.8	   335.4
     31.4870	   428.0	   447.2	 -4678.8	   335.4
     31.5205	   452.0	   447.2	 -4678.8	   335.4
     31.5539	   459.0	   447.2	 -4678.8	   335.4
     31.5873	   459.0	   447.2	 -4678.8	   335.4
     31.6207	   424.0	   447.2	 -4678.8	   335.4
     31.6542	   464.0	   447.2	 -4678.8	   335.4
     31.6876	   393.0	   447.2	 -4678.8	   335.4
     31.7210	   456.0	   447.2	 -4678.8	   335.4
     31.7544	   458.0	   447.2	 -4678.8	   335.4
     31.7878	   485.0	   447.2	 -4678.8	   335.4
     31.8213	   477.0	   447.2	 -4678.8	   335.4
     31.8547	   438.0	   447.2	 -4678.8	   335.4
     31.8881	   445.0	   447.2	 -4678.8	   335.4
     31.9215	   413.0	   447.2	 -4678.8	   335.4
     31.9550	   423.0	   447.2	 -4678.8	   335.4
     31.9884	   403.0	   447.2	 -4678.8	   335.4
     32.0218	   459.0	   447.2	 -4678.8	   335.4
     32.0552	   423.0	   447.2	 -4678.8	   335.4
     32.0886	   455.0	   447.2	 -4678.8	   335.4
     32.1221	   428.0	   447.2	 -4678.8	   335.4
     32.1555	   435.0	   447.2	 -4678.8	   335.4
     32.1889	   433.0	   447.2	 -4678.8	   335.4
     32.2223	   400.0	   447.2	 -4678.8	   335.4
     32.2558	   456.0	   447.2	 -4678.8	   335.4
     32.2892	   430.0	   447.2	 -4678.8	   335.4
     32.3226	   420.0	   447.2	 -4678.8	   335.4
     32.3560	   417.0	   447.2	 -4678.8	   335.4
     32.3895	   436.0	   447.2	 -4678.8	   335.4
     32.4229	   447.0	   447.2	 -4678.8	   335.4
     32.4563	   415.0	   447.2	 -4678.8	   335.4
     32.4897	   434.0	   447.2	 -4678.8	   335.4
     32.5231	   455.0	   447.2	 -4678.8	   335.4
     32.5566	   368.0	   447.2	 -4678.8	   335.4
     32.5900	   410.0	   447.2	 -4678.8	   335.4
     32.6234	   436.0	   447.2	 -4678.8	   335.4
     32.6568	   420.0	   447.2	 -4678.8	   335.4
     32.6903	   460.0	   447.2	 -4678.8	   335.4
     32.7237	   438.0	   447.2	 -4678.8	   335.4
     32.7571	   436.0	   447.2	 -4678.8	   335.4
     32.7905	   451.0	   447.2	 -4678.8	   335.4
     32.8239	   435.0	   447.2	 -4678.8	   335.4
     32.8574	   434.0	   447.2	 -4678.8	   335.4
     32.8908	   464.0	   447.2	 -4678.8	   335.4
     32.9242	   433.0	   447.2	 -4678.8	   335.4
     32.9576	   408.0	   447.2	 -4678.8	   335.4
     32.9911	   443.0	   447.2	 -4678.8	   335.4
     33.0245	   379.0	   447.2	 -4678.8	   335.4
     33.0579	   416.0	   447.2	 -4678.8	   335.4
     33.0913	   437.0	   447.2	 -4678.8	   335.4
     33.1247	   417.0	   447.2	 -4678.8	   335.4
     33.1582	   437.0	   447.2	 -4678.8	   335.4
     33.1916	   454.0	   447.2	 -4678.8	   335.4
     33.2250	   428.0	   447.2	 -4678.8	   335.4
     33.2584	   386.0	   447.2	 -4678.8	   335.4
     33.2919	   402.0	   447.2	 -4678.8	   335.4
     33.3253	   458.0	   447.2	 -4678.8	   335.4
     33.3587	   433.0	   447.2	 -4678.8	   335.4
     33.3921	   433.0	   447.2	 -4678.8	   335.4
     33.4255	   458.0	   447.2	 -4678.8	   335.4
     33.4590	   450.0	   447.2	 -4678.8	   335.4
     33.4924	   444.0	   447.2	 -4678.8	   335.4
     33.5258	   452.0	   447.2	 -4678.8	   335.4
     33.5592	   452.0	   447.2	 -4678.8	   335.4
     33.5927	   451.0	   447.2	 -4678.8	   335.4
     33.6261	   426.0	   447.2	 -4678.8	   335.4
     33.6595	   431.0	   447.2	 -4678.8	   335.4
     33.6929	   423.0	   447.2	 -4678.8	   335.4
     33.7264	   430.0	   447.2	 -4678.8	   335.4
     33.7598	   458.0	   447.2	 -4678.8	   335.4
     33.7932	   437.0	   447.2	 -4678.8	   335.4
     33.8266	   460.0	   447.2	 -4678.8	   335.4
     33.8600	   411.0	   447.2	 -4678.8	   335.4
     33.8935	   439.0	   447.2	 -4678.8	   335.4
     33.9269	   409.0	   447.2	 -4678.8	   335.4
     33.9603	   449.0	   447.2	 -4678.8	   335.4
     33.9937	   440.0	   447.2	 -4678.8	   335.4
     34.0272	   425.0	   447.2	 -4678.8	   335.4
     34.0606	   448.0	   447.2	 -4678.8	   335.4
     34.0940	   427.0	   447.2	 -4678.8	   335.4
     34.1274	   457.0	   447.2	 -4678.8	   335.4
     34.1608	   425.0	   447.2	 -4678.8	   335.4
     34.1943	   427.0	   447.2	 -4678.8	   335.4
     34.2277	   445.0	   447.2	 -4678.8	   335.4
     34.2611	   447.0	   447.2	 -4678.8	   335.4
     34.2945	   414.0	   447.2	 -4678.8	   335.4
     34.3280	   393.0	   447.2	 -4678.8	   335.4
     34.3614	   418.0	   447.2	 -4678.8	   335.4
     34.3948	   428.0	   447.2	 -4678.8	   335.4
     34.4282	   430.0	   447.2	 -4678.8	   335.4
     34.4616	   443.0	   447.2	 -4678.8	   335.4
     34.4951	   420.0	   447.2	 -4678.8	   335.4
     34.5285	   421.0	   447.2	 -4678.8	   335.4
     34.5619	   426.0	   447.2	 -4678.8	   335.4
     34.5953	   447.0	   447.2	 -4678.8	   335.4
     34.6288	   488.0	   447.2	 -4678.8	   335.4
     34.6622	   437.0	   447.2	 -4678.8	   335.4
     34.6956	   458.0	   447.2	 -4678.8	   335.4
     34.7290	   456.0	   447.2	 -4678.8	   335.4
     34.7625	   455.0	   447.2	 -4678.8	   335.4
     34.7959	   436.0	   447.2	 -4678.8	   335.4
     34.8293	   456.0	   447.2	 -4678.8	   335.4
     34.8627	   471.0	   447.2	 -4678.8	   335.4
     34.8961	   430.0	   447.2	 -4678.8	   335.4
     34.9296	   481.0	   447.2	 -4678.8	   335.4
     34.9630	   433.0	   447.2	 -4678.8	   335.4
     34.9964	   450.0	   447.2	 -4678.8	   335.4
     35.0298	   383.0	   447.2	 -4743.0	   335.4
     35.0633	   414.0	   447.2	 -4712.0	   335.4
     35.0967	   462.0	   447.2	 -4664.0	   335.4
     35.1301	   483.0	   447.2	 -4643.0	   335.4
     35.1635	   438.0	   447.2	 -4688.0	   335.4
     35.1969	   417.0	   447.2	 -4709.0	   335.4
     35.2304	   491.0	   447.2	 -4635.0	   335.4
     35.2638	   443.0	   447.2	 -4683.0	   335.4
     35.2972	   445.0	   447.2	 -4681.0	   335.4
     35.3306	   456.0	   447.2	 -4670.0	   335.4
     35.3641	   457.0	   447.2	 -4669.0	   335.4
     35.3975	   443.0	   447.2	 -4683.0	   335.4
     35.4309	   498.0	   447.2	 -4628.0	   335.4
     35.4643	   451.0	   447.2	 -4675.0	   335.4
     35.4977	   441.0	   447.2	 -4685.0	   335.4
     35.5312	   437.0	   447.2	 -4689.0	   335.4
     35.5646	   417.0	   447.2	 -4709.0	   335.4
     35.5980	   439.0	   447.2	 -4687.0	   335.4
     35.6314	   441.0	   447.2	 -4685.0	   335.4
     35.6649	   437.0	   447.2	 -4689.0	   335.4
     35.6983	   427.0	   447.2	 -4699.0	   335.4
     35.7317	   451.0	   447.2	 -4675.0	   335.4
     35.7651	   447.0	   447.2	 -4679.0	   335.4
     35.7985	   450.0	   447.2	 -4676.0	   335.4
     35.8320	   445.0	   447.2	 -4681.0	   335.4
     35.8654	   446.0	   447.2	 -4680.0	   335.4
     35.8988	   424.0	   447.2	 -4702.0	   335.4
     35.9322	   436.0	   447.2	 -4690.0	   335.4
     35.9657	   398.0	   447.2	 -4728.0	   335.4
     35.9991	   413.0	   447.2	 -4713.0	   335.4
     36.0325	   445.0	   447.2	 -4681.0	   335.4
     36.0659	   427.0	   447.2	 -4699.0	   335.4
     36.0993	   433.0	   447.2	 -4693.0	   335.4
     36.1328	   414.0	   447.2	 -4712.0	   335.4
     36.1662	   461.0	   447.2	 -4665.0	   335.4
     36.1996	   480.0	   447.2	 -4646.0	   335.4
     36.2330	   454.0	   447.2	 -4672.0	   335.4
     36.2665	   475.0	   447.2	 -4651.0	   335.4
     36.2999	   427.0	   447.2	 -4699.0	   335.4
     36.3333	   441.0	   447.2	 -4685.0	   335.4
     36.3667	   407.0	   447.2	 -4719.0	   335.4
     36.4002	   447.0	   447.2	 -4679.0	   335.4
     36.4336	   436.0	   447.2	 -4690.0	   335.4
     36.4670	   436.0	   447.2	 -4690.0	   335.4
     36.5004	   439.0	   447.2	 -4687.0	   335.4
     36.5338	   417.0	   447.2	 -4709.0	   335.4
     36.5673	   443.0	   447.2	 -4683.0	   335.4
     36.6007	   457.0	   447.2	 -4669.0	   335.4
     36.6341	   437.0	   447.2	 -4689.0	   335.4
     36.6675	   408.0	   447.2	 -4718.0	   335.4
     36.7010	   474.0	   447.2	 -4652.0	   335.4
     36.7344	   483.0	   447.2	 -4643.0	   335.4
     36.7678	   464.0	   447.2	 -4662.0	   335.4
     36.8012	   464.0	   447.2	 -4662.0	   335.4
     36.8346	   476.0	   447.2	 -4650.0	   335.4
     36.8681	   436.0	   447.2	 -4690.0	   335.4
     36.9015	   469.0	   447.2	 -4657.0	   335.4
     36.9349	   440.0	   447.2	 -4686.0	   335.4
     36.9683	   456.0	   447.2	 -4670.0	   335.4
     37.0018	   444.0	   447.2	 -4682.0	   335.4
     37.0352	   451.0	   447.2	 -4675.0	   335.4
     37.0686	   449.0	   447.2	 -4677.0	   335.4
     37.1020	   450.0	   447.2	 -4676.0	   335.4
     37.1355	   460.0	   447.2	 -4666.0	   335.4
     37.1689	   469.0	   447.2	 -4657.0	   335.4
     37.2023	   538.0	   447.2	 -4588.0	   335.4
     37.2357	   492.0	   447.2	 -4634.0	   335.4
     37.2691	   518.0	   447.2	 -4608.0	   335.4
     37.3026	   458.0	   447.2	 -4668.0	   335.4
     37.3360	   517.0	   447.2	 -4609.0	   335.4
     37.3694	   507.0	   447.2	 -4619.0	   335.4
     37.4028	   491.0	   447.2	 -4635.0	   335.4
     37.4363	   489.0	   447.2	 -4637.0	   335.4
     37.4697	   429.0	   447.2	 -4697.0	   335.4
     37.5031	   441.0	   447.2	 -4685.0	   335.4
     37.5365	   423.0	   447.2	 -4703.0	   335.4
     37.5699	   445.0	   447.2	 -4681.0	   335.4
     37.6034	   465.0	   447.2	 -4661.0	   335.4
     37.6368	   454.0	   447.2	 -4672.0	   335.4
     37.6702	   499.0	   447.2	 -4627.0	   335.4
     37.7036	   470.0	   447.2	 -4656.0	   335.4
     37.7371	   455.0	   447.2	 -4671.0	   335.4
     37.7705	   474.0	   447.2	 -4652.0	   335.4
     37.8039	   466.0	   447.2	 -4660.0	   335.4
     37.8373	   474.0	   447.2	 -4652.0	   335.4
     37.8707	   429.0	   447.2	 -4697.0	   335.4
     37.9042	   479.0	   447.2	 -4647.0	   335.4
     37.9376	   430.0	   447.2	 -4696.0	   335.4
     37.9710	   465.0	   447.2	 -4661.0	   335.4
     38.0044	   430.0	   447.2	 -4696.0	   335.4
     38.0379	   465.0	   447.2	 -4661.0	   335.4
     38.0713	   455.0	   447.2	 -4671.0	   335.4
     38.1047	   423.0	   447.2	 -4703.0	   335.4
     38.1381	   451.0	   447.2	 -4675.0	   335.4
     38.1715	   455.0	   447.2	 -4671.0	   335.4
     38.2050	   438.0	   447.2	 -4688.0	   335.4
     38.2384	   433.0	   447.2	 -4693.0	   335.4
     38.2718	   425.0	   447.2	 -4701.0	   335.4
     38.3052	   475.0	   447.2	 -4651.0	   335.4
     38.3387	   392.0	   447.2	 -4734.0	   335.4
     38.3721	   437.0	   447.2	 -4689.0	   335.4
     38.4055	   471.0	   447.2	 -4655.0	   335.4
     38.4389	   443.0	   447.2	 -4683.0	   335.4
     38.4724	   427.0	   447.2	 -4699.0	   335.4
     38.5058	   421.0	   447.2	 -4705.0	   335.4
     38.5392	   429.0	   447.2	 -4697.0	   335.4
     38.5726	   472.0	   447.2	 -4654.0	   335.4
     38.6060	   455.0	   447.2	 -4671.0	   335.4
     38.6395	   435.0	   447.2	 -4691.0	   335.4
     38.6729	   465.0	   447.2	 -4661.0	   335.4
     38.7063	   435.0	   447.2	 -4691.0	   335.4
     38.7397	   470.0	   447.2	 -4656.0	   335.4
     38.7732	   472.0	   447.2	 -4654.0	   335.4
     38.8066	   465.0	   447.2	 -4661.0	   335.4
     38.8400	   486.0	   447.2	 -4640.0	   335.4
     38.8734	   414.0	   447.2	 -4712.0	   335.4
     38.9068	   416.0	   447.2	 -4710.0	   335.4
     38.9403	   491.0	   447.2	 -4635.0	   335.4
     38.9737	   426.0	   447.2	 -4700.0	   335.4
     39.0071	   436.0	   447.2	 -4690.0	   335.4
     39.0405	   462.0	   447.2	 -4664.0	   335.4
     39.0740	   479.0	   447.2	 -4647.0	   335.4
     39.1074	   476.0	   447.2	 -4650.0	   335.4
     39.1408	   500.0	   447.2	 -4626.0	   335.4
     39.1742	   478.0	   447.2	 -4648.0	   335.4
     39.2076	   419.0	   447.2	 -4707.0	   335.4
     39.2411	   436.0	   447.2	 -4690.0	   335.4
     39.2745	   461.0	   447.2	 -4665.0	   335.4
     39.3079	   456.0	   447.2	 -4670.0	   335.4
     39.3413	   469.0	   447.2	 -4657.0	   335.4
     39.3748	   466.0	   447.2	 -4660.0	   335.4
     39.4082	   424.0	   447.2	 -4702.0	   335.4
     39.4416	   448.0	   447.2	 -4678.0	   335.4
     39.4750	   478.0	   447.2	 -4648.0	   335.4
     39.5084	   435.0	   447.2	 -4691.0	   335.4
     39.5419	   462.0	   447.2	 -4664.0	   335.4
     39.5753	   471.0	   447.2	 -4655.0	   335.4
     39.6087	   478.0	   447.2	 -4648.0	   335.4
     39.6421	   488.0	   447.2	 -4638.0	   335.4
     39.6756	   493.0	   447.2	 -4633.0	   335.4
     39.7090	   466.0	   447.2	 -4660.0	   335.4
     39.7424	   459.0	   447.2	 -4667.0	   335.4
     39.7758	   439.0	   447.2	 -4687.0	   335.4
     39.8093	   466.0	   447.2	 -4660.0	   335.4
     39.8427	   475.0	   447.2	 -4651.0	   335.4
     39.8761	   430.0	   447.2	 -4696.0	   335.4
     39.9095	   470.0	   447.2	 -4656.0	   335.4
     39.9429	   448.0	   447.2	 -4678.0	   335.4
     39.9764	   511.0	   447.2	 -4615.0	   335.4
     40.0098	   460.0	   447.2	 -4666.0	   335.4
     40.0432	   436.0	   447.2	 -4690.0	   335.4
     40.0766	   476.0	   447.2	 -4650.0	   335.4
     40.1101	   448.0	   447.2	 -4678.0	   335.4
     40.1435	   492.0	   447.2	 -4634.0	   335.4
     40.1769	   491.0	   447.2	 -4635.0	   335.4
     40.2103	   428.0	   447.2	 -4698.0	   335.4
     40.2437	   418.0	   447.2	 -4708.0	   335.4
     40.2772	   457.0	   447.2	 -4669.0	   335.4
     40.3106	   491.0	   447.2	 -4635.0	   335.4
     40.3440	   434.0	   447.2	 -4692.0	   335.4
     40.3774	   522.0	   447.2	 -4604.0	   335.4
     40.4109	   460.0	   447.2	 -4666.0	   335.4
     40.4443	   487.0	   447.2	 -4639.0	   335.4
     40.4777	   441.0	   447.2	 -4685.0	   335.4
     40.5111	   474.0	   447.2	 -4652.0	   335.4
     40.5445	   450.0	   447.2	 -4676.0	   335.4
     40.5780	   433.0	   447.2	 -4693.0	   335.4
     40.6114	   469.0	   447.2	 -4657.0	   335.4
     40.6448	   510.0	   447.2	 -4616.0	   335.4
     40.6782	   482.0	   447.2	 -4644.0	   335.4
     40.7117	   459.0	   447.2	 -4667.0	   335.4
     40.7451	   459.0	   447.2	 -4667.0	   335.4
     40.7785	   511.0	   447.2	 -4615.0	   335.4
     40.8119	   460.0	   447.2	 -4666.0	   335.4
     40.8454	   481.0	   447.2	 -4645.0	   335.4
     40.8788	   497.0	   447.2	 -4629.0	   335.4
     40.9122	   481.0	   447.2	 -4645.0	   335.4
     40.9456	   472.0	   447.2	 -4654.0	   335.4
     40.9790	   489.0	   447.2	 -4637.0	   335.4
     41.0125	   455.0	   447.2	 -4671.0	   335.4
     41.0459	   482.0	   447.2	 -4644.0	   335.4
     41.0793	   470.0	   447.2	 -4656.0	   335.4
     41.1127	   462.0	   447.2	 -4664.0	   335.4
     41.1462	   468.0	   447.2	 -4658.0	   335.4
     41.1796	   448.0	   447.2	 -4678.0	   335.4
     41.2130	   461.0	   447.2	 -4665.0	   335.4
     41.2464	   469.0	   447.2	 -4657.0	   335.4
     41.2798	   483.0	   447.2	 -4643.0	   335.4
     41.3133	   490.0	   447.2	 -4636.0	   335.4
     41.3467	   450.0	   447.2	 -4676.0	   335.4
     41.3801	   495.0	   447.2	 -4631.0	   335.4
     41.4135	   415.0	   447.2	 -4711.0	   335.4
     41.4470	   479.0	   447.2	 -4647.0	   335.4
     41.4804	   551.0	   447.2	 -4575.0	   335.4
     41.5138	   495.0	   447.2	 -4631.0	   335.4
     41.5472	   472.0	   447.2	 -4654.0	   335.4
     41.5807	   485.0	   447.2	 -4641.0	   335.4
     41.6141	   483.0	   447.2	 -4643.0	   335.4
     41.6475	   444.0	   447.2	 -4682.0	   335.4
     41.6809	   508.0	   447.2	 -4618.0	   335.4
     41.7143	   481.0	   447.2	 -4645.0	   335.4
     41.7478	   485.0	   447.2	 -4641.0	   335.4
     41.7812	   508.0	   447.2	 -4618.0	   335.4
     41.8146	   474.0	   447.2	 -4652.0	   335.4
     41.8480	   444.0	   447.2	 -4682.0	   335.4
     41.8815	   477.0	   447.2	 -4649.0	   335.4
     41.9149	   496.0	   447.2	 -4630.0	   335.4
     41.9483	   519.0	   447.2	 -4607.0	   335.4
     41.9817	   486.0	   447.2	 -4640.0	   335.4
     42.0151	   505.0	   447.2	 -4621.0	   335.4
     42.0486	   456.0	   447.2	 -4670.0	   335.4
     42.0820	   446.0	   447.2	 -4680.0	   335.4
     42.1154	   472.0	   447.2	 -4654.0	   335.4
     42.1488	   438.0	   447.2	 -4688.0	   335.4
     42.1823	   429.0	   447.2	 -4697.0	   335.4
     42.2157	   476.0	   447.2	 -4650.0	   335.4
     42.2491	   458.0	   447.2	 -4668.0	   335.4
     42.2825	   539.0	   447.2	 -4587.0	   335.4
     42.3159	   505.0	   447.2	 -4621.0	   335.4
     42.3494	   521.0	   447.2	 -4605.0	   335.4
     42.3828	   481.0	   447.2	 -4645.0	   335.4
     42.4162	   465.0	   447.2	 -4661.0	   335.4
     42.4496	   490.0	   447.2	 -4636.0	   335.4
     42.4831	   541.0	   447.2	 -4585.0	   335.4
     42.5165	   546.0	   447.2	 -4580.0	   335.4
     42.5499	   537.0	   447.2	 -4589.0	   335.4
     42.5833	   485.0	   447.2	 -4641.0	   335.4
     42.6167	   509.0	   447.2	 -4617.0	   335.4
     42.6502	   501.0	   447.2	 -4625.0	   335.4
     42.6836	   509.0	   447.2	 -4617.0	   335.4
     42.7170	   541.0	   447.2	 -4585.0	   335.4
     42.7504	   510.0	   447.2	 -4616.0	   335.4
     42.7839	   492.0	   447.2	 -4634.0	   335.4
     42.8173	   491.0	   468.3	 -4656.1	   335.4
     42.8507	   482.0	   469.2	 -4666.0	   335.4
     42.8841	   552.0	   470.1	 -4597.0	   335.4
     42.9175	   534.0	   481.5	 -4626.3	   335.4
     42.9510	   540.0	   482.9	 -4621.8	   335.4
     42.9844	   526.0	   484.5	 -4637.4	   335.4
     43.0178	   537.0	   486.3	 -4628.1	   335.4
     43.0512	   540.0	   488.1	 -4626.9	   335.4
     43.0847	   572.0	   490.1	 -4596.9	   335.4
     43.1181	   549.0	   492.2	 -4622.0	   335.4
     43.1515	   575.0	   494.4	 -4598.3	   335.4
     43.1849	   569.0	   496.9	 -4606.7	   335.4
     43.2184	   626.0	   499.5	 -4552.3	   335.4
     43.2518	   633.0	   502.4	 -4548.2	   335.4
     43.2852	   636.0	   505.4	 -4548.3	   335.4
     43.3186	   665.0	   508.8	 -4522.6	   335.4
     43.3520	   591.0	   512.5	 -4600.3	   335.4
     43.3855	   604.0	   516.5	 -4591.3	   335.4
     43.4189	   583.0	   520.8	 -4616.7	   335.4
     43.4523	   589.0	   525.6	 -4615.5	   335.4
     43.4857	   651.0	   530.9	 -4558.8	   335.4
     43.5192	   551.0	   536.8	 -4664.6	   335.4
     43.5526	   621.0	   543.2	 -4601.1	   335.4
     43.5860	   569.0	   550.4	 -4660.3	   335.4
     43.6194	   595.0	   558.5	 -4642.3	   335.4
     43.6528	   563.0	   567.5	 -4683.3	   335.4
     43.6863	   553.0	   577.7	 -4703.5	   335.4
     43.7197	   517.0	   589.2	 -4751.0	   335.4
     43.7531	   589.0	   602.3	 -4692.1	   335.4
     43.7865	   585.0	   617.3	 -4711.2	   335.4
     43.8200	   629.0	   634.6	 -4684.5	   335.4
     43.8534	   625.0	   654.7	 -4708.6	   335.4
     43.8868	   612.0	   678.2	 -4745.1	   335.4
     43.9202	   651.0	   706.0	 -4733.8	   335.4
     43.9536	   677.0	   739.1	 -4740.9	   335.4
     43.9871	   672.0	   778.9	 -4785.8	   335.4
     44.0205	   692.0	   827.6	 -4814.4	   335.4
     44.0539	   709.0	   887.8	 -4857.6	   335.4
     44.0873	   777.0	   963.5	 -4865.3	   335.4
     44.1208	   903.0	  1060.4	 -4836.3	   335.4
     44.1542	   950.0	  1187.5	 -4916.3	   335.4
     44.1876	  1227.0	  1358.3	 -4810.2	   335.4
     44.2210	  1526.0	  1596.2	 -4749.0	   335.4
     44.2544	  1808.0	  1945.6	 -4816.5	   335.4
     44.2879	  2375.0	  2510.1	 -4814.0	   335.4
     44.3213	  3523.0	  3540.8	 -4696.6	   335.4
     44.3547	  5564.0	  5540.8	 -4655.7	   335.4
     44.3881	  9854.0	  9164.9	 -3989.7	   335.4
     44.4216	 14943.0	 14475.1	 -4210.9	   335.4
     44.4550	 18630.0	 18715.4	 -4764.2	   335.4
     44.4884	 17025.0	 17688.7	 -5342.5	   335.4
     44.5218	 15346.0	 14797.6	 -4130.5	   335.4
     44.5553	 13965.0	 13340.7	 -4054.5	   335.4
     44.5887	 11695.0	 11372.5	 -4356.3	   335.4
     44.6221	  8330.0	  7990.2	 -4339.1	   335.4
     44.6555	  5493.0	  5128.0	 -4313.9	   335.4
     44.6889	  3706.0	  3351.3	 -4324.1	   335.4
     44.7224	  2505.0	  2371.9	 -4545.7	   335.4
     44.7558	  1780.0	  1833.4	 -4732.3	   335.4
     44.7892	  1375.0	  1508.8	 -4812.6	   335.4
     44.8226	  1129.0	  1291.5	 -4841.4	   335.4
     44.8561	  1001.0	  1136.0	 -4813.8	   335.4
     44.8895	   902.0	  1020.1	 -4796.9	   335.4
     44.9229	   815.0	   931.3	 -4795.2	   335.4
     44.9563	   787.0	   861.9	 -4753.7	   335.4
     44.9897	   757.0	   806.4	 -4728.2	   335.4
     45.0232	   641.0	   761.4	 -4799.2	   335.4
     45.0566	   668.0	   724.4	 -4735.2	   335.4
     45.0900	   670.0	   693.6	 -4702.4	   335.4
     45.1234	   645.0	   667.7	 -4701.5	   335.4
     45.1569	   637.0	   645.6	 -4687.5	   335.4
     45.1903	   582.0	   626.8	 -4723.6	   335.4
     45.2237	   563.0	   610.5	 -4726.3	   335.4
     45.2571	   573.0	   596.3	 -4702.1	   335.4
     45.2906	   574.0	   583.9	 -4688.8	   335.4
     45.3240	   558.0	   573.0	 -4693.8	   335.4
     45.3574	   589.0	   563.3	 -4653.2	   335.4
     45.3908	   555.0	   554.8	 -4678.6	   335.4
     45.4242	   568.0	   547.1	 -4658.0	   335.4
     45.4577	   564.0	   540.2	 -4655.1	   335.4
     45.4911	   562.0	   534.1	 -4650.9	   335.4
     45.5245	   527.0	   528.5	 -4680.3	   335.4
     45.5579	   521.0	   523.4	 -4681.2	   335.4
     45.5914	   520.0	   518.8	 -4677.6	   335.4
     45.6248	   534.0	   514.6	 -4659.4	   335.4
     45.6582	   542.0	   510.8	 -4647.6	   335.4
     45.6916	   479.0	   507.2	 -4707.1	   335.4
     45.7250	   541.0	   504.0	 -4641.9	   335.4
     45.7585	   523.0	   501.0	 -4656.9	   335.4
     45.7919	   510.0	   498.3	 -4667.1	   335.4
     45.8253	   519.0	   495.7	 -4655.6	   335.4
     45.8587	   505.0	   493.4	 -4667.2	   335.4
     45.8922	   499.0	   491.2	 -4671.0	   335.4
     45.9256	   470.0	   489.1	 -4698.0	   335.4
     45.9590	   537.0	   487.2	 -4629.1	   335.4
     45.9924	   511.0	   485.5	 -4653.3	   335.4
     46.0258	   573.0	   483.8	 -4589.6	   335.4
     46.0593	   540.0	   482.3	 -4621.1	   335.4
     46.0927	   459.0	   480.8	 -4700.6	   335.4
     46.1261	   491.0	   479.4	 -4667.3	   335.4
     46.1595	   512.0	   478.1	 -4645.0	   335.4
     46.1930	   480.0	   476.9	 -4675.8	   335.4
     46.2264	   488.0	   475.8	 -4666.6	   335.4
     46.2598	   519.0	   474.7	 -4634.6	   335.4
     46.2932	   490.0	   456.8	 -4645.6	   335.4
     46.3266	   476.0	   456.4	 -4659.3	   335.4
     46.3601	   553.0	   456.1	 -4581.9	   335.4
     46.3935	   478.0	   447.2	 -4648.0	   335.4
     46.4269	   491.0	   447.2	 -4635.0	   335.4
     46.4603	   444.0	   447.2	 -4682.0	   335.4
     46.4938	   534.0	   447.2	 -4592.0	   335.4
     46.5272	   529.0	   447.2	 -4597.0	   335.4
     46.5606	   480.0	   447.2	 -4646.0	   335.4
     46.5940	   489.0	   447.2	 -4637.0	   335.4
     46.6274	   529.0	   447.2	 -4597.0	   335.4
     46.6609	   490.0	   447.2	 -4636.0	   335.4
     46.6943	   513.0	   447.2	 -4613.0	   335.4
     46.7277	   544.0	   447.2	 -4582.0	   335.4
     46.7611	   482.0	   447.2	 -4644.0	   335.4
     46.7946	   508.0	   447.2	 -4618.0	   335.4
     46.8280	   482.0	   447.2	 -4644.0	   335.4
     46.8614	   448.0	   447.2	 -4678.0	   335.4
     46.8948	   461.0	   447.2	 -4665.0	   335.4
     46.9283	   467.0	   447.2	 -4659.0	   335.4
     46.9617	   472.0	   447.2	 -4654.0	   335.4
     46.9951	   482.0	   447.2	 -4644.0	   335.4
     47.0285	   517.0	   447.2	 -4609.0	   335.4
     47.0619	   466.0	   447.2	 -4660.0	   335.4
     47.0954	   469.0	   447.2	 -4657.0	   335.4
     47.1288	   487.0	   447.2	 -4639.0	   335.4
     47.1622	   509.0	   447.2	 -4617.0	   335.4
     47.1956	   448.0	   447.2	 -4678.0	   335.4
     47.2291	   471.0	   447.2	 -4655.0	   335.4
     47.2625	   501.0	   447.2	 -4625.0	   335.4
     47.2959	   471.0	   447.2	 -4655.0	   335.4
     47.3293	   469.0	   447.2	 -4657.0	   335.4
     47.3627	   458.0	   447.2	 -4668.0	   335.4
     47.3962	   485.0	   447.2	 -4641.0	   335.4
     47.4296	   431.0	   447.2	 -4695.0	   335.4
     47.4630	   492.0	   447.2	 -4634.0	   335.4
     47.4964	   454.0	   447.2	 -4672.0	   335.4
     47.5299	   481.0	   447.2	 -4645.0	   335.4
     47.5633	   427.0	   447.2	 -4699.0	   335.4
     47.5967	   441.0	   447.2	 -4685.0	   335.4
     47.6301	   464.0	   447.2	 -4662.0	   335.4
     47.6636	   449.0	   447.2	 -4677.0	   335.4
     47.6970	   423.0	   447.2	 -4703.0	   335.4
     47.7304	   503.0	   447.2	 -4623.0	   335.4
     47.7638	   488.0	   447.2	 -4638.0	   335.4
     47.7972	   465.0	   447.2	 -4661.0	   335.4
     47.8307	   489.0	   447.2	 -4637.0	   335.4
     47.8641	   495.0	   447.2	 -4631.0	   335.4
     47.8975	   454.0	   447.2	 -4672.0	   335.4
     47.9309	   477.0	   447.2	 -4649.0	   335.4
     47.9644	   456.0	   447.2	 -4670.0	   335.4
     47.9978	   454.0	   447.2	 -4672.0	   335.4
     48.0312	   435.0	   447.2	 -4691.0	   335.4
     48.0646	   430.0	   447.2	 -4696.0	   335.4
     48.0980	   438.0	   447.2	 -4688.0	   335.4
     48.1315	   489.0	   447.2	 -4637.0	   335.4
     48.1649	   407.0	   447.2	 -4719.0	   335.4
     48.1983	   468.0	   447.2	 -4658.0	   335.4
     48.2317	   462.0	   447.2	 -4664.0	   335.4
     48.2652	   469.0	   447.2	 -4657.0	   335.4
     48.2986	   502.0	   447.2	 -4624.0	   335.4
     48.3320	   447.0	   447.2	 -4679.0	   335.4
     48.3654	   478.0	   447.2	 -4648.0	   335.4
     48.3988	   449.0	   447.2	 -4677.0	   335.4
     48.4323	   457.0	   447.2	 -4669.0	   335.4
     48.4657	   498.0	   447.2	 -4628.0	   335.4
     48.4991	   449.0	   447.2	 -4677.0	   335.4
     48.5325	   466.0	   447.2	 -4660.0	   335.4
     48.5660	   454.0	   447.2	 -4672.0	   335.4
     48.5994	   471.0	   447.2	 -4655.0	   335.4
     48.6328	   451.0	   447.2	 -4675.0	   335.4
     48.6662	   465.0	   447.2	 -4661.0	   335.4
     48.6996	   467.0	   447.2	 -4659.0	   335.4
     48.7331	   462.0	   447.2	 -4664.0	   335.4
     48.7665	   430.0	   447.2	 -4696.0	   335.4
     48.7999	   487.0	   447.2	 -4639.0	   335.4
     48.8333	   503.0	   447.2	 -4623.0	   335.4
     48.8668	   457.0	   447.2	 -4669.0	   335.4
     48.9002	   456.0	   447.2	 -4670.0	   335.4
     48.9336	   449.0	   447.2	 -4677.0	   335.4
     48.9670	   516.0	   447.2	 -4610.0	   335.4
     49.0005	   469.0	   447.2	 -4657.0	   335.4
     49.0339	   465.0	   447.2	 -4661.0	   335.4
     49.0673	   452.0	   447.2	 -4674.0	   335.4
     49.1007	   461.0	   447.2	 -4665.0	   335.4
     49.1341	   498.0	   447.2	 -4628.0	   335.4
     49.1676	   457.0	   447.2	 -4669.0	   335.4
     49.2010	   452.0	   447.2	 -4674.0	   335.4
     49.2344	   461.0	   447.2	 -4665.0	   335.4
     49.2678	   488.0	   447.2	 -4638.0	   335.4
     49.3013	   452.0	   447.2	 -4674.0	   335.4
     49.3347	   469.0	   447.2	 -4657.0	   335.4
     49.3681	   507.0	   447.2	 -4619.0	   335.4
     49.4015	   480.0	   447.2	 -4646.0	   335.4
     49.4349	   457.0	   447.2	 -4669.0	   335.4
     49.4684	   444.0	   447.2	 -4682.0	   335.4
     49.5018	   521.0	   447.2	 -4605.0	   335.4
     49.5352	   492.0	   447.2	 -4634.0	   335.4
     49.5686	   477.0	   447.2	 -4649.0	   335.4
     49.6021	   451.0	   447.2	 -4675.0	   335.4
     49.6355	   459.0	   447.2	 -4667.0	   335.4
     49.6689	   438.0	   447.2	 -4688.0	   335.4
     49.7023	   452.0	   447.2	 -4674.0	   335.4
     49.7357	   441.0	   447.2	 -4685.0	   335.4
     49.7692	   480.0	   447.2	 -4646.0	   335.4
     49.8026	   462.0	   447.2	 -4664.0	   335.4
     49.8360	   488.0	   447.2	 -4638.0	   335.4
     49.8694	   500.0	   447.2	 -4626.0	   335.4
     49.9029	   497.0	   447.2	 -4629.0	   335.4
     49.9363	   486.0	   447.2	 -4640.0	   335.4
     49.9697	   455.0	   447.2	 -4671.0	   335.4
     50.0031	   488.0	   447.2	 -4638.0	   335.4
     50.0366	   452.0	   447.2	 -4674.0	   335.4
     50.0700	   487.0	   447.2	 -4639.0	   335.4
     50.1034	   444.0	   447.2	 -4682.0	   335.4
     50.1368	   472.0	   447.2	 -4654.0	   335.4
     50.1702	   492.0	   458.1	 -4645.0	   335.4
     50.2037	   462.0	   458.6	 -4675.4	   335.4
     50.2371	   481.0	   459.1	 -4656.9	   335.4
     50.2705	   471.0	   459.6	 -4667.4	   335.4
     50.3039	   507.0	   465.5	 -4637.4	   335.4
     50.3374	   441.0	   466.4	 -4704.2	   335.4
     50.3708	   466.0	   467.2	 -4680.1	   335.4
     50.4042	   470.0	   468.2	 -4677.0	   335.4
     50.4376	   511.0	   469.2	 -4637.0	   335.4
     50.4710	   511.0	   470.3	 -4638.1	   335.4
     50.5045	   524.0	   471.4	 -4626.3	   335.4
     50.5379	   481.0	   472.7	 -4670.5	   335.4
     50.5713	   501.0	   474.0	 -4651.9	   335.4
     50.6047	   486.0	   475.5	 -4668.3	   335.4
     50.6382	   508.0	   477.1	 -4647.9	   335.4
     50.6716	   459.0	   478.8	 -4698.6	   335.4
     50.7050	   497.0	   480.6	 -4662.5	   335.4
     50.7384	   502.0	   482.7	 -4659.5	   335.4
     50.7718	   480.0	   484.9	 -4683.8	   335.4
     50.8053	   534.0	   487.4	 -4632.2	   335.4
     50.8387	   500.0	   490.1	 -4668.9	   335.4
     50.8721	   470.0	   493.0	 -4701.9	   335.4
     50.9055	   445.0	   496.3	 -4730.2	   335.4
     50.9390	   450.0	   500.0	 -4728.8	   335.4
     50.9724	   516.0	   504.1	 -4666.9	   335.4
     51.0058	   532.0	   508.7	 -4655.5	   335.4
     51.0392	   514.0	   513.9	 -4678.7	   335.4
     51.0726	   513.0	   519.7	 -4685.6	   335.4
     51.1061	   512.0	   526.4	 -4693.2	   335.4
     51.1395	   541.0	   534.0	 -4671.9	   335.4
     51.1729	   512.0	   542.8	 -4709.7	   335.4
     51.2063	   505.0	   553.0	 -4726.9	   335.4
     51.2398	   594.0	   565.0	 -4649.8	   335.4
     51.2732	   552.0	   579.1	 -4705.9	   335.4
     51.3066	   578.0	   595.8	 -4696.7	   335.4
     51.3400	   604.0	   616.0	 -4690.9	   335.4
     51.3735	   644.0	   640.6	 -4675.5	   335.4
     51.4069	   680.0	   671.1	 -4669.9	   335.4
     51.4403	   694.0	   709.3	 -4694.1	   335.4
     51.4737	   749.0	   758.2	 -4688.0	   335.4
     51.5071	   878.0	   822.1	 -4622.9	   335.4
     51.5406	  1013.0	   908.0	 -4573.8	   335.4
     51.5740	  1203.0	  1027.7	 -4503.5	   335.4
     51.6074	  1382.0	  1204.9	 -4501.7	   335.4
     51.6408	  1715.0	  1491.6	 -4455.4	   335.4
     51.6743	  2325.0	  1996.2	 -4350.0	   335.4
     51.7077	  3196.0	  2900.0	 -4382.8	   335.4
     51.7411	  4518.0	  4398.8	 -4559.6	   335.4
     51.7745	  6092.0	  6416.3	 -5003.1	   335.4
     51.8079	  6934.0	  7845.8	 -5590.6	   335.4
     51.8414	  6568.0	  7330.8	 -5441.6	   335.4
     51.8748	  5975.0	  6105.2	 -4809.0	   335.4
     51.9082	  5484.0	  5511.3	 -4706.2	   335.4
     51.9416	  5279.0	  5252.2	 -4652.0	   335.4
     51.9751	  4162.0	  4382.0	 -4898.9	   335.4
     52.0085	  3282.0	  3162.1	 -4558.9	   335.4
     52.0419	  2511.0	  2207.9	 -4375.7	   335.4
     52.0753	  1795.0	  1605.7	 -4489.5	   335.4
     52.1087	  1468.0	  1254.2	 -4465.0	   335.4
     52.1422	  1159.0	  1047.0	 -4566.8	   335.4
     52.1756	  1021.0	   915.6	 -4573.4	   335.4
     52.2090	   817.0	   825.2	 -4687.0	   335.4
     52.2424	   765.0	   759.2	 -4673.1	   335.4
     52.2759	   726.0	   709.4	 -4662.2	   335.4
     52.3093	   629.0	   670.7	 -4720.5	   335.4
     52.3427	   633.0	   640.0	 -4685.8	   335.4
     52.3761	   645.0	   615.3	 -4649.1	   335.4
     52.4096	   560.0	   595.1	 -4713.9	   335.4
     52.4430	   523.0	   578.3	 -4734.2	   335.4
     52.4764	   509.0	   564.3	 -4734.1	   335.4
     52.5098	   510.0	   552.4	 -4721.2	   335.4
     52.5432	   558.0	   542.2	 -4663.1	   335.4
     52.5767	   516.0	   533.5	 -4696.3	   335.4
     52.6101	   547.0	   525.9	 -4657.7	   335.4
     52.6435	   546.0	   519.3	 -4652.1	   335.4
     52.6769	   524.0	   513.4	 -4668.3	   335.4
     52.7104	   490.0	   508.3	 -4697.2	   335.4
     52.7438	   512.0	   503.7	 -4670.6	   335.4
     52.7772	   507.0	   499.7	 -4671.5	   335.4
     52.8106	   482.0	   496.0	 -4692.9	   335.4
     52.8440	   469.0	   492.8	 -4702.6	   335.4
     52.8775	   496.0	   489.8	 -4672.6	   335.4
     52.9109	   472.0	   487.1	 -4694.0	   335.4
     52.9443	   486.0	   484.7	 -4677.5	   335.4
     52.9777	   487.0	   482.5	 -4674.3	   335.4
     53.0112	   439.0	   480.5	 -4720.3	   335.4
     53.0446	   449.0	   478.6	 -4708.4	   335.4
     53.0780	   460.0	   476.9	 -4695.7	   335.4
     53.1114	   479.0	   475.3	 -4675.2	   335.4
     53.1448	   454.0	   473.9	 -4698.7	   335.4
     53.1783	   455.0	   472.5	 -4696.4	   335.4
     53.2117	   468.0	   471.3	 -4682.1	   335.4
     53.2451	   444.0	   470.1	 -4705.0	   335.4
     53.2785	   482.0	   469.1	 -4665.9	   335.4
     53.3120	   471.0	   468.1	 -4675.9	   335.4
     53.3454	   472.0	   467.2	 -4674.0	   335.4
     53.3788	   462.0	   466.3	 -4683.1	   335.4
     53.4122	   435.0	   465.5	 -4709.3	   335.4
     53.4456	   506.0	   464.7	 -4637.5	   335.4
     53.4791	   511.0	   464.0	 -4631.8	   335.4
     53.5125	   480.0	   463.3	 -4662.2	   335.4
     53.5459	   477.0	   462.7	 -4664.5	   335.4
     53.5793	   465.0	   462.1	 -4675.9	   335.4
     53.6128	   469.0	   452.5	 -4662.3	   335.4
     53.6462	   474.0	   452.3	 -4657.1	   335.4
     53.6796	   490.0	   452.1	 -4640.9	   335.4
     53.7130	   477.0	   451.9	 -4653.7	   335.4
     53.7465	   487.0	   447.2	 -4639.0	   335.4
     53.7799	   435.0	   447.2	 -4691.0	   335.4
     53.8133	   489.0	   447.2	 -4637.0	   335.4
     53.8467	   468.0	   447.2	 -4658.0	   335.4
     53.8801	   434.0	   447.2	 -4692.0	   335.4
     53.9136	   470.0	   447.2	 -4656.0	   335.4
     53.9470	   456.0	   447.2	 -4670.0	   335.4
     53.9804	   475.0	   447.2	 -4651.0	   335.4
     54.0138	   465.0	   447.2	 -4661.0	   335.4
     54.0473	   477.0	   447.2	 -4649.0	   335.4
     54.0807	   456.0	   447.2	 -4670.0	   335.4
     54.1141	   489.0	   447.2	 -4637.0	   335.4
     54.1475	   465.0	   447.2	 -4661.0	   335.4
     54.1809	   474.0	   447.2	 -4652.0	   335.4
     54.2144	   491.0	   447.2	 -4635.0	   335.4
     54.2478	   445.0	   447.2	 -4681.0	   335.4
     54.2812	   439.0	   447.2	 -4687.0	   335.4
     54.3146	   491.0	   447.2	 -4635.0	   335.4
     54.3481	   440.0	   447.2	 -4686.0	   335.4
     54.3815	   499.0	   447.2	 -4627.0	   335.4
     54.4149	   486.0	   447.2	 -4640.0	   335.4
     54.4483	   480.0	   447.2	 -4646.0	   335.4
     54.4818	   452.0	   447.2	 -4674.0	   335.4
     54.5152	   492.0	   447.2	 -4634.0	   335.4
     54.5486	   452.0	   447.2	 -4674.0	   335.4
     54.5820	   472.0	   447.2	 -4654.0	   335.4
     54.6154	   446.0	   447.2	 -4680.0	   335.4
     54.6489	   407.0	   447.2	 -4719.0	   335.4
     54.6823	   461.0	   447.2	 -4665.0	   335.4
     54.7157	   459.0	   447.2	 -4667.0	   335.4
     54.7491	   451.0	   447.2	 -4675.0	   335.4
     54.7825	   455.0	   447.2	 -4671.0	   335.4
     54.8160	   475.0	   447.2	 -4651.0	   335.4
     54.8494	   446.0	   447.2	 -4680.0	   335.4
     54.8828	   421.0	   447.2	 -4705.0	   335.4
     54.9162	   472.0	   447.2	 -4654.0	   335.4
     54.9497	   430.0	   447.2	 -4696.0	   335.4
     54.9831	   443.0	   447.2	 -4683.0	   335.4
     55.0165	   480.0	   447.2	 -4646.0	   335.4
     55.0499	   439.0	   447.2	 -4687.0	   335.4
     55.0834	   461.0	   447.2	 -4665.0	   335.4
     55.1168	   477.0	   447.2	 -4649.0	   335.4
     55.1502	   445.0	   447.2	 -4681.0	   335.4
     55.1836	   448.0	   447.2	 -4678.0	   335.4
     55.2170	   480.0	   447.2	 -4646.0	   335.4
     55.2505	   476.0	   447.2	 -4650.0	   335.4
     55.2839	   433.0	   447.2	 -4693.0	   335.4
     55.3173	   428.0	   447.2	 -4698.0	   335.4
     55.3507	   450.0	   447.2	 -4676.0	   335.4
     55.3842	   454.0	   447.2	 -4672.0	   335.4
     55.4176	   466.0	   447.2	 -4660.0	   335.4
     55.4510	   437.0	   447.2	 -4689.0	   335.4
     55.4844	   461.0	   447.2	 -4665.0	   335.4
     55.5178	   451.0	   447.2	 -4675.0	   335.4
     55.5513	   419.0	   447.2	 -4707.0	   335.4
     55.5847	   437.0	   447.2	 -4689.0	   335.4
     55.6181	   433.0	   447.2	 -4693.0	   335.4
     55.6515	   413.0	   447.2	 -4713.0	   335.4
     55.6850	   426.0	   447.2	 -4700.0	   335.4
     55.7184	   469.0	   447.2	 -4657.0	   335.4
     55.7518	   493.0	   447.2	 -4633.0	   335.4
     55.7852	   445.0	   447.2	 -4681.0	   335.4
     55.8186	   472.0	   447.2	 -4654.0	   335.4
     55.8521	   434.0	   447.2	 -4692.0	   335.4
     55.8855	   424.0	   447.2	 -4702.0	   335.4
     55.9189	   456.0	   447.2	 -4670.0	   335.4
     55.9523	   486.0	   447.2	 -4640.0	   335.4
     55.9858	   413.0	   447.2	 -4713.0	   335.4
     56.0192	   475.0	   447.2	 -4651.0	   335.4
     56.0526	   460.0	   447.2	 -4666.0	   335.4
     56.0860	   440.0	   447.2	 -4686.0	   335.4
     56.1195	   394.0	   447.2	 -4732.0	   335.4
     56.1529	   427.0	   447.2	 -4699.0	   335.4
     56.1863	   478.0	   447.2	 -4648.0	   335.4
     56.2197	   400.0	   447.2	 -4726.0	   335.4
     56.2531	   446.0	   447.2	 -4680.0	   335.4
     56.2866	   400.0	   447.2	 -4726.0	   335.4
     56.3200	   460.0	   447.2	 -4666.0	   335.4
     56.3534	   448.0	   447.2	 -4678.0	   335.4
     56.3868	   482.0	   447.2	 -4644.0	   335.4
     56.4203	   450.0	   447.2	 -4676.0	   335.4
     56.4537	   448.0	   447.2	 -4678.0	   335.4
     56.4871	   469.0	   447.2	 -4657.0	   335.4
     56.5205	   447.0	   447.2	 -4679.0	   335.4
     56.5539	   446.0	   447.2	 -4680.0	   335.4
     56.5874	   443.0	   447.2	 -4683.0	   335.4
     56.6208	   471.0	   447.2	 -4655.0	   335.4
     56.6542	   443.0	   447.2	 -4683.0	   335.4
     56.6876	   452.0	   447.2	 -4674.0	   335.4
     56.7211	   418.0	   447.2	 -4708.0	   335.4
     56.7545	   446.0	   447.2	 -4680.0	   335.4
     56.7879	   431.0	   447.2	 -4695.0	   335.4
     56.8213	   439.0	   447.2	 -4687.0	   335.4
     56.8547	   477.0	   447.2	 -4649.0	   335.4
     56.8882	   419.0	   447.2	 -4707.0	   335.4
     56.9216	   472.0	   447.2	 -4654.0	   335.4
     56.9550	   437.0	   447.2	 -4689.0	   335.4
     56.9884	   434.0	   447.2	 -4692.0	   335.4
     57.0219	   410.0	   447.2	 -4716.0	   335.4
     57.0553	   458.0	   447.2	 -4668.0	   335.4
     57.0887	   445.0	   447.2	 -4681.0	   335.4
     57.1221	   406.0	   447.2	 -4720.0	   335.4
     57.1555	   496.0	   447.2	 -4630.0	   335.4
     57.1890	   429.0	   447.2	 -4697.0	   335.4
     57.2224	   405.0	   447.2	 -4721.0	   335.4
     57.2558	   448.0	   447.2	 -4678.0	   335.4
     57.2892	   437.0	   447.2	 -4689.0	   335.4
     57.3227	   493.0	   447.2	 -4633.0	   335.4
     57.3561	   418.0	   447.2	 -4708.0	   335.4
     57.3895	   444.0	   447.2	 -4682.0	   335.4
     57.4229	   470.0	   447.2	 -4656.0	   335.4
     57.4564	   410.0	   447.2	 -4716.0	   335.4
     57.4898	   405.0	   447.2	 -4721.0	   335.4
     57.5232	   454.0	   447.2	 -4672.0	   335.4
     57.5566	   441.0	   447.2	 -4685.0	   335.4
     57.5900	   440.0	   447.2	 -4686.0	   335.4
     57.6235	   449.0	   447.2	 -4677.0	   335.4
     57.6569	   398.0	   447.2	 -4728.0	   335.4
     57.6903	   462.0	   447.2	 -4664.0	   335.4
     57.7237	   409.0	   447.2	 -4717.0	   335.4
     57.7572	   437.0	   447.2	 -4689.0	   335.4
     57.7906	   426.0	   447.2	 -4700.0	   335.4
     57.8240	   439.0	   447.2	 -4687.0	   335.4
     57.8574	   430.0	   447.2	 -4696.0	   335.4
     57.8908	   440.0	   447.2	 -4686.0	   335.4
     57.9243	   435.0	   447.2	 -4691.0	   335.4
     57.9577	   451.0	   447.2	 -4675.0	   335.4
     57.9911	   405.0	   447.2	 -4721.0	   335.4
     58.0245	   429.0	   447.2	 -4697.0	   335.4
     58.0580	   420.0	   447.2	 -4706.0	   335.4
     58.0914	   415.0	   447.2	 -4711.0	   335.4
     58.1248	   437.0	   447.2	 -4689.0	   335.4
     58.1582	   446.0	   447.2	 -4680.0	   335.4
     58.1917	   441.0	   447.2	 -4685.0	   335.4
     58.2251	   402.0	   447.2	 -4724.0	   335.4
     58.2585	   414.0	   447.2	 -4712.0	   335.4
     58.2919	   433.0	   447.2	 -4693.0	   335.4
     58.3253	   491.0	   447.2	 -4635.0	   335.4
     58.3588	   411.0	   447.2	 -4715.0	   335.4
     58.3922	   417.0	   447.2	 -4709.0	   335.4
     58.4256	   459.0	   447.2	 -4667.0	   335.4
     58.4590	   400.0	   447.2	 -4726.0	   335.4
     58.4925	   425.0	   447.2	 -4701.0	   335.4
     58.5259	   418.0	   447.2	 -4708.0	   335.4
     58.5593	   441.0	   447.2	 -4685.0	   335.4
     58.5927	   436.0	   447.2	 -4690.0	   335.4
     58.6261	   443.0	   447.2	 -4683.0	   335.4
     58.6596	   416.0	   447.2	 -4710.0	   335.4
     58.6930	   439.0	   447.2	 -4687.0	   335.4
     58.7264	   418.0	   447.2	 -4708.0	   335.4
     58.7598	   436.0	   447.2	 -4690.0	   335.4
     58.7933	   424.0	   447.2	 -4702.0	   335.4
     58.8267	   449.0	   447.2	 -4677.0	   335.4
     58.8601	   479.0	   447.2	 -4647.0	   335.4
     58.8935	   427.0	   447.2	 -4699.0	   335.4
     58.9269	   446.0	   447.2	 -4680.0	   335.4
     58.9604	   452.0	   447.2	 -4674.0	   335.4
     58.9938	   443.0	   447.2	 -4683.0	   335.4
     59.0272	   495.0	   447.2	 -4631.0	   335.4
     59.0606	   462.0	   447.2	 -4664.0	   335.4
     59.0941	   413.0	   447.2	 -4713.0	   335.4
     59.1275	   474.0	   447.2	 -4652.0	   335.4
     59.1609	   423.0	   447.2	 -4703.0	   335.4
     59.1943	   427.0	   447.2	 -4699.0	   335.4
     59.2277	   402.0	   447.2	 -4724.0	   335.4
     59.2612	   435.0	   447.2	 -4691.0	   335.4
     59.2946	   407.0	   447.2	 -4719.0	   335.4
     59.3280	   407.0	   447.2	 -4719.0	   335.4
     59.3614	   410.0	   447.2	 -4716.0	   335.4
     59.3949	   421.0	   447.2	 -4705.0	   335.4
     59.4283	   465.0	   447.2	 -4661.0	   335.4
     59.4617	   424.0	   447.2	 -4702.0	   335.4
     59.4951	   448.0	   447.2	 -4678.0	   335.4
     59.5285	   469.0	   447.2	 -4657.0	   335.4
     59.5620	   428.0	   447.2	 -4698.0	   335.4
     59.5954	   417.0	   447.2	 -4709.0	   335.4
     59.6288	   425.0	   447.2	 -4701.0	   335.4
     59.6622	   435.0	   447.2	 -4691.0	   335.4
     59.6957	   410.0	   447.2	 -4716.0	   335.4
     59.7291	   436.0	   447.2	 -4690.0	   335.4
     59.7625	   446.0	   447.2	 -4680.0	   335.4
     59.7959	   419.0	   447.2	 -4707.0	   335.4
     59.8294	   437.0	   447.2	 -4689.0	   335.4
     59.8628	   411.0	   447.2	 -4715.0	   335.4
     59.8962	   424.0	   447.2	 -4702.0	   335.4
     59.9296	   451.0	   447.2	 -4675.0	   335.4
     59.9630	   452.0	   447.2	 -4674.0	   335.4
     59.9965	   440.0	   447.2	 -4686.0	   335.4
     60.0299	   421.0	   447.2	 -4705.0	   335.4
     60.0633	   441.0	   447.2	 -4685.0	   335.4
     60.0967	   421.0	   447.2	 -4705.0	   335.4
     60.1302	   416.0	   447.2	 -4710.0	   335.4
     60.1636	   428.0	   447.2	 -4698.0	   335.4
     60.1970	   429.0	   447.2	 -4697.0	   335.4
     60.2304	   480.0	   447.2	 -4646.0	   335.4
     60.2638	   393.0	   447.2	 -4733.0	   335.4
     60.2973	   478.0	   447.2	 -4648.0	   335.4
     60.3307	   426.0	   447.2	 -4700.0	   335.4
     60.3641	   436.0	   447.2	 -4690.0	   335.4
     60.3975	   455.0	   447.2	 -4671.0	   335.4
     60.4310	   421.0	   447.2	 -4705.0	   335.4
     60.4644	   441.0	   447.2	 -4685.0	   335.4
     60.4978	   475.0	   447.2	 -4651.0	   335.4
     60.5312	   421.0	   447.2	 -4705.0	   335.4
     60.5647	   441.0	   447.2	 -4685.0	   335.4
     60.5981	   476.0	   447.2	 -4650.0	   335.4
     60.6315	   451.0	   447.2	 -4675.0	   335.4
     60.6649	   436.0	   447.2	 -4690.0	   335.4
     60.6983	   436.0	   447.2	 -4690.0	   335.4
     60.7318	   455.0	   447.2	 -4671.0	   335.4
     60.7652	   430.0	   447.2	 -4696.0	   335.4
     60.7986	   447.0	   447.2	 -4679.0	   335.4
     60.8320	   454.0	   447.2	 -4672.0	   335.4
     60.8654	   468.0	   447.2	 -4658.0	   335.4
     60.8989	   493.0	   447.2	 -4633.0	   335.4
     60.9323	   471.0	   447.2	 -4655.0	   335.4
     60.9657	   459.0	   447.2	 -4667.0	   335.4
     60.9991	   399.0	   447.2	 -4727.0	   335.4
     61.0326	   433.0	   447.2	 -4693.0	   335.4
     61.0660	   495.0	   447.2	 -4631.0	   335.4
     61.0994	   447.0	   447.2	 -4679.0	   335.4
     61.1328	   449.0	   447.2	 -4677.0	   335.4
     61.1663	   421.0	   447.2	 -4705.0	   335.4
     61.1997	   435.0	   447.2	 -4691.0	   335.4
     61.2331	   443.0	   447.2	 -4683.0	   335.4
     61.2665	   410.0	   447.2	 -4716.0	   335.4
     61.2999	   475.0	   447.2	 -4651.0	   335.4
     61.3334	   439.0	   447.2	 -4687.0	   335.4
     61.3668	   423.0	   447.2	 -4703.0	   335.4
     61.4002	   478.0	   447.2	 -4648.0	   335.4
     61.4336	   477.0	   447.2	 -4649.0	   335.4
     61.4671	   439.0	   447.2	 -4687.0	   335.4
     61.5005	   420.0	   447.2	 -4706.0	   335.4
     61.5339	   445.0	   447.2	 -4681.0	   335.4
     61.5673	   458.0	   447.2	 -4668.0	   335.4
     61.6007	   430.0	   447.2	 -4696.0	   335.4
     61.6342	   423.0	   447.2	 -4703.0	   335.4
     61.6676	   441.0	   447.2	 -4685.0	   335.4
     61.7010	   417.0	   447.2	 -4709.0	   335.4
     61.7344	   434.0	   447.2	 -4692.0	   335.4
     61.7679	   454.0	   447.2	 -4672.0	   335.4
     61.8013	   447.0	   447.2	 -4679.0	   335.4
     61.8347	   439.0	   447.2	 -4687.0	   335.4
     61.8681	   459.0	   447.2	 -4667.0	   335.4
     61.9016	   443.0	   447.2	 -4683.0	   335.4
     61.9350	   456.0	   447.2	 -4670.0	   335.4
     61.9684	   444.0	   447.2	 -4682.0	   335.4
     62.0018	   436.0	   447.2	 -4690.0	   335.4
     62.0352	   437.0	   447.2	 -4689.0	   335.4
     62.0687	   384.0	   447.2	 -4742.0	   335.4
     62.1021	   431.0	   447.2	 -4695.0	   335.4
     62.1355	   428.0	   447.2	 -4698.0	   335.4
     62.1689	   437.0	   447.2	 -4689.0	   335.4
     62.2024	   429.0	   447.2	 -4697.0	   335.4
     62.2358	   462.0	   447.2	 -4664.0	   335.4
     62.2692	   430.0	   447.2	 -4696.0	   335.4
     62.3026	   459.0	   447.2	 -4667.0	   335.4
     62.3360	   439.0	   447.2	 -4687.0	   335.4
     62.3695	   443.0	   447.2	 -4683.0	   335.4
     62.4029	   435.0	   447.2	 -4691.0	   335.4
     62.4363	   467.0	   447.2	 -4659.0	   335.4
     62.4697	   483.0	   447.2	 -4643.0	   335.4
     62.5032	   428.0	   447.2	 -4698.0	   335.4
     62.5366	   493.0	   447.2	 -4633.0	   335.4
     62.5700	   448.0	   447.2	 -4678.0	   335.4
     62.6034	   445.0	   447.2	 -4681.0	   335.4
     62.6368	   447.0	   447.2	 -4679.0	   335.4
     62.6703	   459.0	   447.2	 -4667.0	   335.4
     62.7037	   482.0	   447.2	 -4644.0	   335.4
     62.7371	   471.0	   447.2	 -4655.0	   335.4
     62.7705	   447.0	   447.2	 -4679.0	   335.4
     62.8040	   486.0	   447.2	 -4640.0	   335.4
     62.8374	   485.0	   447.2	 -4641.0	   335.4
     62.8708	   497.0	   447.2	 -4629.0	   335.4
     62.9042	   466.0	   447.2	 -4660.0	   335.4
     62.9377	   509.0	   447.2	 -4617.0	   335.4
     62.9711	   508.0	   447.2	 -4618.0	   335.4
     63.0045	   497.0	   447.2	 -4629.0	   335.4
     63.0379	   510.0	   447.2	 -4616.0	   335.4
     63.0713	   477.0	   447.2	 -4649.0	   335.4
     63.1048	   419.0	   447.2	 -4707.0	   335.4
     63.1382	   456.0	   447.2	 -4670.0	   335.4
     63.1716	   468.0	   447.2	 -4658.0	   335.4
     63.2050	   429.0	   447.2	 -4697.0	   335.4
     63.2384	   456.0	   447.2	 -4670.0	   335.4
     63.2719	   450.0	   447.2	 -4676.0	   335.4
     63.3053	   431.0	   447.2	 -4695.0	   335.4
     63.3387	   452.0	   447.2	 -4674.0	   335.4
     63.3721	   496.0	   447.2	 -4630.0	   335.4
     63.4056	   475.0	   447.2	 -4651.0	   335.4
     63.4390	   458.0	   447.2	 -4668.0	   335.4
     63.4724	   444.0	   447.2	 -4682.0	   335.4
     63.5058	   397.0	   447.2	 -4729.0	   335.4
     63.5393	   440.0	   447.2	 -4686.0	   335.4
     63.5727	   439.0	   447.2	 -4687.0	   335.4
     63.6061	   451.0	   447.2	 -4675.0	   335.4
     63.6395	   433.0	   447.2	 -4693.0	   335.4
     63.6729	   457.0	   447.2	 -4669.0	   335.4
     63.7064	   466.0	   447.2	 -4660.0	   335.4
     63.7398	   426.0	   447.2	 -4700.0	   335.4
     63.7732	   474.0	   447.2	 -4652.0	   335.4
     63.8066	   446.0	   447.2	 -4680.0	   335.4
     63.8401	   438.0	   447.2	 -4688.0	   335.4
     63.8735	   472.0	   447.2	 -4654.0	   335.4
     63.9069	   459.0	   447.2	 -4667.0	   335.4
     63.9403	   464.0	   447.2	 -4662.0	   335.4
     63.9737	   446.0	   447.2	 -4680.0	   335.4
     64.0072	   451.0	   447.2	 -4675.0	   335.4
     64.0406	   445.0	   447.2	 -4681.0	   335.4
     64.0740	   458.0	   447.2	 -4668.0	   335.4
     64.1074	   469.0	   447.2	 -4657.0	   335.4
     64.1409	   466.0	   447.2	 -4660.0	   335.4
     64.1743	   435.0	   447.2	 -4691.0	   335.4
     64.2077	   433.0	   447.2	 -4693.0	   335.4
     64.2411	   411.0	   447.2	 -4715.0	   335.4
     64.2746	   433.0	   447.2	 -4693.0	   335.4
     64.3080	   446.0	   447.2	 -4680.0	   335.4
     64.3414	   448.0	   447.2	 -4678.0	   335.4
     64.3748	   458.0	   447.2	 -4668.0	   335.4
     64.4082	   417.0	   447.2	 -4709.0	   335.4
     64.4417	   468.0	   447.2	 -4658.0	   335.4
     64.4751	   409.0	   447.2	 -4717.0	   335.4
     64.5085	   431.0	   447.2	 -4695.0	   335.4
     64.5419	   408.0	   447.2	 -4718.0	   335.4
     64.5754	   458.0	   447.2	 -4668.0	   335.4
     64.6088	   451.0	   447.2	 -4675.0	   335.4
     64.6422	   448.0	   447.2	 -4678.0	   335.4
     64.6756	   435.0	   447.2	 -4691.0	   335.4
     64.7090	   448.0	   447.2	 -4678.0	   335.4
     64.7425	   425.0	   447.2	 -4701.0	   335.4
     64.7759	   470.0	   447.2	 -4656.0	   335.4
     64.8093	   431.0	   447.2	 -4695.0	   335.4
     64.8427	   440.0	   447.2	 -4686.0	   335.4
     64.8762	   474.0	   447.2	 -4652.0	   335.4
     64.9096	   449.0	   447.2	 -4677.0	   335.4
     64.9430	   426.0	   447.2	 -4700.0	   335.4
     64.9764	   454.0	   447.2	 -4672.0	   335.4
     65.0098	   448.0	   447.2	 -4678.0	   335.4
     65.0433	   436.0	   447.2	 -4690.0	   335.4
     65.0767	   443.0	   447.2	 -4683.0	   335.4
     65.1101	   428.0	   447.2	 -4698.0	   335.4
     65.1435	   407.0	   447.2	 -4719.0	   335.4
     65.1770	   396.0	   447.2	 -4730.0	   335.4
     65.2104	   427.0	   447.2	 -4699.0	   335.4
     65.2438	   446.0	   447.2	 -4680.0	   335.4
     65.2772	   429.0	   447.2	 -4697.0	   335.4
     65.3106	   440.0	   447.2	 -4686.0	   335.4
     65.3441	   474.0	   447.2	 -4652.0	   335.4
     65.3775	   411.0	   447.2	 -4715.0	   335.4
     65.4109	   419.0	   447.2	 -4707.0	   335.4
     65.4443	   451.0	   447.2	 -4675.0	   335.4
     65.4778	   455.0	   447.2	 -4671.0	   335.4
     65.5112	   388.0	   447.2	 -4738.0	   335.4
     65.5446	   419.0	   447.2	 -4707.0	   335.4
     65.5780	   393.0	   447.2	 -4733.0	   335.4
     65.6115	   424.0	   447.2	 -4702.0	   335.4
     65.6449	   418.0	   447.2	 -4708.0	   335.4
     65.6783	   446.0	   447.2	 -4680.0	   335.4
     65.7117	   410.0	   447.2	 -4716.0	   335.4
     65.7451	   452.0	   447.2	 -4674.0	   335.4
     65.7786	   454.0	   447.2	 -4672.0	   335.4
     65.8120	   427.0	   447.2	 -4699.0	   335.4
     65.8454	   464.0	   447.2	 -4662.0	   335.4
     65.8788	   434.0	   447.2	 -4692.0	   335.4
     65.9123	   433.0	   447.2	 -4693.0	   335.4
     65.9457	   441.0	   447.2	 -4685.0	   335.4
     65.9791	   488.0	   447.2	 -4638.0	   335.4
     66.0125	   436.0	   447.2	 -4690.0	   335.4
     66.0459	   429.0	   447.2	 -4697.0	   335.4
     66.0794	   376.0	   447.2	 -4750.0	   335.4
     66.1128	   434.0	   447.2	 -4692.0	   335.4
     66.1462	   460.0	   447.2	 -4666.0	   335.4
     66.1796	   431.0	   447.2	 -4695.0	   335.4
     66.2131	   397.0	   447.2	 -4729.0	   335.4
     66.2465	   407.0	   447.2	 -4719.0	   335.4
     66.2799	   433.0	   447.2	 -4693.0	   335.4
     66.3133	   462.0	   447.2	 -4664.0	   335.4
     66.3467	   447.0	   447.2	 -4679.0	   335.4
     66.3802	   418.0	   447.2	 -4708.0	   335.4
     66.4136	   444.0	   447.2	 -4682.0	   335.4
     66.4470	   414.0	   447.2	 -4712.0	   335.4
     66.4804	   457.0	   447.2	 -4669.0	   335.4
     66.5139	   445.0	   447.2	 -4681.0	   335.4
     66.5473	   452.0	   447.2	 -4674.0	   335.4
     66.5807	   409.0	   447.2	 -4717.0	   335.4
     66.6141	   416.0	   447.2	 -4710.0	   335.4
     66.6476	   426.0	   447.2	 -4700.0	   335.4
     66.6810	   436.0	   447.2	 -4690.0	   335.4
     66.7144	   469.0	   447.2	 -4657.0	   335.4
     66.7478	   443.0	   447.2	 -4683.0	   335.4
     66.7812	   438.0	   447.2	 -4688.0	   335.4
     66.8147	   414.0	   447.2	 -4712.0	   335.4
     66.8481	   440.0	   447.2	 -4686.0	   335.4
     66.8815	   426.0	   447.2	 -4700.0	   335.4
     66.9149	   469.0	   447.2	 -4657.0	   335.4
     66.9484	   446.0	   447.2	 -4680.0	   335.4
     66.9818	   465.0	   447.2	 -4661.0	   335.4
     67.0152	   429.0	   447.2	 -4697.0	   335.4
     67.0486	   405.0	   447.2	 -4721.0	   335.4
     67.0820	   449.0	   447.2	 -4677.0	   335.4
     67.1155	   421.0	   447.2	 -4705.0	   335.4
     67.1489	   427.0	   447.2	 -4699.0	   335.4
     67.1823	   416.0	   447.2	 -4710.0	   335.4
     67.2157	   447.0	   447.2	 -4679.0	   335.4
     67.2492	   427.0	   447.2	 -4699.0	   335.4
     67.2826	   435.0	   447.2	 -4691.0	   335.4
     67.3160	   496.0	   447.2	 -4630.0	   335.4
     67.3494	   452.0	   447.2	 -4674.0	   335.4
     67.3828	   416.0	   447.2	 -4710.0	   335.4
     67.4163	   467.0	   447.2	 -4659.0	   335.4
     67.4497	   423.0	   447.2	 -4703.0	   335.4
     67.4831	   438.0	   447.2	 -4688.0	   335.4
     67.5165	   451.0	   447.2	 -4675.0	   335.4
     67.5500	   398.0	   447.2	 -4728.0	   335.4
     67.5834	   449.0	   447.2	 -4677.0	   335.4
     67.6168	   406.0	   447.2	 -4720.0	   335.4
     67.6502	   408.0	   447.2	 -4718.0	   335.4
     67.6836	   470.0	   447.2	 -4656.0	   335.4
     67.7171	   458.0	   447.2	 -4668.0	   335.4
     67.7505	   456.0	   447.2	 -4670.0	   335.4
     67.7839	   419.0	   447.2	 -4707.0	   335.4
     67.8173	   452.0	   447.2	 -4674.0	   335.4
     67.8508	   459.0	   447.2	 -4667.0	   335.4
     67.8842	   466.0	   447.2	 -4660.0	   335.4
     67.9176	   440.0	   447.2	 -4686.0	   335.4
     67.9510	   458.0	   447.2	 -4668.0	   335.4
     67.9845	   416.0	   447.2	 -4710.0	   335.4
     68.0179	   471.0	   447.2	 -4655.0	   335.4
     68.0513	   486.0	   447.2	 -4640.0	   335.4
     68.0847	   443.0	   447.2	 -4683.0	   335.4
     68.1181	   439.0	   447.2	 -4687.0	   335.4
     68.1516	   445.0	   447.2	 -4681.0	   335.4
     68.1850	   426.0	   447.2	 -4700.0	   335.4
     68.2184	   439.0	   447.2	 -4687.0	   335.4
     68.2518	   447.0	   447.2	 -4679.0	   335.4
     68.2853	   441.0	   447.2	 -4685.0	   335.4
     68.3187	   430.0	   447.2	 -4696.0	   335.4
     68.3521	   452.0	   447.2	 -4674.0	   335.4
     68.3855	   441.0	   447.2	 -4685.0	   335.4
     68.4189	   415.0	   447.2	 -4711.0	   335.4
     68.4524	   415.0	   447.2	 -4711.0	   335.4
     68.4858	   439.0	   447.2	 -4687.0	   335.4
     68.5192	   438.0	   447.2	 -4688.0	   335.4
     68.5526	   449.0	   447.2	 -4677.0	   335.4
     68.5861	   467.0	   447.2	 -4659.0	   335.4
     68.6195	   428.0	   447.2	 -4698.0	   335.4
     68.6529	   480.0	   447.2	 -4646.0	   335.4
     68.6863	   408.0	   447.2	 -4718.0	   335.4
     68.7197	   449.0	   447.2	 -4677.0	   335.4
     68.7532	   424.0	   447.2	 -4702.0	   335.4
     68.7866	   441.0	   447.2	 -4685.0	   335.4
     68.8200	   452.0	   447.2	 -4674.0	   335.4
     68.8534	   444.0	   447.2	 -4682.0	   335.4
     68.8869	   474.0	   447.2	 -4652.0	   335.4
     68.9203	   450.0	   447.2	 -4676.0	   335.4
     68.9537	   449.0	   447.2	 -4677.0	   335.4
     68.9871	   430.0	   447.2	 -4696.0	   335.4
     69.0206	   476.0	   447.2	 -4650.0	   335.4
     69.0540	   444.0	   447.2	 -4682.0	   335.4
     69.0874	   399.0	   447.2	 -4727.0	   335.4
     69.1208	   449.0	   447.2	 -4677.0	   335.4
     69.1542	   409.0	   447.2	 -4717.0	   335.4
     69.1877	   434.0	   447.2	 -4692.0	   335.4
     69.2211	   465.0	   447.2	 -4661.0	   335.4
     69.2545	   486.0	   447.2	 -4640.0	   335.4
     69.2879	   443.0	   447.2	 -4683.0	   335.4
     69.3214	   428.0	   447.2	 -4698.0	   335.4
     69.3548	   445.0	   447.2	 -4681.0	   335.4
     69.3882	   458.0	   447.2	 -4668.0	   335.4
     69.4216	   452.0	   447.2	 -4674.0	   335.4
     69.4550	   417.0	   447.2	 -4709.0	   335.4
     69.4885	   439.0	   447.2	 -4687.0	   335.4
     69.5219	   466.0	   447.2	 -4660.0	   335.4
     69.5553	   438.0	   447.2	 -4688.0	   335.4
     69.5887	   462.0	   447.2	 -4664.0	   335.4
     69.6222	   462.0	   447.2	 -4664.0	   335.4
     69.6556	   476.0	   447.2	 -4650.0	   335.4
     69.6890	   431.0	   447.2	 -4695.0	   335.4
     69.7224	   431.0	   447.2	 -4695.0	   335.4
     69.7558	   435.0	   447.2	 -4691.0	   335.4
     69.7893	   455.0	   447.2	 -4671.0	   335.4
     69.8227	   417.0	   447.2	 -4709.0	   335.4
     69.8561	   436.0	   447.2	 -4690.0	   335.4
     69.8895	   462.0	   447.2	 -4664.0	   335.4
     69.9230	   447.0	   447.2	 -4679.0	   335.4
     69.9564	   475.0	   447.2	 -4651.0	   335.4
     69.9898	   446.0	   447.2	 -4680.0	   335.4
     70.0232	   436.0	   447.2	 -4690.0	   335.4
     70.0566	   485.0	   447.2	 -4641.0	   335.4
     70.0901	   428.0	   447.2	 -4698.0	   335.4
     70.1235	   444.0	   447.2	 -4682.0	   335.4
     70.1569	   476.0	   447.2	 -4650.0	   335.4
     70.1903	   413.0	   447.2	 -4713.0	   335.4
     70.2238	   455.0	   447.2	 -4671.0	   335.4
     70.2572	   441.0	   447.2	 -4685.0	   335.4
     70.2906	   476.0	   447.2	 -4650.0	   335.4
     70.3240	   455.0	   447.2	 -4671.0	   335.4
     70.3575	   427.0	   447.2	 -4699.0	   335.4
     70.3909	   405.0	   447.2	 -4721.0	   335.4
     70.4243	   455.0	   447.2	 -4671.0	   335.4
     70.4577	   439.0	   447.2	 -4687.0	   335.4
     70.4911	   445.0	   447.2	 -4681.0	   335.4
     70.5246	   426.0	   447.2	 -4700.0	   335.4
     70.5580	   451.0	   447.2	 -4675.0	   335.4
     70.5914	   482.0	   447.2	 -4644.0	   335.4
     70.6248	   450.0	   447.2	 -4676.0	   335.4
     70.6583	   471.0	   447.2	 -4655.0	   335.4
     70.6917	   464.0	   447.2	 -4662.0	   335.4
     70.7251	   468.0	   447.2	 -4658.0	   335.4
     70.7585	   402.0	   447.2	 -4724.0	   335.4
     70.7919	   458.0	   447.2	 -4668.0	   335.4
     70.8254	   434.0	   447.2	 -4692.0	   335.4
     70.8588	   434.0	   447.2	 -4692.0	   335.4
     70.8922	   469.0	   447.2	 -4657.0	   335.4
     70.9256	   429.0	   447.2	 -4697.0	   335.4
     70.9591	   403.0	   447.2	 -4723.0	   335.4
     70.9925	   434.0	   447.2	 -4692.0	   335.4
     71.0259	   433.0	   447.2	 -4693.0	   335.4
     71.0593	   447.0	   447.2	 -4679.0	   335.4
     71.0928	   427.0	   447.2	 -4699.0	   335.4
     71.1262	   467.0	   447.2	 -4659.0	   335.4
     71.1596	   435.0	   447.2	 -4691.0	   335.4
     71.1930	   468.0	   447.2	 -4658.0	   335.4
     71.2264	   418.0	   447.2	 -4708.0	   335.4
     71.2599	   419.0	   447.2	 -4707.0	   335.4
     71.2933	   443.0	   447.2	 -4683.0	   335.4
     71.3267	   416.0	   447.2	 -4710.0	   335.4
     71.3601	   397.0	   447.2	 -4729.0	   335.4
     71.3936	   449.0	   447.2	 -4677.0	   335.4
     71.4270	   488.0	   447.2	 -4638.0	   335.4
     71.4604	   455.0	   447.2	 -4671.0	   335.4
     71.4938	   448.0	   447.2	 -4678.0	   335.4
     71.5272	   420.0	   447.2	 -4706.0	   335.4
     71.5607	   420.0	   447.2	 -4706.0	   335.4
     71.5941	   431.0	   447.2	 -4695.0	   335.4
     71.6275	   475.0	   447.2	 -4651.0	   335.4
     71.6609	   446.0	   447.2	 -4680.0	   335.4
     71.6944	   441.0	   447.2	 -4685.0	   335.4
     71.7278	   483.0	   447.2	 -4643.0	   335.4
     71.7612	   398.0	   447.2	 -4728.0	   335.4
     71.7946	   444.0	   447.2	 -4682.0	   335.4
     71.8280	   428.0	   447.2	 -4698.0	   335.4
     71.8615	   439.0	   447.2	 -4687.0	   335.4
     71.8949	   466.0	   447.2	 -4660.0	   335.4
     71.9283	   440.0	   447.2	 -4686.0	   335.4
     71.9617	   435.0	   447.2	 -4691.0	   335.4
     71.9952	   415.0	   447.2	 -4711.0	   335.4
     72.0286	   429.0	   447.2	 -4697.0	   335.4
     72.0620	   397.0	   447.2	 -4729.0	   335.4
     72.0954	   471.0	   447.2	 -4655.0	   335.4
     72.1288	   426.0	   447.2	 -4700.0	   335.4
     72.1623	   405.0	   447.2	 -4721.0	   335.4
     72.1957	   457.0	   447.2	 -4669.0	   335.4
     72.2291	   408.0	   447.2	 -4718.0	   335.4
     72.2625	   455.0	   447.2	 -4671.0	   335.4
     72.2960	   434.0	   447.2	 -4692.0	   335.4
     72.3294	   424.0	   447.2	 -4702.0	   335.4
     72.3628	   462.0	   447.2	 -4664.0	   335.4
     72.3962	   467.0	   447.2	 -4659.0	   335.4
     72.4296	   429.0	   447.2	 -4697.0	   335.4
     72.4631	   460.0	   447.2	 -4666.0	   335.4
     72.4965	   445.0	   447.2	 -4681.0	   335.4
     72.5299	   436.0	   447.2	 -4690.0	   335.4
     72.5633	   482.0	   447.2	 -4644.0	   335.4
     72.5968	   421.0	   447.2	 -4705.0	   335.4
     72.6302	   435.0	   447.2	 -4691.0	   335.4
     72.6636	   467.0	   447.2	 -4659.0	   335.4
     72.6970	   444.0	   447.2	 -4682.0	   335.4
     72.7305	   420.0	   447.2	 -4706.0	   335.4
     72.7639	   452.0	   447.2	 -4674.0	   335.4
     72.7973	   461.0	   447.2	 -4665.0	   335.4
     72.8307	   466.0	   447.2	 -4660.0	   335.4
     72.8641	   461.0	   447.2	 -4665.0	   335.4
     72.8976	   438.0	   447.2	 -4688.0	   335.4
     72.9310	   433.0	   447.2	 -4693.0	   335.4
     72.9644	   481.0	   447.2	 -4645.0	   335.4
     72.9978	   421.0	   447.2	 -4705.0	   335.4
     73.0313	   421.0	   447.2	 -4705.0	   335.4
     73.0647	   429.0	   447.2	 -4697.0	   335.4
     73.0981	   444.0	   447.2	 -4682.0	   335.4
     73.1315	   468.0	   447.2	 -4658.0	   335.4
     73.1649	   449.0	   447.2	 -4677.0	   335.4
     73.1984	   479.0	   447.2	 -4647.0	   335.4
     73.2318	   423.0	   447.2	 -4703.0	   335.4
     73.2652	   450.0	   447.2	 -4676.0	   335.4
     73.2986	   466.0	   447.2	 -4660.0	   335.4
     73.3321	   443.0	   447.2	 -4683.0	   335.4
     73.3655	   423.0	   447.2	 -4703.0	   335.4
     73.3989	   444.0	   447.2	 -4682.0	   335.4
     73.4323	   476.0	   447.2	 -4650.0	   335.4
     73.4658	   413.0	   447.2	 -4713.0	   335.4
     73.4992	   450.0	   447.2	 -4676.0	   335.4
     73.5326	   435.0	   447.2	 -4691.0	   335.4
     73.5660	   464.0	   447.2	 -4662.0	   335.4
     73.5994	   446.0	   447.2	 -4680.0	   335.4
     73.6329	   445.0	   447.2	 -4681.0	   335.4
     73.6663	   446.0	   447.2	 -4680.0	   335.4
     73.6997	   472.0	   447.2	 -4654.0	   335.4
     73.7331	   436.0	   447.2	 -4690.0	   335.4
     73.7665	   476.0	   447.2	 -4650.0	   335.4
     73.8000	   446.0	   447.2	 -4680.0	   335.4
     73.8334	   434.0	   447.2	 -4692.0	   335.4
     73.8668	   447.0	   447.2	 -4679.0	   335.4
     73.9002	   452.0	   447.2	 -4674.0	   335.4
     73.9337	   420.0	   447.2	 -4706.0	   335.4
     73.9671	   481.0	   447.2	 -4645.0	   335.4
     74.0005	   450.0	   447.2	 -4676.0	   335.4
     74.0339	   467.0	   447.2	 -4659.0	   335.4
     74.0674	   406.0	   447.2	 -4720.0	   335.4
     74.1008	   480.0	   447.2	 -4646.0	   335.4
     74.1342	   437.0	   447.2	 -4689.0	   335.4
     74.1676	   459.0	   447.2	 -4667.0	   335.4
     74.2010	   456.0	   447.2	 -4670.0	   335.4
     74.2345	   446.0	   447.2	 -4680.0	   335.4
     74.2679	   448.0	   447.2	 -4678.0	   335.4
     74.3013	   457.0	   447.2	 -4669.0	   335.4
     74.3347	   440.0	   447.2	 -4686.0	   335.4
     74.3682	   468.0	   447.2	 -4658.0	   335.4
     74.4016	   461.0	   447.2	 -4665.0	   335.4
     74.4350	   452.0	   447.2	 -4674.0	   335.4
     74.4684	   458.0	   447.2	 -4668.0	   335.4
     74.5018	   428.0	   447.2	 -4698.0	   335.4
     74.5353	   406.0	   447.2	 -4720.0	   335.4
     74.5687	   491.0	   447.2	 -4635.0	   335.4
     74.6021	   445.0	   447.2	 -4681.0	   335.4
     74.6355	   414.0	   447.2	 -4712.0	   335.4
     74.6690	   479.0	   447.2	 -4647.0	   335.4
     74.7024	   493.0	   447.2	 -4633.0	   335.4
     74.7358	   459.0	   455.9	 -4675.7	   335.4
     74.7692	   478.0	   456.3	 -4657.1	   335.4
     74.8027	   460.0	   456.7	 -4675.5	   335.4
     74.8361	   470.0	   457.1	 -4665.9	   335.4
     74.8695	   465.0	   457.5	 -4671.4	   335.4
     74.9029	   471.0	   458.0	 -4665.9	   335.4
     74.9363	   456.0	   458.5	 -4681.4	   335.4
     74.9698	   461.0	   463.5	 -4681.3	   335.4
     75.0032	   445.0	   464.3	 -4698.1	   335.4
     75.0366	   482.0	   465.1	 -4662.0	   335.4
     75.0700	   489.0	   466.1	 -4655.9	   335.4
     75.1035	   441.0	   467.1	 -4704.9	   335.4
     75.1369	   469.0	   468.1	 -4678.0	   335.4
     75.1703	   459.0	   469.3	 -4689.1	   335.4
     75.2037	   470.0	   470.5	 -4679.4	   335.4
     75.2371	   476.0	   471.9	 -4674.7	   335.4
     75.2706	   449.0	   473.4	 -4703.2	   335.4
     75.3040	   451.0	   475.0	 -4702.9	   335.4
     75.3374	   466.0	   476.8	 -4689.7	   335.4
     75.3708	   493.0	   478.8	 -4664.6	   335.4
     75.4043	   498.0	   480.9	 -4661.8	   335.4
     75.4377	   444.0	   483.4	 -4718.2	   335.4
     75.4711	   503.0	   486.0	 -4661.9	   335.4
     75.5045	   485.0	   489.0	 -4682.8	   335.4
     75.5379	   476.0	   492.3	 -4695.2	   335.4
     75.5714	   526.0	   496.1	 -4648.9	   335.4
     75.6048	   497.0	   500.3	 -4682.2	   335.4
     75.6382	   501.0	   505.2	 -4683.0	   335.4
     75.6716	   506.0	   510.7	 -4683.5	   335.4
     75.7051	   489.0	   517.0	 -4706.9	   335.4
     75.7385	   518.0	   524.4	 -4685.2	   335.4
     75.7719	   528.0	   532.9	 -4683.8	   335.4
     75.8053	   534.0	   543.0	 -4687.9	   335.4
     75.8387	   567.0	   555.0	 -4666.9	   335.4
     75.8722	   539.0	   569.5	 -4709.3	   335.4
     75.9056	   586.0	   587.0	 -4679.8	   335.4
     75.9390	   590.0	   608.5	 -4697.4	   335.4
     75.9724	   612.0	   635.5	 -4702.3	   335.4
     76.0059	   632.0	   669.8	 -4716.7	   335.4
     76.0393	   745.0	   714.7	 -4648.6	   335.4
     76.0727	   709.0	   775.3	 -4745.2	   335.4
     76.1061	   780.0	   860.3	 -4759.2	   335.4
     76.1395	   984.0	   984.1	 -4678.9	   335.4
     76.1730	  1084.0	  1168.1	 -4763.0	   335.4
     76.2064	  1419.0	  1441.3	 -4701.2	   335.4
     76.2398	  1873.0	  1832.6	 -4638.5	   335.4
     76.2732	  2407.0	  2340.2	 -4612.0	   335.4
     76.3067	  3129.0	  2847.9	 -4397.7	   335.4
     76.3401	  3134.0	  3072.1	 -4616.9	   335.4
     76.3735	  2852.0	  2863.9	 -4690.7	   335.4
     76.4069	  2374.0	  2465.1	 -4769.9	   335.4
     76.4404	  2167.0	  2149.3	 -4661.1	   335.4
     76.4738	  2085.0	  2010.2	 -4604.0	   335.4
     76.5072	  2056.0	  2022.6	 -4645.4	   335.4
     76.5406	  2224.0	  2065.0	 -4519.9	   335.4
     76.5740	  2042.0	  1965.2	 -4602.0	   335.4
     76.6075	  1759.0	  1698.4	 -4618.2	   335.4
     76.6409	  1423.0	  1396.5	 -4652.4	   335.4
     76.6743	  1211.0	  1148.7	 -4616.6	   335.4
     76.7077	  1011.0	   969.0	 -4636.8	   335.4
     76.7412	   894.0	   844.3	 -4629.2	   335.4
     76.7746	   739.0	   758.5	 -4698.4	   335.4
     76.8080	   683.0	   698.5	 -4694.4	   335.4
     76.8414	   670.0	   655.1	 -4664.0	   335.4
     76.8748	   580.0	   622.6	 -4721.4	   335.4
     76.9083	   560.0	   597.4	 -4716.2	   335.4
     76.9417	   526.0	   577.4	 -4730.2	   335.4
     76.9751	   518.0	   561.2	 -4722.0	   335.4
     77.0085	   538.0	   547.9	 -4688.7	   335.4
     77.0420	   538.0	   536.8	 -4677.7	   335.4
     77.0754	   488.0	   527.5	 -4718.4	   335.4
     77.1088	   480.0	   519.6	 -4718.4	   335.4
     77.1422	   497.0	   512.8	 -4694.7	   335.4
     77.1757	   495.0	   507.0	 -4690.8	   335.4
     77.2091	   508.0	   501.9	 -4672.7	   335.4
     77.2425	   475.0	   497.4	 -4701.2	   335.4
     77.2759	   500.0	   493.5	 -4672.3	   335.4
     77.3093	   526.0	   490.0	 -4642.8	   335.4
     77.3428	   483.0	   486.9	 -4682.7	   335.4
     77.3762	   477.0	   484.1	 -4685.9	   335.4
     77.4096	   457.0	   481.6	 -4703.4	   335.4
     77.4430	   465.0	   479.4	 -4693.2	   335.4
     77.4765	   455.0	   477.3	 -4701.2	   335.4
     77.5099	   523.0	   475.5	 -4631.3	   335.4
     77.5433	   474.0	   473.8	 -4678.6	   335.4
     77.5767	   452.0	   472.3	 -4699.1	   335.4
     77.6101	   449.0	   470.9	 -4700.7	   335.4
     77.6436	   477.0	   469.6	 -4671.4	   335.4
     77.6770	   477.0	   468.4	 -4670.2	   335.4
     77.7104	   491.0	   467.3	 -4655.1	   335.4
     77.7438	   449.0	   466.3	 -4696.1	   335.4
     77.7773	   447.0	   465.4	 -4697.2	   335.4
     77.8107	   471.0	   464.5	 -4672.3	   335.4
     77.8441	   454.0	   463.7	 -4688.5	   335.4
     77.8775	   459.0	   462.9	 -4682.8	   335.4
     77.9109	   483.0	   462.2	 -4658.1	   335.4
     77.9444	   450.0	   461.6	 -4690.4	   335.4
     77.9778	   475.0	   461.0	 -4664.8	   335.4
     78.0112	   516.0	   460.4	 -4623.2	   335.4
     78.0446	   468.0	   459.8	 -4670.7	   335.4
     78.0781	   470.0	   452.0	 -4660.8	   335.4
     78.1115	   456.0	   451.8	 -4674.6	   335.4
     78.1449	   489.0	   451.6	 -4641.4	   335.4
     78.1783	   474.0	   451.4	 -4656.3	   335.4
     78.2117	   460.0	   451.3	 -4670.1	   335.4
     78.2452	   439.0	   451.1	 -4690.9	   335.4
     78.2786	   531.0	   450.9	 -4598.8	   335.4
     78.3120	   449.0	   447.2	 -4677.0	   335.4
     78.3454	   446.0	   447.2	 -4680.0	   335.4
     78.3789	   464.0	   447.2	 -4662.0	   335.4
     78.4123	   460.0	   447.2	 -4666.0	   335.4
     78.4457	   450.0	   447.2	 -4676.0	   335.4
     78.4791	   441.0	   447.2	 -4685.0	   335.4
     78.5126	   457.0	   447.2	 -4669.0	   335.4
     78.5460	   430.0	   447.2	 -4696.0	   335.4
     78.5794	   428.0	   447.2	 -4698.0	   335.4
     78.6128	   438.0	   447.2	 -4688.0	   335.4
     78.6462	   449.0	   447.2	 -4677.0	   335.4
     78.6797	   476.0	   447.2	 -4650.0	   335.4
     78.7131	   465.0	   447.2	 -4661.0	   335.4
     78.7465	   481.0	   447.2	 -4645.0	   335.4
     78.7799	   456.0	   447.2	 -4670.0	   335.4
     78.8134	   436.0	   447.2	 -4690.0	   335.4
     78.8468	   487.0	   447.2	 -4639.0	   335.4
     78.8802	   443.0	   447.2	 -4683.0	   335.4
     78.9136	   449.0	   447.2	 -4677.0	   335.4
     78.9470	   472.0	   447.2	 -4654.0	   335.4
     78.9805	   474.0	   447.2	 -4652.0	   335.4
     79.0139	   478.0	   447.2	 -4648.0	   335.4
     79.0473	   445.0	   447.2	 -4681.0	   335.4
     79.0807	   443.0	   447.2	 -4683.0	   335.4
     79.1142	   462.0	   447.2	 -4664.0	   335.4
     79.1476	   474.0	   447.2	 -4652.0	   335.4
     79.1810	   454.0	   447.2	 -4672.0	   335.4
     79.2144	   474.0	   447.2	 -4652.0	   335.4
     79.2478	   475.0	   447.2	 -4651.0	   335.4
     79.2813	   392.0	   447.2	 -4734.0	   335.4
     79.3147	   433.0	   447.2	 -4693.0	   335.4
     79.3481	   447.0	   447.2	 -4679.0	   335.4
     79.3815	   480.0	   447.2	 -4646.0	   335.4
     79.4150	   466.0	   447.2	 -4660.0	   335.4
     79.4484	   451.0	   447.2	 -4675.0	   335.4
     79.4818	   439.0	   447.2	 -4687.0	   335.4
     79.5152	   437.0	   447.2	 -4689.0	   335.4
     79.5487	   460.0	   447.2	 -4666.0	   335.4
     79.5821	   434.0	   447.2	 -4692.0	   335.4
     79.6155	   462.0	   447.2	 -4664.0	   335.4
     79.6489	   450.0	   447.2	 -4676.0	   335.4
     79.6823	   461.0	   447.2	 -4665.0	   335.4
     79.7158	   448.0	   447.2	 -4678.0	   335.4
     79.7492	   508.0	   447.2	 -4618.0	   335.4
     79.7826	   443.0	   447.2	 -4683.0	   335.4
     79.8160	   446.0	   447.2	 -4680.0	   335.4
     79.8494	   454.0	   447.2	 -4672.0	   335.4
     79.8829	   459.0	   447.2	 -4667.0	   335.4
     79.9163	   481.0	   447.2	 -4645.0	   335.4
     79.9497	   447.0	   447.2	 -4679.0	   335.4
     79.9831	   485.0	   447.2	 -4641.0	   335.4
     80.0166	   407.0	   447.2	 -4719.0	   335.4
     80.0500	   475.0	   447.2	 -4651.0	   335.4
     80.0834	   413.0	   447.2	 -4713.0	   335.4
     80.1168	   439.0	   447.2	 -4687.0	   335.4
     80.1503	   471.0	   447.2	 -4655.0	   335.4
     80.1837	   455.0	   447.2	 -4671.0	   335.4
     80.2171	   444.0	   447.2	 -4682.0	   335.4
     80.2505	   464.0	   447.2	 -4662.0	   335.4
     80.2839	   423.0	   447.2	 -4703.0	   335.4
     80.3174	   446.0	   447.2	 -4680.0	   335.4
     80.3508	   429.0	   447.2	 -4697.0	   335.4
     80.3842	   476.0	   447.2	 -4650.0	   335.4
     80.4176	   475.0	   447.2	 -4651.0	   335.4
     80.4511	   434.0	   447.2	 -4692.0	   335.4
     80.4845	   478.0	   447.2	 -4648.0	   335.4
     80.5179	   458.0	   447.2	 -4668.0	   335.4
     80.5513	   472.0	   447.2	 -4654.0	   335.4
     80.5847	   457.0	   447.2	 -4669.0	   335.4
     80.6182	   462.0	   447.2	 -4664.0	   335.4
     80.6516	   487.0	   447.2	 -4639.0	   335.4
     80.6850	   460.0	   447.2	 -4666.0	   335.4
     80.7184	   468.0	   447.2	 -4658.0	   335.4
     80.7519	   467.0	   447.2	 -4659.0	   335.4
     80.7853	   447.0	   447.2	 -4679.0	   335.4
     80.8187	   436.0	   447.2	 -4690.0	   335.4
     80.8521	   446.0	   447.2	 -4680.0	   335.4
     80.8856	   497.0	   447.2	 -4629.0	   335.4
     80.9190	   444.0	   447.2	 -4682.0	   335.4
     80.9524	   460.0	   447.2	 -4666.0	   335.4
     80.9858	   438.0	   447.2	 -4688.0	   335.4
     81.0192	   414.0	   447.2	 -4712.0	   335.4
     81.0527	   418.0	   447.2	 -4708.0	   335.4
     81.0861	   507.0	   447.2	 -4619.0	   335.4
     81.1195	   424.0	   447.2	 -4702.0	   335.4
     81.1529	   461.0	   447.2	 -4665.0	   335.4
     81.1864	   416.0	   447.2	 -4710.0	   335.4
     81.2198	   471.0	   447.2	 -4655.0	   335.4
     81.2532	   452.0	   447.2	 -4674.0	   335.4
     81.2866	   417.0	   447.2	 -4709.0	   335.4
     81.3200	   441.0	   447.2	 -4685.0	   335.4
     81.3535	   398.0	   447.2	 -4728.0	   335.4
     81.3869	   421.0	   447.2	 -4705.0	   335.4
     81.4203	   418.0	   447.2	 -4708.0	   335.4
     81.4537	   448.0	   447.2	 -4678.0	   335.4
     81.4872	   443.0	   447.2	 -4683.0	   335.4
     81.5206	   467.0	   447.2	 -4659.0	   335.4
     81.5540	   436.0	   447.2	 -4690.0	   335.4
     81.5874	   456.0	   447.2	 -4670.0	   335.4
     81.6208	   449.0	   447.2	 -4677.0	   335.4
     81.6543	   416.0	   447.2	 -4710.0	   335.4
     81.6877	   420.0	   447.2	 -4706.0	   335.4
     81.7211	   465.0	   447.2	 -4661.0	   335.4
     81.7545	   452.0	   447.2	 -4674.0	   335.4
     81.7880	   466.0	   447.2	 -4660.0	   335.4
     81.8214	   414.0	   447.2	 -4712.0	   335.4
     81.8548	   415.0	   447.2	 -4711.0	   335.4
     81.8882	   459.0	   447.2	 -4667.0	   335.4
     81.9217	   407.0	   447.2	 -4719.0	   335.4
     81.9551	   465.0	   447.2	 -4661.0	   335.4
     81.9885	   420.0	   447.2	 -4706.0	   335.4
     82.0219	   456.0	   447.2	 -4670.0	   335.4
     82.0553	   454.0	   447.2	 -4672.0	   335.4
     82.0888	   444.0	   447.2	 -4682.0	   335.4
     82.1222	   456.0	   447.2	 -4670.0	   335.4
     82.1556	   431.0	   447.2	 -4695.0	   335.4
     82.1890	   446.0	   447.2	 -4680.0	   335.4
     82.2225	   478.0	   447.2	 -4648.0	   335.4
     82.2559	   426.0	   447.2	 -4700.0	   335.4
     82.2893	   443.0	   447.2	 -4683.0	   335.4
     82.3227	   435.0	   447.2	 -4691.0	   335.4
     82.3561	   449.0	   447.2	 -4677.0	   335.4
     82.3896	   464.0	   447.2	 -4662.0	   335.4
     82.4230	   489.0	   447.2	 -4637.0	   335.4
     82.4564	   411.0	   447.2	 -4715.0	   335.4
     82.4898	   445.0	   447.2	 -4681.0	   335.4
     82.5233	   431.0	   447.2	 -4695.0	   335.4
     82.5567	   452.0	   447.2	 -4674.0	   335.4
     82.5901	   498.0	   447.2	 -4628.0	   335.4
     82.6235	   433.0	   447.2	 -4693.0	   335.4
     82.6569	   451.0	   447.2	 -4675.0	   335.4
     82.6904	   447.0	   447.2	 -4679.0	   335.4
     82.7238	   447.0	   447.2	 -4679.0	   335.4
     82.7572	   441.0	   447.2	 -4685.0	   335.4
     82.7906	   429.0	   447.2	 -4697.0	   335.4
     82.8241	   466.0	   447.2	 -4660.0	   335.4
     82.8575	   479.0	   447.2	 -4647.0	   335.4
     82.8909	   468.0	   447.2	 -4658.0	   335.4
     82.9243	   495.0	   447.2	 -4631.0	   335.4
     82.9577	   446.0	   447.2	 -4680.0	   335.4
     82.9912	   425.0	   447.2	 -4701.0	   335.4
     83.0246	   416.0	   447.2	 -4710.0	   335.4
     83.0580	   471.0	   447.2	 -4655.0	   335.4
     83.0914	   462.0	   447.2	 -4664.0	   335.4
     83.1249	   465.0	   447.2	 -4661.0	   335.4
     83.1583	   439.0	   447.2	 -4687.0	   335.4
     83.1917	   488.0	   447.2	 -4638.0	   335.4
     83.2251	   439.0	   447.2	 -4687.0	   335.4
     83.2586	   426.0	   447.2	 -4700.0	   335.4
     83.2920	   480.0	   447.2	 -4646.0	   335.4
     83.3254	   454.0	   447.2	 -4672.0	   335.4
     83.3588	   446.0	   447.2	 -4680.0	   335.4
     83.3922	   399.0	   447.2	 -4727.0	   335.4
     83.4257	   446.0	   447.2	 -4680.0	   335.4
     83.4591	   483.0	   447.2	 -4643.0	   335.4
     83.4925	   462.0	   447.2	 -4664.0	   335.4
     83.5259	   464.0	   447.2	 -4662.0	   335.4
     83.5594	   456.0	   447.2	 -4670.0	   335.4
     83.5928	   458.0	   447.2	 -4668.0	   335.4
     83.6262	   447.0	   447.2	 -4679.0	   335.4
     83.6596	   437.0	   447.2	 -4689.0	   335.4
     83.6930	   433.0	   447.2	 -4693.0	   335.4
     83.7265	   474.0	   447.2	 -4652.0	   335.4
     83.7599	   456.0	   447.2	 -4670.0	   335.4
     83.7933	   489.0	   447.2	 -4637.0	   335.4
     83.8267	   459.0	   447.2	 -4667.0	   335.4
     83.8602	   465.0	   447.2	 -4661.0	   335.4
     83.8936	   434.0	   447.2	 -4692.0	   335.4
     83.9270	   455.0	   447.2	 -4671.0	   335.4
     83.9604	   440.0	   447.2	 -4686.0	   335.4
     83.9939	   427.0	   447.2	 -4699.0	   335.4
     84.0273	   446.0	   447.2	 -4680.0	   335.4
     84.0607	   457.0	   447.2	 -4669.0	   335.4
     84.0941	   449.0	   447.2	 -4677.0	   335.4
     84.1275	   443.0	   447.2	 -4683.0	   335.4
     84.1610	   447.0	   447.2	 -4679.0	   335.4
     84.1944	   462.0	   447.2	 -4664.0	   335.4
     84.2278	   421.0	   447.2	 -4705.0	   335.4
     84.2612	   470.0	   447.2	 -4656.0	   335.4
     84.2946	   476.0	   447.2	 -4650.0	   335.4
     84.3281	   472.0	   447.2	 -4654.0	   335.4
     84.3615	   460.0	   447.2	 -4666.0	   335.4
     84.3949	   440.0	   447.2	 -4686.0	   335.4
     84.4283	   436.0	   447.2	 -4690.0	   335.4
     84.4618	   445.0	   447.2	 -4681.0	   335.4
     84.4952	   466.0	   447.2	 -4660.0	   335.4
     84.5286	   488.0	   447.2	 -4638.0	   335.4
     84.5620	   470.0	   447.2	 -4656.0	   335.4
     84.5955	   440.0	   447.2	 -4686.0	   335.4
     84.6289	   420.0	   447.2	 -4706.0	   335.4
     84.6623	   461.0	   447.2	 -4665.0	   335.4
     84.6957	   444.0	   447.2	 -4682.0	   335.4
     84.7291	   429.0	   447.2	 -4697.0	   335.4
     84.7626	   440.0	   447.2	 -4686.0	   335.4
     84.7960	   404.0	   447.2	 -4722.0	   335.4
     84.8294	   397.0	   447.2	 -4729.0	   335.4
     84.8628	   418.0	   447.2	 -4708.0	   335.4
     84.8963	   457.0	   447.2	 -4669.0	   335.4
     84.9297	   420.0	   447.2	 -4706.0	   335.4
     84.9631	   437.0	   447.2	 -4689.0	   335.4
     84.9965	   438.0	   447.2	 -4688.0	   335.4
     85.0299	   448.0	   447.2	 -4678.0	   335.4
     85.0634	   493.0	   447.2	 -4633.0	   335.4
     85.0968	   469.0	   447.2	 -4657.0	   335.4
     85.1302	   455.0	   447.2	 -4671.0	   335.4
     85.1636	   457.0	   447.2	 -4669.0	   335.4
     85.1971	   500.0	   447.2	 -4626.0	   335.4
     85.2305	   468.0	   447.2	 -4658.0	   335.4
     85.2639	   467.0	   447.2	 -4659.0	   335.4
     85.2973	   469.0	   447.2	 -4657.0	   335.4
     85.3307	   428.0	   447.2	 -4698.0	   335.4
     85.3642	   461.0	   447.2	 -4665.0	   335.4
     85.3976	   448.0	   447.2	 -4678.0	   335.4
     85.4310	   423.0	   447.2	 -4703.0	   335.4
     85.4644	   446.0	   447.2	 -4680.0	   335.4
     85.4979	   438.0	   447.2	 -4688.0	   335.4
     85.5313	   470.0	   447.2	 -4656.0	   335.4
     85.5647	   425.0	   447.2	 -4701.0	   335.4
     85.5981	   455.0	   447.2	 -4671.0	   335.4
     85.6316	   454.0	   447.2	 -4672.0	   335.4
     85.6650	   421.0	   447.2	 -4705.0	   335.4
     85.6984	   407.0	   447.2	 -4719.0	   335.4
     85.7318	   433.0	   447.2	 -4693.0	   335.4
     85.7652	   440.0	   447.2	 -4686.0	   335.4
     85.7987	   464.0	   447.2	 -4662.0	   335.4
     85.8321	   438.0	   447.2	 -4688.0	   335.4
     85.8655	   449.0	   447.2	 -4677.0	   335.4
     85.8989	   467.0	   447.2	 -4659.0	   335.4
     85.9324	   414.0	   447.2	 -4712.0	   335.4
     85.9658	   478.0	   447.2	 -4648.0	   335.4
     85.9992	   415.0	   447.2	 -4711.0	   335.4
     86.0326	   417.0	   447.2	 -4709.0	   335.4
     86.0660	   440.0	   447.2	 -4686.0	   335.4
     86.0995	   447.0	   447.2	 -4679.0	   335.4
     86.1329	   421.0	   447.2	 -4705.0	   335.4
     86.1663	   450.0	   447.2	 -4676.0	   335.4
     86.1997	   421.0	   447.2	 -4705.0	   335.4
     86.2332	   455.0	   447.2	 -4671.0	   335.4
     86.2666	   433.0	   447.2	 -4693.0	   335.4
     86.3000	   468.0	   447.2	 -4658.0	   335.4
     86.3334	   446.0	   447.2	 -4680.0	   335.4
     86.3668	   441.0	   447.2	 -4685.0	   335.4
     86.4003	   450.0	   447.2	 -4676.0	   335.4
     86.4337	   433.0	   447.2	 -4693.0	   335.4
     86.4671	   450.0	   447.2	 -4676.0	   335.4
     86.5005	   450.0	   447.2	 -4676.0	   335.4
     86.5340	   454.0	   447.2	 -4672.0	   335.4
     86.5674	   411.0	   447.2	 -4715.0	   335.4
     86.6008	   496.0	   447.2	 -4630.0	   335.4
     86.6342	   437.0	   447.2	 -4689.0	   335.4
     86.6676	   439.0	   447.2	 -4687.0	   335.4
     86.7011	   485.0	   447.2	 -4641.0	   335.4
     86.7345	   437.0	   447.2	 -4689.0	   335.4
     86.7679	   428.0	   447.2	 -4698.0	   335.4
     86.8013	   420.0	   447.2	 -4706.0	   335.4
     86.8348	   454.0	   447.2	 -4672.0	   335.4
     86.8682	   420.0	   447.2	 -4706.0	   335.4
     86.9016	   448.0	   447.2	 -4678.0	   335.4
     86.9350	   501.0	   447.2	 -4625.0	   335.4
     86.9685	   506.0	   447.2	 -4620.0	   335.4
     87.0019	   421.0	   447.2	 -4705.0	   335.4
     87.0353	   481.0	   447.2	 -4645.0	   335.4
     87.0687	   441.0	   447.2	 -4685.0	   335.4
     87.1021	   492.0	   447.2	 -4634.0	   335.4
     87.1356	   443.0	   447.2	 -4683.0	   335.4
     87.1690	   450.0	   447.2	 -4676.0	   335.4
     87.2024	   449.0	   447.2	 -4677.0	   335.4
     87.2358	   440.0	   447.2	 -4686.0	   335.4
     87.2693	   477.0	   447.2	 -4649.0	   335.4
     87.3027	   410.0	   447.2	 -4716.0	   335.4
     87.3361	   410.0	   447.2	 -4716.0	   335.4
     87.3695	   465.0	   447.2	 -4661.0	   335.4
     87.4029	   450.0	   447.2	 -4676.0	   335.4
     87.4364	   446.0	   447.2	 -4680.0	   335.4
     87.4698	   447.0	   447.2	 -4679.0	   335.4
     87.5032	   436.0	   447.2	 -4690.0	   335.4
     87.5366	   451.0	   447.2	 -4675.0	   335.4
     87.5701	   476.0	   447.2	 -4650.0	   335.4
     87.6035	   436.0	   447.2	 -4690.0	   335.4
     87.6369	   446.0	   447.2	 -4680.0	   335.4
     87.6703	   455.0	   447.2	 -4671.0	   335.4
     87.7038	   468.0	   447.2	 -4658.0	   335.4
     87.7372	   425.0	   447.2	 -4701.0	   335.4
     87.7706	   450.0	   447.2	 -4676.0	   335.4
     87.8040	   455.0	   447.2	 -4671.0	   335.4
     87.8374	   413.0	   447.2	 -4713.0	   335.4
     87.8709	   500.0	   447.2	 -4626.0	   335.4
     87.9043	   486.0	   447.2	 -4640.0	   335.4
     87.9377	   450.0	   447.2	 -4676.0	   335.4
     87.9711	   437.0	   447.2	 -4689.0	   335.4
     88.0045	   456.0	   447.2	 -4670.0	   335.4
     88.0380	   462.0	   447.2	 -4664.0	   335.4
     88.0714	   461.0	   447.2	 -4665.0	   335.4
     88.1048	   449.0	   447.2	 -4677.0	   335.4
     88.1382	   468.0	   447.2	 -4658.0	   335.4
     88.1717	   462.0	   447.2	 -4664.0	   335.4
     88.2051	   471.0	   447.2	 -4655.0	   335.4
     88.2385	   461.0	   447.2	 -4665.0	   335.4
     88.2719	   420.0	   447.2	 -4706.0	   335.4
     88.3054	   475.0	   447.2	 -4651.0	   335.4
     88.3388	   425.0	   447.2	 -4701.0	   335.4
     88.3722	   437.0	   447.2	 -4689.0	   335.4
     88.4056	   474.0	   447.2	 -4652.0	   335.4
     88.4390	   510.0	   447.2	 -4616.0	   335.4
     88.4725	   414.0	   447.2	 -4712.0	   335.4
     88.5059	   474.0	   447.2	 -4652.0	   335.4
     88.5393	   480.0	   447.2	 -4646.0	   335.4
     88.5727	   437.0	   447.2	 -4689.0	   335.4
     88.6062	   424.0	   447.2	 -4702.0	   335.4
     88.6396	   390.0	   447.2	 -4736.0	   335.4
     88.6730	   437.0	   447.2	 -4689.0	   335.4
     88.7064	   475.0	   447.2	 -4651.0	   335.4
     88.7398	   408.0	   447.2	 -4718.0	   335.4
     88.7733	   450.0	   447.2	 -4676.0	   335.4
     88.8067	   468.0	   447.2	 -4658.0	   335.4
     88.8401	   449.0	   447.2	 -4677.0	   335.4
     88.8735	   444.0	   447.2	 -4682.0	   335.4
     88.9070	   427.0	   447.2	 -4699.0	   335.4
     88.9404	   462.0	   447.2	 -4664.0	   335.4
     88.9738	   491.0	   447.2	 -4635.0	   335.4
     89.0072	   499.0	   447.2	 -4627.0	   335.4
     89.0406	   441.0	   447.2	 -4685.0	   335.4
     89.0741	   416.0	   447.2	 -4710.0	   335.4
     89.1075	   460.0	   447.2	 -4666.0	   335.4
     89.1409	   471.0	   447.2	 -4655.0	   335.4
     89.1743	   483.0	   447.2	 -4643.0	   335.4
     89.2078	   468.0	   447.2	 -4658.0	   335.4
     89.2412	   439.0	   447.2	 -4687.0	   335.4
     89.2746	   501.0	   447.2	 -4625.0	   335.4
     89.3080	   455.0	   447.2	 -4671.0	   335.4
     89.3415	   479.0	   447.2	 -4647.0	   335.4
     89.3749	   510.0	   447.2	 -4616.0	   335.4
     89.4083	   458.0	   447.2	 -4668.0	   335.4
     89.4417	   429.0	   447.2	 -4697.0	   335.4
     89.4751	   460.0	   447.2	 -4666.0	   335.4
     89.5086	   475.0	   447.2	 -4651.0	   335.4
     89.5420	   480.0	   447.2	 -4646.0	   335.4
     89.5754	   438.0	   447.2	 -4688.0	   335.4
     89.6088	   448.0	   447.2	 -4678.0	   335.4
     89.6423	   452.0	   447.2	 -4674.0	   335.4
     89.6757	   429.0	   447.2	 -4697.0	   335.4
     89.7091	   414.0	   447.2	 -4712.0	   335.4
     89.7425	   472.0	   447.2	 -4654.0	   335.4
     89.7759	   452.0	   447.2	 -4674.0	   335.4
     89.8094	   430.0	   447.2	 -4696.0	   335.4
     89.8428	   450.0	   447.2	 -4676.0	   335.4
     89.8762	   454.0	   447.2	 -4672.0	   335.4
     89.9096	   480.0	   447.2	 -4646.0	   335.4
     89.9431	   392.0	   447.2	 -4734.0	   335.4
     89.9765	   430.0	   447.2	 -4696.0	   335.4
     90.0099	   478.0	   447.2	 -4648.0	   335.4
     90.0433	   465.0	   447.2	 -4661.0	   335.4
     90.0767	   472.0	   447.2	 -4654.0	   335.4
     90.1102	   460.0	   447.2	 -4666.0	   335.4
     90.1436	   490.0	   447.2	 -4636.0	   335.4
     90.1770	   459.0	   447.2	 -4667.0	   335.4
     90.2104	   455.0	   447.2	 -4671.0	   335.4
     90.2439	   485.0	   447.2	 -4641.0	   335.4
     90.2773	   446.0	   447.2	 -4680.0	   335.4
     90.3107	   455.0	   447.2	 -4671.0	   335.4
     90.3441	   501.0	   447.2	 -4625.0	   335.4
     90.3775	   485.0	   447.2	 -4641.0	   335.4
     90.4110	   489.0	   447.2	 -4637.0	   335.4
     90.4444	   460.0	   447.2	 -4666.0	   335.4
     90.4778	   461.0	   447.2	 -4665.0	   335.4
     90.5112	   449.0	   447.2	 -4677.0	   335.4
     90.5447	   452.0	   447.2	 -4674.0	   335.4
     90.5781	   475.0	   447.2	 -4651.0	   335.4
     90.6115	   479.0	   447.2	 -4647.0	   335.4
     90.6449	   472.0	   447.2	 -4654.0	   335.4
     90.6784	   450.0	   447.2	 -4676.0	   335.4
     90.7118	   493.0	   447.2	 -4633.0	   335.4
     90.7452	   427.0	   447.2	 -4699.0	   335.4
     90.7786	   482.0	   447.2	 -4644.0	   335.4
     90.8120	   479.0	   447.2	 -4647.0	   335.4
     90.8455	   452.0	   447.2	 -4674.0	   335.4
     90.8789	   425.0	   447.2	 -4701.0	   335.4
     90.9123	   440.0	   447.2	 -4686.0	   335.4
     90.9457	   464.0	   447.2	 -4662.0	   335.4
     90.9792	   458.0	   447.2	 -4668.0	   335.4
     91.0126	   469.0	   447.2	 -4657.0	   335.4
     91.0460	   429.0	   447.2	 -4697.0	   335.4
     91.0794	   483.0	   447.2	 -4643.0	   335.4
     91.1128	   439.0	   447.2	 -4687.0	   335.4
     91.1463	   472.0	   447.2	 -4654.0	   335.4
     91.1797	   455.0	   447.2	 -4671.0	   335.4
     91.2131	   505.0	   447.2	 -4621.0	   335.4
     91.2465	   470.0	   459.1	 -4667.9	   335.4
     91.2800	   452.0	   459.6	 -4686.4	   335.4
     91.3134	   461.0	   460.1	 -4678.0	   335.4
     91.3468	   489.0	   460.7	 -4650.5	   335.4
     91.3802	   455.0	   461.3	 -4685.1	   335.4
     91.4137	   433.0	   461.9	 -4707.8	   335.4
     91.4471	   466.0	   462.6	 -4675.5	   335.4
     91.4805	   481.0	   463.4	 -4661.2	   335.4
     91.5139	   471.0	   469.9	 -4677.8	   335.4
     91.5473	   433.0	   471.0	 -4716.8	   335.4
     91.5808	   476.0	   472.2	 -4675.0	   335.4
     91.6142	   439.0	   473.4	 -4713.3	   335.4
     91.6476	   451.0	   474.8	 -4702.6	   335.4
     91.6810	   462.0	   476.2	 -4693.1	   335.4
     91.7145	   483.0	   477.8	 -4673.6	   335.4
     91.7479	   450.0	   479.5	 -4708.4	   335.4
     91.7813	   511.0	   481.4	 -4649.2	   335.4
     91.8147	   472.0	   483.4	 -4690.2	   335.4
     91.8481	   521.0	   485.6	 -4643.5	   335.4
     91.8816	   507.0	   488.0	 -4659.9	   335.4
     91.9150	   490.0	   490.7	 -4679.5	   335.4
     91.9484	   496.0	   493.6	 -4676.5	   335.4
     91.9818	   489.0	   496.9	 -4686.7	   335.4
     92.0153	   462.0	   500.4	 -4717.3	   335.4
     92.0487	   483.0	   504.4	 -4700.3	   335.4
     92.0821	   496.0	   508.9	 -4691.7	   335.4
     92.1155	   478.0	   513.9	 -4714.8	   335.4
     92.1489	   497.0	   519.6	 -4701.4	   335.4
     92.1824	   537.0	   526.0	 -4667.8	   335.4
     92.2158	   513.0	   533.2	 -4699.1	   335.4
     92.2492	   531.0	   541.6	 -4689.4	   335.4
     92.2826	   589.0	   551.2	 -4641.1	   335.4
     92.3161	   516.0	   562.4	 -4725.3	   335.4
     92.3495	   581.0	   575.6	 -4673.4	   335.4
     92.3829	   601.0	   591.0	 -4668.9	   335.4
     92.4163	   603.0	   609.5	 -4685.4	   335.4
     92.4497	   636.0	   631.8	 -4674.6	   335.4
     92.4832	   686.0	   659.0	 -4651.8	   335.4
     92.5166	   694.0	   692.8	 -4677.6	   335.4
     92.5500	   665.0	   735.5	 -4749.3	   335.4
     92.5834	   774.0	   790.7	 -4695.5	   335.4
     92.6169	   867.0	   863.6	 -4675.4	   335.4
     92.6503	   936.0	   961.6	 -4704.4	   335.4
     92.6837	  1131.0	  1095.0	 -4642.8	   335.4
     92.7171	  1255.0	  1276.4	 -4700.2	   335.4
     92.7505	  1478.0	  1519.5	 -4720.4	   335.4
     92.7840	  1763.0	  1831.9	 -4747.8	   335.4
     92.8174	  2161.0	  2195.6	 -4713.5	   335.4
     92.8508	  2599.0	  2533.3	 -4613.1	   335.4
     92.8842	  2695.0	  2707.1	 -4690.9	   335.4
     92.9177	  2541.0	  2629.8	 -4767.6	   335.4
     92.9511	  2227.0	  2375.1	 -4826.9	   335.4
     92.9845	  2073.0	  2090.3	 -4696.2	   335.4
     93.0179	  1807.0	  1870.7	 -4742.5	   335.4
     93.0514	  1762.0	  1747.8	 -4664.6	   335.4
     93.0848	  1731.0	  1719.2	 -4667.1	   335.4
     93.1182	  1764.0	  1760.1	 -4675.0	   335.4
     93.1516	  1844.0	  1814.7	 -4649.5	   335.4
     93.1850	  1795.0	  1803.0	 -4686.8	   335.4
     93.2185	  1704.0	  1680.9	 -4655.7	   335.4
     93.2519	  1495.0	  1485.0	 -4668.8	   335.4
     93.2853	  1273.0	  1280.8	 -4686.7	   335.4
     93.3187	  1144.0	  1105.8	 -4640.6	   335.4
     93.3522	   974.0	   968.5	 -4673.3	   335.4
     93.3856	   843.0	   864.6	 -4700.5	   335.4
     93.4190	   752.0	   787.0	 -4713.8	   335.4
     93.4524	   775.0	   728.7	 -4632.6	   335.4
     93.4858	   705.0	   684.5	 -4658.4	   335.4
     93.5193	   662.0	   650.3	 -4667.2	   335.4
     93.5527	   630.0	   623.3	 -4672.1	   335.4
     93.5861	   602.0	   601.5	 -4678.4	   335.4
     93.6195	   567.0	   583.7	 -4695.5	   335.4
     93.6530	   548.0	   568.8	 -4699.7	   335.4
     93.6864	   513.0	   556.3	 -4722.2	   335.4
     93.7198	   582.0	   545.7	 -4642.6	   335.4
     93.7532	   539.0	   536.6	 -4676.4	   335.4
     93.7867	   522.0	   528.7	 -4685.6	   335.4
     93.8201	   506.0	   521.8	 -4694.7	   335.4
     93.8535	   551.0	   515.8	 -4643.7	   335.4
     93.8869	   498.0	   510.5	 -4691.4	   335.4
     93.9203	   470.0	   505.8	 -4714.7	   335.4
     93.9538	   490.0	   501.6	 -4690.5	   335.4
     93.9872	   506.0	   497.9	 -4670.7	   335.4
     94.0206	   469.0	   494.5	 -4704.3	   335.4
     94.0540	   469.0	   491.4	 -4701.3	   335.4
     94.0874	   466.0	   488.7	 -4701.5	   335.4
     94.1209	   509.0	   486.2	 -4656.0	   335.4
     94.1543	   478.0	   483.9	 -4684.8	   335.4
     94.1877	   481.0	   481.8	 -4679.7	   335.4
     94.2211	   492.0	   479.9	 -4666.8	   335.4
     94.2546	   499.0	   478.2	 -4658.0	   335.4
     94.2880	   481.0	   476.5	 -4674.4	   335.4
     94.3214	   462.0	   475.1	 -4691.9	   335.4
     94.3548	   498.0	   473.7	 -4654.5	   335.4
     94.3883	   452.0	   472.4	 -4699.2	   335.4
     94.4217	   527.0	   471.2	 -4623.1	   335.4
     94.4551	   438.0	   470.1	 -4710.9	   335.4
     94.4885	   454.0	   469.1	 -4693.9	   335.4
     94.5219	   441.0	   468.1	 -4706.0	   335.4
     94.5554	   458.0	   467.2	 -4688.1	   335.4
     94.5888	   490.0	   466.4	 -4655.2	   335.4
     94.6222	   485.0	   465.6	 -4659.4	   335.4
     94.6556	   467.0	   464.8	 -4676.7	   335.4
     94.6891	   478.0	   454.3	 -4655.1	   335.4
     94.7225	   477.0	   454.0	 -4655.8	   335.4
     94.7559	   482.0	   453.7	 -4650.5	   335.4
     94.7893	   487.0	   453.4	 -4645.3	   335.4
     94.8227	   502.0	   453.2	 -4630.0	   335.4
     94.8562	   417.0	   452.9	 -4714.8	   335.4
     94.8896	   452.0	   452.7	 -4679.6	   335.4
     94.9230	   485.0	   452.5	 -4646.3	   335.4
     94.9564	   449.0	   452.3	 -4682.1	   335.4
     94.9899	   491.0	   447.2	 -4635.0	   335.4
     95.0233	   445.0	   447.2	 -4681.0	   335.4
     95.0567	   461.0	   447.2	 -4665.0	   335.4
     95.0901	   465.0	   447.2	 -4661.0	   335.4
     95.1236	   487.0	   447.2	 -4639.0	   335.4
     95.1570	   470.0	   447.2	 -4656.0	   335.4
     95.1904	   452.0	   447.2	 -4674.0	   335.4
     95.2238	   467.0	   447.2	 -4659.0	   335.4
     95.2572	   480.0	   447.2	 -4646.0	   335.4
     95.2907	   461.0	   447.2	 -4665.0	   335.4
     95.3241	   481.0	   447.2	 -4645.0	   335.4
     95.3575	   478.0	   447.2	 -4648.0	   335.4
     95.3909	   449.0	   447.2	 -4677.0	   335.4
     95.4244	   474.0	   447.2	 -4652.0	   335.4
     95.4578	   474.0	   447.2	 -4652.0	   335.4
     95.4912	   460.0	   447.2	 -4666.0	   335.4
     95.5246	   466.0	   447.2	 -4660.0	   335.4
     95.5580	   445.0	   447.2	 -4681.0	   335.4
     95.5915	   445.0	   447.2	 -4681.0	   335.4
     95.6249	   445.0	   447.2	 -4681.0	   335.4
     95.6583	   492.0	   447.2	 -4634.0	   335.4
     95.6917	   455.0	   447.2	 -4671.0	   335.4
     95.7252	   507.0	   447.2	 -4619.0	   335.4
     95.7586	   483.0	   447.2	 -4643.0	   335.4
     95.7920	   464.0	   447.2	 -4662.0	   335.4
     95.8254	   433.0	   447.2	 -4693.0	   335.4
     95.8588	   478.0	   447.2	 -4648.0	   335.4
     95.8923	   490.0	   447.2	 -4636.0	   335.4
     95.9257	   452.0	   447.2	 -4674.0	   335.4
     95.9591	   483.0	   447.2	 -4643.0	   335.4
     95.9925	   450.0	   447.2	 -4676.0	   335.4
     96.0260	   446.0	   447.2	 -4680.0	   335.4
     96.0594	   445.0	   447.2	 -4681.0	   335.4
     96.0928	   470.0	   447.2	 -4656.0	   335.4
     96.1262	   465.0	   447.2	 -4661.0	   335.4
     96.1597	   470.0	   447.2	 -4656.0	   335.4
     96.1931	   424.0	   447.2	 -4702.0	   335.4
     96.2265	   498.0	   447.2	 -4628.0	   335.4
     96.2599	   457.0	   447.2	 -4669.0	   335.4
     96.2933	   440.0	   447.2	 -4686.0	   335.4
     96.3268	   482.0	   447.2	 -4644.0	   335.4
     96.3602	   421.0	   447.2	 -4705.0	   335.4
     96.3936	   384.0	   447.2	 -4742.0	   335.4
     96.4270	   464.0	   447.2	 -4662.0	   335.4
     96.4604	   480.0	   447.2	 -4646.0	   335.4
     96.4939	   497.0	   447.2	 -4629.0	   335.4
     96.5273	   446.0	   447.2	 -4680.0	   335.4
     96.5607	   459.0	   447.2	 -4667.0	   335.4
     96.5941	   470.0	   447.2	 -4656.0	   335.4
     96.6276	   400.0	   447.2	 -4726.0	   335.4
     96.6610	   439.0	   447.2	 -4687.0	   335.4
     96.6944	   457.0	   450.8	 -4672.6	   335.4
     96.7278	   476.0	   450.9	 -4653.8	   335.4
     96.7613	   451.0	   451.1	 -4678.9	   335.4
     96.7947	   465.0	   451.2	 -4665.1	   335.4
     96.8281	   493.0	   451.4	 -4637.2	   335.4
     96.8615	   455.0	   451.6	 -4675.4	   335.4
     96.8949	   413.0	   451.8	 -4717.6	   335.4
     96.9284	   467.0	   452.0	 -4663.8	   335.4
     96.9618	   503.0	   452.2	 -4628.1	   335.4
     96.9952	   450.0	   454.2	 -4683.1	   335.4
     97.0286	   451.0	   454.5	 -4682.4	   335.4
     97.0621	   458.0	   454.9	 -4675.7	   335.4
     97.0955	   479.0	   455.3	 -4655.1	   335.4
     97.1289	   458.0	   455.7	 -4676.5	   335.4
     97.1623	   486.0	   456.1	 -4649.0	   335.4
     97.1957	   476.0	   456.6	 -4659.4	   335.4
     97.2292	   446.0	   457.1	 -4690.0	   335.4
     97.2626	   487.0	   457.7	 -4649.5	   335.4
     97.2960	   455.0	   458.3	 -4682.1	   335.4
     97.3294	   499.0	   458.9	 -4638.8	   335.4
     97.3629	   454.0	   459.7	 -4684.5	   335.4
     97.3963	   477.0	   460.4	 -4662.3	   335.4
     97.4297	   496.0	   461.3	 -4644.2	   335.4
     97.4631	   459.0	   462.3	 -4682.1	   335.4
     97.4966	   448.0	   463.3	 -4694.2	   335.4
     97.5300	   493.0	   464.5	 -4650.4	   335.4
     97.5634	   425.0	   465.8	 -4719.7	   335.4
     97.5968	   485.0	   467.3	 -4661.1	   335.4
     97.6302	   532.0	   468.9	 -4615.8	   335.4
     97.6637	   444.0	   470.8	 -4705.6	   335.4
     97.6971	   486.0	   472.9	 -4665.7	   335.4
     97.7305	   464.0	   475.3	 -4690.1	   335.4
     97.7639	   501.0	   478.0	 -4655.9	   335.4
     97.7974	   462.0	   481.2	 -4698.1	   335.4
     97.8308	   492.0	   484.9	 -4671.8	   335.4
     97.8642	   458.0	   489.3	 -4710.1	   335.4
     97.8976	   479.0	   494.4	 -4694.3	   335.4
     97.9310	   481.0	   500.6	 -4698.4	   335.4
     97.9645	   510.0	   508.0	 -4676.8	   335.4
     97.9979	   464.0	   517.1	 -4731.9	   335.4
     98.0313	   512.0	   528.4	 -4695.3	   335.4
     98.0647	   520.0	   542.8	 -4701.7	   335.4
     98.0982	   568.0	   561.5	 -4672.3	   335.4
     98.1316	   558.0	   585.9	 -4706.7	   335.4
     98.1650	   625.0	   618.2	 -4672.0	   335.4
     98.1984	   599.0	   661.1	 -4741.0	   335.4
     98.2318	   683.0	   717.5	 -4713.4	   335.4
     98.2653	   766.0	   789.6	 -4702.5	   335.4
     98.2987	   882.0	   876.2	 -4673.0	   335.4
     98.3321	  1094.0	   966.6	 -4551.4	   335.4
     98.3655	  1132.0	  1036.2	 -4583.1	   335.4
     98.3990	  1181.0	  1056.0	 -4553.8	   335.4
     98.4324	  1064.0	  1019.4	 -4634.2	   335.4
     98.4658	   996.0	   950.8	 -4633.6	   335.4
     98.4992	   876.0	   880.7	 -4683.6	   335.4
     98.5326	   829.0	   826.9	 -4676.8	   335.4
     98.5661	   805.0	   795.2	 -4669.0	   335.4
     98.5995	   789.0	   785.2	 -4675.0	   335.4
     98.6329	   856.0	   792.8	 -4615.6	   335.4
     98.6663	   913.0	   808.4	 -4574.2	   335.4
     98.6998	   817.0	   816.3	 -4678.1	   335.4
     98.7332	   857.0	   801.4	 -4623.2	   335.4
     98.7666	   814.0	   762.4	 -4627.2	   335.4
     98.8000	   740.0	   711.7	 -4650.6	   335.4
     98.8335	   695.0	   662.3	 -4646.2	   335.4
     98.8669	   619.0	   620.4	 -4680.2	   335.4
     98.9003	   570.0	   587.1	 -4695.9	   335.4
     98.9337	   531.0	   561.3	 -4709.2	   335.4
     98.9671	   520.0	   541.6	 -4700.4	   335.4
     99.0006	   571.0	   526.5	 -4634.3	   335.4
     99.0340	   493.0	   514.7	 -4700.5	   335.4
     99.0674	   466.0	   505.5	 -4718.3	   335.4
     99.1008	   458.0	   498.1	 -4718.9	   335.4
     99.1343	   487.0	   492.0	 -4683.9	   335.4
     99.1677	   446.0	   487.1	 -4719.9	   335.4
     99.2011	   441.0	   482.9	 -4720.7	   335.4
     99.2345	   495.0	   479.4	 -4663.2	   335.4
     99.2679	   487.0	   476.3	 -4668.2	   335.4
     99.3014	   477.0	   473.7	 -4675.6	   335.4
     99.3348	   490.0	   471.5	 -4660.3	   335.4
     99.3682	   440.0	   469.5	 -4708.3	   335.4
     99.4016	   488.0	   467.7	 -4658.6	   335.4
     99.4351	   451.0	   466.2	 -4694.0	   335.4
     99.4685	   438.0	   464.8	 -4705.7	   335.4
     99.5019	   441.0	   463.6	 -4701.4	   335.4
     99.5353	   430.0	   462.5	 -4711.3	   335.4
     99.5687	   450.0	   461.5	 -4690.4	   335.4
     99.6022	   456.0	   460.6	 -4683.5	   335.4
     99.6356	   470.0	   459.8	 -4668.6	   335.4
     99.6690	   466.0	   459.1	 -4671.9	   335.4
     99.7024	   472.0	   458.4	 -4665.2	   335.4
     99.7359	   464.0	   457.8	 -4672.6	   335.4
     99.7693	   502.0	   457.2	 -4634.0	   335.4
     99.8027	   452.0	   456.7	 -4683.5	   335.4
     99.8361	   475.0	   456.2	 -4660.0	   335.4
     99.8696	   456.0	   455.7	 -4678.6	   335.4
     99.9030	   478.0	   455.3	 -4656.2	   335.4
     99.9364	   449.0	   454.9	 -4684.8	   335.4
     99.9698	   492.0	   454.6	 -4641.4	   335.4
    100.0032	   478.0	   454.2	 -4655.1	   335.4
    100.0367	   414.0	   453.9	 -4718.8	   335.4
    100.0701	   443.0	   453.6	 -4689.5	   335.4
    100.1035	   503.0	   453.4	 -4629.2	   335.4
    100.1369	   404.0	   453.1	 -4728.0	   335.4
    100.1704	   459.0	   452.9	 -4672.7	   335.4
    100.2038	   483.0	   452.6	 -4648.5	   335.4
    100.2372	   476.0	   449.4	 -4652.3	   335.4
    100.2706	   456.0	   449.3	 -4672.2	   335.4
    100.3040	   423.0	   449.2	 -4705.1	   335.4
    100.3375	   462.0	   449.2	 -4666.0	   335.4
    100.3709	   478.0	   449.1	 -4649.9	   335.4
    100.4043	   418.0	   449.0	 -4709.8	   335.4
    100.4377	   470.0	   448.9	 -4657.8	   335.4
    100.4712	   430.0	   448.9	 -4697.7	   335.4
    100.5046	   450.0	   448.8	 -4677.6	   335.4
    100.5380	   486.0	   448.7	 -4641.6	   335.4
    100.5714	   413.0	   447.2	 -4713.0	   335.4
    100.6048	   460.0	   447.2	 -4666.0	   335.4
    100.6383	   443.0	   447.2	 -4683.0	   335.4
    100.6717	   450.0	   447.2	 -4676.0	   335.4
    100.7051	   439.0	   447.2	 -4687.0	   335.4
    100.7385	   426.0	   447.2	 -4700.0	   335.4
    100.7720	   520.0	   447.2	 -4606.0	   335.4
    100.8054	   466.0	   447.2	 -4660.0	   335.4
    100.8388	   487.0	   447.2	 -4639.0	   335.4
    100.8722	   439.0	   447.2	 -4687.0	   335.4
    100.9056	   468.0	   447.2	 -4658.0	   335.4
    100.9391	   448.0	   447.2	 -4678.0	   335.4
    100.9725	   465.0	   447.2	 -4661.0	   335.4
    101.0059	   455.0	   447.2	 -4671.0	   335.4
    101.0393	   429.0	   447.2	 -4697.0	   335.4
    101.0728	   449.0	   447.2	 -4677.0	   335.4
    101.1062	   499.0	   447.2	 -4627.0	   335.4
    101.1396	   465.0	   447.2	 -4661.0	   335.4
    101.1730	   475.0	   447.2	 -4651.0	   335.4
    101.2065	   480.0	   447.2	 -4646.0	   335.4
    101.2399	   413.0	   447.2	 -4713.0	   335.4
    101.2733	   447.0	   447.2	 -4679.0	   335.4
    101.3067	   433.0	   447.2	 -4693.0	   335.4
    101.3401	   443.0	   447.2	 -4683.0	   335.4
    101.3736	   436.0	   447.2	 -4690.0	   335.4
    101.4070	   480.0	   447.2	 -4646.0	   335.4
    101.4404	   418.0	   447.2	 -4708.0	   335.4
    101.4738	   396.0	   447.2	 -4730.0	   335.4
    101.5073	   447.0	   447.2	 -4679.0	   335.4
    101.5407	   462.0	   447.2	 -4664.0	   335.4
    101.5741	   429.0	   447.2	 -4697.0	   335.4
    101.6075	   482.0	   447.2	 -4644.0	   335.4
    101.6409	   477.0	   447.2	 -4649.0	   335.4
    101.6744	   425.0	   447.2	 -4701.0	   335.4
    101.7078	   452.0	   447.2	 -4674.0	   335.4
    101.7412	   420.0	   447.2	 -4706.0	   335.4
    101.7746	   461.0	   447.2	 -4665.0	   335.4
    101.8081	   444.0	   447.2	 -4682.0	   335.4
    101.8415	   470.0	   447.2	 -4656.0	   335.4
    101.8749	   460.0	   447.2	 -4666.0	   335.4
    101.9083	   438.0	   447.2	 -4688.0	   335.4
    101.9417	   469.0	   447.2	 -4657.0	   335.4
    101.9752	   451.0	   447.2	 -4675.0	   335.4
    102.0086	   477.0	   447.2	 -4649.0	   335.4
    102.0420	   472.0	   447.2	 -4654.0	   335.4
    102.0754	   448.0	   447.2	 -4678.0	   335.4
    102.1089	   459.0	   447.2	 -4667.0	   335.4
    102.1423	   400.0	   447.2	 -4726.0	   335.4
    102.1757	   399.0	   447.2	 -4727.0	   335.4
    102.2091	   420.0	   447.2	 -4706.0	   335.4
    102.2426	   496.0	   447.2	 -4630.0	   335.4
    102.2760	   481.0	   447.2	 -4645.0	   335.4
    102.3094	   480.0	   447.2	 -4646.0	   335.4
    102.3428	   437.0	   447.2	 -4689.0	   335.4
    102.3762	   475.0	   447.2	 -4651.0	   335.4
    102.4097	   446.0	   447.2	 -4680.0	   335.4
    102.4431	   437.0	   447.2	 -4689.0	   335.4
    102.4765	   454.0	   447.2	 -4672.0	   335.4
    102.5099	   482.0	   447.2	 -4644.0	   335.4
    102.5434	   423.0	   447.2	 -4703.0	   335.4
    102.5768	   466.0	   447.2	 -4660.0	   335.4
    102.6102	   511.0	   447.2	 -4615.0	   335.4
    102.6436	   478.0	   447.2	 -4648.0	   335.4
    102.6770	   455.0	   447.2	 -4671.0	   335.4
    102.7105	   439.0	   447.2	 -4687.0	   335.4
    102.7439	   438.0	   447.2	 -4688.0	   335.4
    102.7773	   430.0	   447.2	 -4696.0	   335.4
    102.8107	   508.0	   447.2	 -4618.0	   335.4
    102.8442	   435.0	   447.2	 -4691.0	   335.4
    102.8776	   486.0	   447.2	 -4640.0	   335.4
    102.9110	   487.0	   447.2	 -4639.0	   335.4
    102.9444	   464.0	   447.2	 -4662.0	   335.4
    102.9778	   437.0	   447.2	 -4689.0	   335.4
    103.0113	   490.0	   447.2	 -4636.0	   335.4
    103.0447	   435.0	   447.2	 -4691.0	   335.4
    103.0781	   469.0	   447.2	 -4657.0	   335.4
    103.1115	   430.0	   447.2	 -4696.0	   335.4
    103.1450	   446.0	   447.2	 -4680.0	   335.4
    103.1784	   427.0	   447.2	 -4699.0	   335.4
    103.2118	   461.0	   447.2	 -4665.0	   335.4
    103.2452	   431.0	   447.2	 -4695.0	   335.4
    103.2786	   444.0	   447.2	 -4682.0	   335.4
    103.3121	   448.0	   447.2	 -4678.0	   335.4
    103.3455	   447.0	   447.2	 -4679.0	   335.4
    103.3789	   492.0	   447.2	 -4634.0	   335.4
    103.4123	   457.0	   447.2	 -4669.0	   335.4
    103.4458	   429.0	   447.2	 -4697.0	   335.4
    103.4792	   438.0	   447.2	 -4688.0	   335.4
    103.5126	   480.0	   447.2	 -4646.0	   335.4
    103.5460	   462.0	   447.2	 -4664.0	   335.4
    103.5795	   413.0	   447.2	 -4713.0	   335.4
    103.6129	   428.0	   447.2	 -4698.0	   335.4
    103.6463	   446.0	   447.2	 -4680.0	   335.4
    103.6797	   418.0	   447.2	 -4708.0	   335.4
    103.7131	   465.0	   447.2	 -4661.0	   335.4
    103.7466	   436.0	   447.2	 -4690.0	   335.4
    103.7800	   449.0	   447.2	 -4677.0	   335.4
    103.8134	   451.0	   447.2	 -4675.0	   335.4
    103.8468	   436.0	   447.2	 -4690.0	   335.4
    103.8803	   459.0	   447.2	 -4667.0	   335.4
    103.9137	   427.0	   447.2	 -4699.0	   335.4
    103.9471	   452.0	   447.2	 -4674.0	   335.4
    103.9805	   445.0	   447.2	 -4681.0	   335.4
    104.0139	   491.0	   447.2	 -4635.0	   335.4
    104.0474	   408.0	   447.2	 -4718.0	   335.4
    104.0808	   465.0	   447.2	 -4661.0	   335.4
    104.1142	   408.0	   447.2	 -4718.0	   335.4
    104.1476	   465.0	   447.2	 -4661.0	   335.4
    104.1811	   444.0	   447.2	 -4682.0	   335.4
    104.2145	   475.0	   447.2	 -4651.0	   335.4
    104.2479	   459.0	   447.2	 -4667.0	   335.4
    104.2813	   449.0	   447.2	 -4677.0	   335.4
    104.3148	   477.0	   447.2	 -4649.0	   335.4
    104.3482	   445.0	   447.2	 -4681.0	   335.4
    104.3816	   462.0	   447.2	 -4664.0	   335.4
    104.4150	   425.0	   447.2	 -4701.0	   335.4
    104.4484	   443.0	   447.2	 -4683.0	   335.4
    104.4819	   455.0	   447.2	 -4671.0	   335.4
    104.5153	   548.0	   447.2	 -4578.0	   335.4
    104.5487	   418.0	   447.2	 -4708.0	   335.4
    104.5821	   436.0	   447.2	 -4690.0	   335.4
    104.6155	   413.0	   447.2	 -4713.0	   335.4
    104.6490	   437.0	   447.2	 -4689.0	   335.4
    104.6824	   481.0	   447.2	 -4645.0	   335.4
    104.7158	   452.0	   447.2	 -4674.0	   335.4
    104.7492	   420.0	   447.2	 -4706.0	   335.4
    104.7827	   439.0	   447.2	 -4687.0	   335.4
    104.8161	   460.0	   447.2	 -4666.0	   335.4
    104.8495	   435.0	   447.2	 -4691.0	   335.4
    104.8829	   446.0	   447.2	 -4680.0	   335.4
    104.9164	   446.0	   447.2	 -4680.0	   335.4
    104.9498	   464.0	   447.2	 -4662.0	   335.4
    104.9832	   518.0	   447.2	 -4608.0	   335.4
    105.0166	   414.0	   447.2	 -4712.0	   335.4
    105.0500	   451.0	   447.2	 -4675.0	   335.4
    105.0835	   476.0	   447.2	 -4650.0	   335.4
    105.1169	   445.0	   447.2	 -4681.0	   335.4
    105.1503	   438.0	   447.2	 -4688.0	   335.4
    105.1837	   450.0	   447.2	 -4676.0	   335.4
    105.2172	   474.0	   447.2	 -4652.0	   335.4
    105.2506	   466.0	   447.2	 -4660.0	   335.4
    105.2840	   502.0	   447.2	 -4624.0	   335.4
    105.3174	   456.0	   447.2	 -4670.0	   335.4
    105.3508	   475.0	   447.2	 -4651.0	   335.4
    105.3843	   415.0	   447.2	 -4711.0	   335.4
    105.4177	   445.0	   447.2	 -4681.0	   335.4
    105.4511	   485.0	   447.2	 -4641.0	   335.4
    105.4845	   468.0	   447.2	 -4658.0	   335.4
    105.5180	   499.0	   447.2	 -4627.0	   335.4
    105.5514	   430.0	   447.2	 -4696.0	   335.4
    105.5848	   424.0	   447.2	 -4702.0	   335.4
    105.6182	   462.0	   447.2	 -4664.0	   335.4
    105.6516	   443.0	   447.2	 -4683.0	   335.4
    105.6851	   419.0	   447.2	 -4707.0	   335.4
    105.7185	   443.0	   447.2	 -4683.0	   335.4
    105.7519	   450.0	   447.2	 -4676.0	   335.4
    105.7853	   460.0	   447.2	 -4666.0	   335.4
    105.8188	   459.0	   447.2	 -4667.0	   335.4
    105.8522	   451.0	   447.2	 -4675.0	   335.4
    105.8856	   420.0	   447.2	 -4706.0	   335.4
    105.9190	   455.0	   447.2	 -4671.0	   335.4
    105.9525	   438.0	   447.2	 -4688.0	   335.4
    105.9859	   474.0	   447.2	 -4652.0	   335.4
    106.0193	   469.0	   447.2	 -4657.0	   335.4
    106.0527	   476.0	   447.2	 -4650.0	   335.4
    106.0861	   435.0	   447.2	 -4691.0	   335.4
    106.1196	   436.0	   447.2	 -4690.0	   335.4
    106.1530	   448.0	   447.2	 -4678.0	   335.4
    106.1864	   481.0	   447.2	 -4645.0	   335.4
    106.2198	   447.0	   447.2	 -4679.0	   335.4
    106.2533	   465.0	   447.2	 -4661.0	   335.4
    106.2867	   431.0	   447.2	 -4695.0	   335.4
    106.3201	   474.0	   447.2	 -4652.0	   335.4
    106.3535	   447.0	   447.2	 -4679.0	   335.4
    106.3869	   441.0	   447.2	 -4685.0	   335.4
    106.4204	   485.0	   447.2	 -4641.0	   335.4
    106.4538	   485.0	   447.2	 -4641.0	   335.4
    106.4872	   430.0	   447.2	 -4696.0	   335.4
    106.5206	   434.0	   447.2	 -4692.0	   335.4
    106.5541	   420.0	   447.2	 -4706.0	   335.4
    106.5875	   441.0	   447.2	 -4685.0	   335.4
    106.6209	   455.0	   447.2	 -4671.0	   335.4
    106.6543	   489.0	   447.2	 -4637.0	   335.4
    106.6878	   462.0	   447.2	 -4664.0	   335.4
    106.7212	   460.0	   447.2	 -4666.0	   335.4
    106.7546	   470.0	   447.2	 -4656.0	   335.4
    106.7880	   477.0	   447.2	 -4649.0	   335.4
    106.8214	   445.0	   447.2	 -4681.0	   335.4
    106.8549	   493.0	   447.2	 -4633.0	   335.4
    106.8883	   460.0	   447.2	 -4666.0	   335.4
    106.9217	   444.0	   447.2	 -4682.0	   335.4
    106.9551	   481.0	   447.2	 -4645.0	   335.4
    106.9885	   454.0	   447.2	 -4672.0	   335.4
    107.0220	   445.0	   447.2	 -4681.0	   335.4
    107.0554	   440.0	   447.2	 -4686.0	   335.4
    107.0888	   468.0	   447.2	 -4658.0	   335.4
    107.1222	   448.0	   447.2	 -4678.0	   335.4
    107.1557	   411.0	   447.2	 -4715.0	   335.4
    107.1891	   458.0	   447.2	 -4668.0	   335.4
    107.2225	   452.0	   447.2	 -4674.0	   335.4
    107.2559	   416.0	   447.2	 -4710.0	   335.4
    107.2894	   447.0	   447.2	 -4679.0	   335.4
    107.3228	   457.0	   447.2	 -4669.0	   335.4
    107.3562	   461.0	   447.2	 -4665.0	   335.4
    107.3896	   481.0	   447.2	 -4645.0	   335.4
    107.4230	   424.0	   447.2	 -4702.0	   335.4
    107.4565	   465.0	   447.2	 -4661.0	   335.4
    107.4899	   418.0	   447.2	 -4708.0	   335.4
    107.5233	   451.0	   447.2	 -4675.0	   335.4
    107.5567	   415.0	   447.2	 -4711.0	   335.4
    107.5902	   449.0	   447.2	 -4677.0	   335.4
    107.6236	   471.0	   447.2	 -4655.0	   335.4
    107.6570	   499.0	   447.2	 -4627.0	   335.4
    107.6904	   435.0	   447.2	 -4691.0	   335.4
    107.7238	   426.0	   447.2	 -4700.0	   335.4
    107.7573	   467.0	   447.2	 -4659.0	   335.4
    107.7907	   469.0	   447.2	 -4657.0	   335.4
    107.8241	   455.0	   447.2	 -4671.0	   335.4
    107.8575	   479.0	   447.2	 -4647.0	   335.4
    107.8910	   430.0	   447.2	 -4696.0	   335.4
    107.9244	   433.0	   447.2	 -4693.0	   335.4
    107.9578	   409.0	   447.2	 -4717.0	   335.4
    107.9912	   459.0	   447.2	 -4667.0	   335.4
    108.0247	   449.0	   447.2	 -4677.0	   335.4
    108.0581	   428.0	   447.2	 -4698.0	   335.4
    108.0915	   465.0	   447.2	 -4661.0	   335.4
    108.1249	   436.0	   447.2	 -4690.0	   335.4
    108.1583	   429.0	   447.2	 -4697.0	   335.4
    108.1918	   466.0	   447.2	 -4660.0	   335.4
    108.2252	   452.0	   447.2	 -4674.0	   335.4
    108.2586	   451.0	   447.2	 -4675.0	   335.4
    108.2920	   510.0	   447.2	 -4616.0	   335.4
    108.3255	   454.0	   447.2	 -4672.0	   335.4
    108.3589	   459.0	   447.2	 -4667.0	   335.4
    108.3923	   436.0	   447.2	 -4690.0	   335.4
    108.4257	   446.0	   447.2	 -4680.0	   335.4
    108.4591	   427.0	   447.2	 -4699.0	   335.4
    108.4926	   499.0	   447.2	 -4627.0	   335.4
    108.5260	   482.0	   447.2	 -4644.0	   335.4
    108.5594	   451.0	   447.2	 -4675.0	   335.4
    108.5928	   441.0	   447.2	 -4685.0	   335.4
    108.6263	   457.0	   447.2	 -4669.0	   335.4
    108.6597	   418.0	   447.2	 -4708.0	   335.4
    108.6931	   413.0	   447.2	 -4713.0	   335.4
    108.7265	   414.0	   447.2	 -4712.0	   335.4
    108.7599	   470.0	   447.2	 -4656.0	   335.4
    108.7934	   418.0	   447.2	 -4708.0	   335.4
    108.8268	   477.0	   447.2	 -4649.0	   335.4
    108.8602	   467.0	   447.2	 -4659.0	   335.4
    108.8936	   435.0	   447.2	 -4691.0	   335.4
    108.9271	   487.0	   447.2	 -4639.0	   335.4
    108.9605	   455.0	   447.2	 -4671.0	   335.4
    108.9939	   418.0	   447.2	 -4708.0	   335.4
    109.0273	   457.0	   447.2	 -4669.0	   335.4
    109.0607	   405.0	   447.2	 -4721.0	   335.4
    109.0942	   465.0	   447.2	 -4661.0	   335.4
    109.1276	   444.0	   447.2	 -4682.0	   335.4
    109.1610	   460.0	   447.2	 -4666.0	   335.4
    109.1944	   402.0	   447.2	 -4724.0	   335.4
    109.2279	   417.0	   447.2	 -4709.0	   335.4
    109.2613	   468.0	   447.2	 -4658.0	   335.4
    109.2947	   431.0	   447.2	 -4695.0	   335.4
    109.3281	   462.0	   447.2	 -4664.0	   335.4
    109.3615	   433.0	   447.2	 -4693.0	   335.4
    109.3950	   450.0	   447.2	 -4676.0	   335.4
    109.4284	   428.0	   447.2	 -4698.0	   335.4
    109.4618	   464.0	   447.2	 -4662.0	   335.4
    109.4952	   498.0	   447.2	 -4628.0	   335.4
    109.5287	   452.0	   447.2	 -4674.0	   335.4
    109.5621	   456.0	   447.2	 -4670.0	   335.4
    109.5955	   451.0	   447.2	 -4675.0	   335.4
    109.6289	   446.0	   447.2	 -4680.0	   335.4
    109.6624	   445.0	   447.2	 -4681.0	   335.4
    109.6958	   502.0	   447.2	 -4624.0	   335.4
    109.7292	   400.0	   447.2	 -4726.0	   335.4
    109.7626	   446.0	   447.2	 -4680.0	   335.4
    109.7960	   429.0	   447.2	 -4697.0	   335.4
    109.8295	   478.0	   447.2	 -4648.0	   335.4
    109.8629	   440.0	   447.2	 -4686.0	   335.4
    109.8963	   436.0	   447.2	 -4690.0	   335.4
    109.9297	   470.0	   447.2	 -4656.0	   335.4
    109.9632	   479.0	   447.2	 -4647.0	   335.4
    109.9966	   471.0	   447.2	 -4655.0	   335.4
    110.0300	   466.0	   447.2	 -4660.0	   335.4
    110.0634	   456.0	   447.2	 -4670.0	   335.4
    110.0968	   430.0	   447.2	 -4696.0	   335.4
    110.1303	   452.0	   447.2	 -4674.0	   335.4
    110.1637	   457.0	   447.2	 -4669.0	   335.4
    110.1971	   490.0	   447.2	 -4636.0	   335.4
    110.2305	   455.0	   447.2	 -4671.0	   335.4
    110.2640	   461.0	   447.2	 -4665.0	   335.4
    110.2974	   451.0	   447.2	 -4675.0	   335.4
    110.3308	   450.0	   447.2	 -4676.0	   335.4
    110.3642	   421.0	   447.2	 -4705.0	   335.4
    110.3977	   464.0	   447.2	 -4662.0	   335.4
    110.4311	   458.0	   447.2	 -4668.0	   335.4
    110.4645	   423.0	   447.2	 -4703.0	   335.4
    110.4979	   454.0	   447.2	 -4672.0	   335.4
    110.5313	   458.0	   447.2	 -4668.0	   335.4
    110.5648	   419.0	   447.2	 -4707.0	   335.4
    110.5982	   427.0	   447.2	 -4699.0	   335.4
    110.6316	   460.0	   447.2	 -4666.0	   335.4
    110.6650	   456.0	   447.2	 -4670.0	   335.4
    110.6985	   424.0	   447.2	 -4702.0	   335.4
    110.7319	   478.0	   447.2	 -4648.0	   335.4
    110.7653	   446.0	   447.2	 -4680.0	   335.4
    110.7987	   459.0	   447.2	 -4667.0	   335.4
    110.8321	   424.0	   447.2	 -4702.0	   335.4
    110.8656	   446.0	   447.2	 -4680.0	   335.4
    110.8990	   491.0	   447.2	 -4635.0	   335.4
    110.9324	   483.0	   447.2	 -4643.0	   335.4
    110.9658	   467.0	   447.2	 -4659.0	   335.4
    110.9993	   460.0	   447.2	 -4666.0	   335.4
    111.0327	   445.0	   447.2	 -4681.0	   335.4
    111.0661	   476.0	   447.2	 -4650.0	   335.4
    111.0995	   459.0	   447.2	 -4667.0	   335.4
    111.1329	   449.0	   447.2	 -4677.0	   335.4
    111.1664	   444.0	   447.2	 -4682.0	   335.4
    111.1998	   462.0	   447.2	 -4664.0	   335.4
    111.2332	   479.0	   447.2	 -4647.0	   335.4
    111.2666	   461.0	   447.2	 -4665.0	   335.4
    111.3001	   483.0	   447.2	 -4643.0	   335.4
    111.3335	   431.0	   447.2	 -4695.0	   335.4
    111.3669	   440.0	   447.2	 -4686.0	   335.4
    111.4003	   477.0	   447.2	 -4649.0	   335.4
    111.4337	   457.0	   447.2	 -4669.0	   335.4
    111.4672	   449.0	   447.2	 -4677.0	   335.4
    111.5006	   459.0	   447.2	 -4667.0	   335.4
    111.5340	   455.0	   447.2	 -4671.0	   335.4
    111.5674	   455.0	   447.2	 -4671.0	   335.4
    111.6009	   457.0	   447.2	 -4669.0	   335.4
    111.6343	   427.0	   447.2	 -4699.0	   335.4
    111.6677	   476.0	   447.2	 -4650.0	   335.4
    111.7011	   450.0	   447.2	 -4676.0	   335.4
    111.7346	   459.0	   447.2	 -4667.0	   335.4
    111.7680	   464.0	   447.2	 -4662.0	   335.4
    111.8014	   469.0	   447.2	 -4657.0	   335.4
    111.8348	   497.0	   447.2	 -4629.0	   335.4
    111.8682	   437.0	   447.2	 -4689.0	   335.4
    111.9017	   487.0	   447.2	 -4639.0	   335.4
    111.9351	   461.0	   447.2	 -4665.0	   335.4
    111.9685	   492.0	   447.2	 -4634.0	   335.4
    112.0019	   452.0	   447.2	 -4674.0	   335.4
    112.0354	   448.0	   447.2	 -4678.0	   335.4
    112.0688	   413.0	   447.2	 -4713.0	   335.4
    112.1022	   437.0	   447.2	 -4689.0	   335.4
    112.1356	   413.0	   447.2	 -4713.0	   335.4
    112.1690	   431.0	   447.2	 -4695.0	   335.4
    112.2025	   456.0	   447.2	 -4670.0	   335.4
    112.2359	   486.0	   447.2	 -4640.0	   335.4
    112.2693	   467.0	   447.2	 -4659.0	   335.4
    112.3027	   474.0	   447.2	 -4652.0	   335.4
    112.3362	   507.0	   447.2	 -4619.0	   335.4
    112.3696	   483.0	   447.2	 -4643.0	   335.4
    112.4030	   483.0	   447.2	 -4643.0	   335.4
    112.4364	   439.0	   447.2	 -4687.0	   335.4
    112.4698	   448.0	   447.2	 -4678.0	   335.4
    112.5033	   477.0	   447.2	 -4649.0	   335.4
    112.5367	   456.0	   447.2	 -4670.0	   335.4
    112.5701	   450.0	   447.2	 -4676.0	   335.4
    112.6035	   490.0	   447.2	 -4636.0	   335.4
    112.6370	   444.0	   447.2	 -4682.0	   335.4
    112.6704	   449.0	   447.2	 -4677.0	   335.4
    112.7038	   428.0	   447.2	 -4698.0	   335.4
    112.7372	   464.0	   447.2	 -4662.0	   335.4
    112.7707	   438.0	   447.2	 -4688.0	   335.4
    112.8041	   413.0	   447.2	 -4713.0	   335.4
    112.8375	   419.0	   447.2	 -4707.0	   335.4
    112.8709	   427.0	   447.2	 -4699.0	   335.4
    112.9043	   466.0	   447.2	 -4660.0	   335.4
    112.9378	   455.0	   447.2	 -4671.0	   335.4
    112.9712	   435.0	   447.2	 -4691.0	   335.4
    113.0046	   492.0	   447.2	 -4634.0	   335.4
    113.0380	   469.0	   447.2	 -4657.0	   335.4
    113.0714	   452.0	   447.2	 -4674.0	   335.4
    113.1049	   468.0	   447.2	 -4658.0	   335.4
    113.1383	   452.0	   447.2	 -4674.0	   335.4
    113.1717	   440.0	   447.2	 -4686.0	   335.4
    113.2051	   462.0	   447.2	 -4664.0	   335.4
    113.2386	   438.0	   447.2	 -4688.0	   335.4
    113.2720	   454.0	   447.2	 -4672.0	   335.4
    113.3054	   426.0	   447.2	 -4700.0	   335.4
    113.3388	   477.0	   447.2	 -4649.0	   335.4
    113.3723	   446.0	   447.2	 -4680.0	   335.4
    113.4057	   454.0	   447.2	 -4672.0	   335.4
    113.4391	   418.0	   447.2	 -4708.0	   335.4
    113.4725	   486.0	   447.2	 -4640.0	   335.4
    113.5059	   471.0	   447.2	 -4655.0	   335.4
    113.5394	   464.0	   447.2	 -4662.0	   335.4
    113.5728	   465.0	   447.2	 -4661.0	   335.4
    113.6062	   466.0	   447.2	 -4660.0	   335.4
    113.6396	   451.0	   447.2	 -4675.0	   335.4
    113.6731	   469.0	   447.2	 -4657.0	   335.4
    113.7065	   423.0	   447.2	 -4703.0	   335.4
    113.7399	   425.0	   447.2	 -4701.0	   335.4
    113.7733	   433.0	   447.2	 -4693.0	   335.4
    113.8067	   464.0	   447.2	 -4662.0	   335.4
    113.8402	   429.0	   447.2	 -4697.0	   335.4
    113.8736	   462.0	   447.2	 -4664.0	   335.4
    113.9070	   455.0	   447.2	 -4671.0	   335.4
    113.9404	   488.0	   447.2	 -4638.0	   335.4
    113.9739	   458.0	   447.2	 -4668.0	   335.4
    114.0073	   430.0	   447.2	 -4696.0	   335.4
    114.0407	   440.0	   447.2	 -4686.0	   335.4
    114.0741	   424.0	   447.2	 -4702.0	   335.4
    114.1076	   448.0	   447.2	 -4678.0	   335.4
    114.1410	   455.0	   447.2	 -4671.0	   335.4
    114.1744	   448.0	   447.2	 -4678.0	   335.4
    114.2078	   502.0	   447.2	 -4624.0	   335.4
    114.2412	   433.0	   447.2	 -4693.0	   335.4
    114.2747	   479.0	   447.2	 -4647.0	   335.4
    114.3081	   446.0	   447.2	 -4680.0	   335.4
    114.3415	   479.0	   447.2	 -4647.0	   335.4
    114.3749	   449.0	   447.2	 -4677.0	   335.4
    114.4084	   452.0	   447.2	 -4674.0	   335.4
    114.4418	   448.0	   447.2	 -4678.0	   335.4
    114.4752	   458.0	   447.2	 -4668.0	   335.4
    114.5086	   451.0	   447.2	 -4675.0	   335.4
    114.5420	   466.0	   447.2	 -4660.0	   335.4
    114.5755	   436.0	   447.2	 -4690.0	   335.4
    114.6089	   477.0	   447.2	 -4649.0	   335.4
    114.6423	   436.0	   447.2	 -4690.0	   335.4
    114.6757	   413.0	   447.2	 -4713.0	   335.4
    114.7092	   425.0	   447.2	 -4701.0	   335.4
    114.7426	   485.0	   447.2	 -4641.0	   335.4
    114.7760	   490.0	   447.2	 -4636.0	   335.4
    114.8094	   419.0	   447.2	 -4707.0	   335.4
    114.8428	   462.0	   447.2	 -4664.0	   335.4
    114.8763	   505.0	   447.2	 -4621.0	   335.4
    114.9097	   415.0	   447.2	 -4711.0	   335.4
    114.9431	   489.0	   447.2	 -4637.0	   335.4
    114.9765	   471.0	   447.2	 -4655.0	   335.4
    115.0100	   501.0	   447.2	 -4625.0	   335.4
    115.0434	   490.0	   447.2	 -4636.0	   335.4
    115.0768	   471.0	   447.2	 -4655.0	   335.4
    115.1102	   433.0	   447.2	 -4693.0	   335.4
    115.1437	   457.0	   447.2	 -4669.0	   335.4
    115.1771	   459.0	   447.2	 -4667.0	   335.4
    115.2105	   449.0	   447.2	 -4677.0	   335.4
    115.2439	   409.0	   447.2	 -4717.0	   335.4
    115.2773	   430.0	   447.2	 -4696.0	   335.4
    115.3108	   491.0	   447.2	 -4635.0	   335.4
    115.3442	   450.0	   447.2	 -4676.0	   335.4
    115.3776	   428.0	   447.2	 -4698.0	   335.4
    115.4110	   465.0	   447.2	 -4661.0	   335.4
    115.4445	   451.0	   447.2	 -4675.0	   335.4
    115.4779	   433.0	   447.2	 -4693.0	   335.4
    115.5113	   440.0	   447.2	 -4686.0	   335.4
    115.5447	   447.0	   447.2	 -4679.0	   335.4
    115.5781	   458.0	   447.2	 -4668.0	   335.4
    115.6116	   469.0	   447.2	 -4657.0	   335.4
    115.6450	   469.0	   447.2	 -4657.0	   335.4
    115.6784	   499.0	   447.2	 -4627.0	   335.4
    115.7118	   446.0	   447.2	 -4680.0	   335.4
    115.7453	   454.0	   447.2	 -4672.0	   335.4
    115.7787	   490.0	   447.2	 -4636.0	   335.4
    115.8121	   470.0	   447.2	 -4656.0	   335.4
    115.8455	   471.0	   447.2	 -4655.0	   335.4
    115.8789	   462.0	   447.2	 -4664.0	   335.4
    115.9124	   452.0	   447.2	 -4674.0	   335.4
    115.9458	   456.0	   447.2	 -4670.0	   335.4
    115.9792	   428.0	   447.2	 -4698.0	   335.4
    116.0126	   477.0	   447.2	 -4649.0	   335.4
    116.0461	   472.0	   447.2	 -4654.0	   335.4
    116.0795	   450.0	   447.2	 -4676.0	   335.4
    116.1129	   457.0	   447.2	 -4669.0	   335.4
    116.1463	   460.0	   447.2	 -4666.0	   335.4
    116.1797	   496.0	   447.2	 -4630.0	   335.4
    116.2132	   447.0	   447.2	 -4679.0	   335.4
    116.2466	   431.0	   447.2	 -4695.0	   335.4
    116.2800	   434.0	   447.2	 -4692.0	   335.4
    116.3134	   513.0	   447.2	 -4613.0	   335.4
    116.3469	   482.0	   447.2	 -4644.0	   335.4
    116.3803	   451.0	   447.2	 -4675.0	   335.4
    116.4137	   438.0	   447.2	 -4688.0	   335.4
    116.4471	   451.0	   447.2	 -4675.0	   335.4
    116.4806	   441.0	   447.2	 -4685.0	   335.4
    116.5140	   446.0	   447.2	 -4680.0	   335.4
    116.5474	   495.0	   447.2	 -4631.0	   335.4
    116.5808	   464.0	   447.2	 -4662.0	   335.4
    116.6142	   485.0	   447.2	 -4641.0	   335.4
    116.6477	   472.0	   447.2	 -4654.0	   335.4
    116.6811	   470.0	   447.2	 -4656.0	   335.4
    116.7145	   456.0	   447.2	 -4670.0	   335.4
    116.7479	   455.0	   447.2	 -4671.0	   335.4
    116.7814	   470.0	   447.2	 -4656.0	   335.4
    116.8148	   457.0	   447.2	 -4669.0	   335.4
    116.8482	   462.0	   447.2	 -4664.0	   335.4
    116.8816	   475.0	   447.2	 -4651.0	   335.4
    116.9150	   468.0	   447.2	 -4658.0	   335.4
    116.9485	   426.0	   447.2	 -4700.0	   335.4
    116.9819	   460.0	   447.2	 -4666.0	   335.4
    117.0153	   449.0	   447.2	 -4677.0	   335.4
    117.0487	   470.0	   447.2	 -4656.0	   335.4
    117.0822	   479.0	   447.2	 -4647.0	   335.4
    117.1156	   445.0	   447.2	 -4681.0	   335.4
    117.1490	   455.0	   447.2	 -4671.0	   335.4
    117.1824	   477.0	   447.2	 -4649.0	   335.4
    117.2159	   456.0	   447.2	 -4670.0	   335.4
    117.2493	   462.0	   447.2	 -4664.0	   335.4
    117.2827	   469.0	   447.2	 -4657.0	   335.4
    117.3161	   424.0	   447.2	 -4702.0	   335.4
    117.3495	   488.0	   447.2	 -4638.0	   335.4
    117.3830	   475.0	   447.2	 -4651.0	   335.4
    117.4164	   477.0	   447.2	 -4649.0	   335.4
    117.4498	   425.0	   447.2	 -4701.0	   335.4
    117.4832	   433.0	   447.2	 -4693.0	   335.4
    117.5166	   488.0	   447.2	 -4638.0	   335.4
    117.5501	   474.0	   447.2	 -4652.0	   335.4
    117.5835	   460.0	   447.2	 -4666.0	   335.4
    117.6169	   467.0	   447.2	 -4659.0	   335.4
    117.6503	   471.0	   447.2	 -4655.0	   335.4
    117.6838	   455.0	   447.2	 -4671.0	   335.4
    117.7172	   488.0	   447.2	 -4638.0	   335.4
    117.7506	   478.0	   447.2	 -4648.0	   335.4
    117.7840	   447.0	   447.2	 -4679.0	   335.4
    117.8175	   477.0	   447.2	 -4649.0	   335.4
    117.8509	   472.0	   447.2	 -4654.0	   335.4
    117.8843	   419.0	   447.2	 -4707.0	   335.4
    117.9177	   458.0	   447.2	 -4668.0	   335.4
    117.9511	   421.0	   447.2	 -4705.0	   335.4
    117.9846	   414.0	   447.2	 -4712.0	   335.4
    118.0180	   446.0	   447.2	 -4680.0	   335.4
    118.0514	   477.0	   447.2	 -4649.0	   335.4
    118.0848	   491.0	   447.2	 -4635.0	   335.4
    118.1183	   490.0	   447.2	 -4636.0	   335.4
    118.1517	   421.0	   447.2	 -4705.0	   335.4
    118.1851	   448.0	   447.2	 -4678.0	   335.4
    118.2185	   435.0	   447.2	 -4691.0	   335.4
    118.2519	   466.0	   447.2	 -4660.0	   335.4
    118.2854	   433.0	   447.2	 -4693.0	   335.4
    118.3188	   456.0	   447.2	 -4670.0	   335.4
    118.3522	   489.0	   447.2	 -4637.0	   335.4
    118.3856	   438.0	   447.2	 -4688.0	   335.4
    118.4191	   449.0	   447.2	 -4677.0	   335.4
    118.4525	   467.0	   447.2	 -4659.0	   335.4
    118.4859	   449.0	   447.2	 -4677.0	   335.4
    118.5193	   482.0	   447.2	 -4644.0	   335.4
    118.5527	   452.0	   447.2	 -4674.0	   335.4
    118.5862	   458.0	   447.2	 -4668.0	   335.4
    118.6196	   428.0	   447.2	 -4698.0	   335.4
    118.6530	   447.0	   447.2	 -4679.0	   335.4
    118.6864	   492.0	   447.2	 -4634.0	   335.4
    118.7199	   491.0	   447.2	 -4635.0	   335.4
    118.7533	   419.0	   447.2	 -4707.0	   335.4
    118.7867	   474.0	   447.2	 -4652.0	   335.4
    118.8201	   478.0	   447.2	 -4648.0	   335.4
    118.8536	   485.0	   447.2	 -4641.0	   335.4
    118.8870	   447.0	   447.2	 -4679.0	   335.4
    118.9204	   452.0	   447.2	 -4674.0	   335.4
    118.9538	   457.0	   447.2	 -4669.0	   335.4
    118.9872	   536.0	   447.2	 -4590.0	   335.4
    119.0207	   474.0	   447.2	 -4652.0	   335.4
    119.0541	   475.0	   447.2	 -4651.0	   335.4
    119.0875	   486.0	   447.2	 -4640.0	   335.4
    119.1209	   470.0	   447.2	 -4656.0	   335.4
    119.1544	   431.0	   447.2	 -4695.0	   335.4
    119.1878	   459.0	   447.2	 -4667.0	   335.4
    119.2212	   451.0	   447.2	 -4675.0	   335.4
    119.2546	   462.0	   447.2	 -4664.0	   335.4
    119.2880	   466.0	   447.2	 -4660.0	   335.4
    119.3215	   430.0	   447.2	 -4696.0	   335.4
    119.3549	   460.0	   447.2	 -4666.0	   335.4
    119.3883	   500.0	   447.2	 -4626.0	   335.4
    119.4217	   444.0	   447.2	 -4682.0	   335.4
    119.4552	   427.0	   447.2	 -4699.0	   335.4
    119.4886	   476.0	   447.2	 -4650.0	   335.4
    119.5220	   475.0	   447.2	 -4651.0	   335.4
    119.5554	   452.0	   447.2	 -4674.0	   335.4
    119.5888	   471.0	   447.2	 -4655.0	   335.4
    119.6223	   472.0	   447.2	 -4654.0	   335.4
    119.6557	   472.0	   447.2	 -4654.0	   335.4
    119.6891	   486.0	   449.2	 -4642.1	   335.4
    119.7225	   512.0	   449.3	 -4616.1	   335.4
    119.7560	   474.0	   449.4	 -4654.2	   335.4
    119.7894	   476.0	   449.4	 -4652.3	   335.4
    119.8228	   510.0	   449.5	 -4618.3	   335.4
    119.8562	   479.0	   449.6	 -4649.4	   335.4
    119.8896	   498.0	   449.7	 -4630.5	   335.4
    119.9231	   421.0	   449.7	 -4707.6	   335.4
    119.9565	   479.0	   449.8	 -4649.7	   335.4
    119.9899	   479.0	   449.9	 -4649.8	   335.4
    120.0233	   468.0	   450.0	 -4660.9	   335.4
    120.0568	   480.0	   450.1	 -4649.0	   335.4
    120.0902	   507.0	   450.2	 -4622.1	   335.4
    120.1236	   456.0	   450.4	 -4673.2	   335.4
    120.1570	   449.0	   450.5	 -4680.3	   335.4
    120.1905	   482.0	   451.6	 -4648.5	   335.4
    120.2239	   438.0	   451.8	 -4692.7	   335.4
    120.2573	   462.0	   452.0	 -4668.8	   335.4
    120.2907	   445.0	   452.2	 -4686.0	   335.4
    120.3241	   431.0	   452.4	 -4700.2	   335.4
    120.3576	   452.0	   452.6	 -4679.4	   335.4
    120.3910	   455.0	   452.8	 -4676.7	   335.4
    120.4244	   509.0	   453.1	 -4622.9	   335.4
    120.4578	   456.0	   453.3	 -4676.2	   335.4
    120.4913	   429.0	   453.6	 -4703.5	   335.4
    120.5247	   489.0	   453.9	 -4643.7	   335.4
    120.5581	   455.0	   454.2	 -4678.1	   335.4
    120.5915	   476.0	   454.6	 -4657.4	   335.4
    120.6249	   446.0	   454.9	 -4687.8	   335.4
    120.6584	   458.0	   455.3	 -4676.2	   335.4
    120.6918	   461.0	   455.7	 -4673.6	   335.4
    120.7252	   456.0	   456.2	 -4679.1	   335.4
    120.7586	   465.0	   456.7	 -4670.5	   335.4
    120.7921	   459.0	   457.2	 -4677.1	   335.4
    120.8255	   466.0	   457.8	 -4670.7	   335.4
    120.8589	   459.0	   458.5	 -4678.3	   335.4
    120.8923	   507.0	   459.2	 -4631.0	   335.4
    120.9258	   481.0	   459.9	 -4657.8	   335.4
    120.9592	   466.0	   460.8	 -4673.6	   335.4
    120.9926	   498.0	   461.7	 -4642.6	   335.4
    121.0260	   496.0	   462.7	 -4645.6	   335.4
    121.0594	   479.0	   463.9	 -4663.7	   335.4
    121.0929	   439.0	   465.2	 -4705.0	   335.4
    121.1263	   479.0	   466.6	 -4666.4	   335.4
    121.1597	   466.0	   468.2	 -4681.0	   335.4
    121.1931	   468.0	   470.0	 -4680.9	   335.4
    121.2266	   495.0	   472.1	 -4655.9	   335.4
    121.2600	   491.0	   474.4	 -4662.3	   335.4
    121.2934	   490.0	   477.1	 -4666.0	   335.4
    121.3268	   509.0	   480.2	 -4650.1	   335.4
    121.3602	   505.0	   483.9	 -4657.7	   335.4
    121.3937	   552.0	   488.2	 -4615.0	   335.4
    121.4271	   520.0	   493.2	 -4652.1	   335.4
    121.4605	   524.0	   499.2	 -4654.1	   335.4
    121.4939	   528.0	   506.5	 -4657.3	   335.4
    121.5274	   529.0	   515.1	 -4665.0	   335.4
    121.5608	   528.0	   525.6	 -4676.5	   335.4
    121.5942	   543.0	   538.2	 -4674.1	   335.4
    121.6276	   550.0	   553.3	 -4682.2	   335.4
    121.6610	   617.0	   571.3	 -4633.1	   335.4
    121.6945	   569.0	   592.2	 -4702.0	   335.4
    121.7279	   598.0	   615.8	 -4696.6	   335.4
    121.7613	   610.0	   640.9	 -4709.7	   335.4
    121.7947	   676.0	   665.2	 -4668.0	   335.4
    121.8282	   685.0	   685.2	 -4679.0	   335.4
    121.8616	   694.0	   696.8	 -4681.7	   335.4
    121.8950	   748.0	   697.7	 -4628.5	   335.4
    121.9284	   724.0	   688.0	 -4642.8	   335.4
    121.9618	   677.0	   671.0	 -4672.8	   335.4
    121.9953	   611.0	   650.7	 -4718.6	   335.4
    122.0287	   593.0	   630.8	 -4716.6	   335.4
    122.0621	   609.0	   613.3	 -4683.2	   335.4
    122.0955	   634.0	   599.6	 -4644.4	   335.4
    122.1290	   592.0	   589.8	 -4676.7	   335.4
    122.1624	   622.0	   584.1	 -4641.0	   335.4
    122.1958	   572.0	   582.2	 -4689.0	   335.4
    122.2292	   613.0	   583.6	 -4649.4	   335.4
    122.2626	   599.0	   587.4	 -4667.3	   335.4
    122.2961	   602.0	   592.5	 -4669.4	   335.4
    122.3295	   630.0	   596.9	 -4645.8	   335.4
    122.3629	   640.0	   598.5	 -4637.3	   335.4
    122.3963	   595.0	   595.5	 -4679.3	   335.4
    122.4298	   592.0	   587.5	 -4674.4	   335.4
    122.4632	   596.0	   575.8	 -4658.7	   335.4
    122.4966	   568.0	   562.1	 -4672.9	   335.4
    122.5300	   612.0	   548.1	 -4615.0	   335.4
    122.5635	   548.0	   535.0	 -4665.8	   335.4
    122.5969	   584.0	   523.3	 -4618.1	   335.4
    122.6303	   558.0	   513.2	 -4634.0	   335.4
    122.6637	   502.0	   504.6	 -4681.5	   335.4
    122.6971	   518.0	   497.4	 -4658.2	   335.4
    122.7306	   558.0	   491.3	 -4612.2	   335.4
    122.7640	   497.0	   486.3	 -4668.1	   335.4
    122.7974	   497.0	   482.0	 -4663.8	   335.4
    122.8308	   482.0	   478.4	 -4675.2	   335.4
    122.8643	   489.0	   475.3	 -4665.1	   335.4
    122.8977	   490.0	   472.7	 -4661.5	   335.4
    122.9311	   496.0	   470.4	 -4653.2	   335.4
    122.9645	   511.0	   468.4	 -4636.3	   335.4
    122.9979	   529.0	   466.7	 -4616.6	   335.4
    123.0314	   511.0	   465.2	 -4633.0	   335.4
    123.0648	   467.0	   463.9	 -4675.7	   335.4
    123.0982	   418.0	   462.7	 -4723.5	   335.4
    123.1316	   458.0	   461.6	 -4682.5	   335.4
    123.1651	   490.0	   460.7	 -4649.5	   335.4
    123.1985	   490.0	   459.8	 -4648.6	   335.4
    123.2319	   490.0	   459.0	 -4647.9	   335.4
    123.2653	   479.0	   458.3	 -4658.2	   335.4
    123.2988	   542.0	   457.7	 -4594.5	   335.4
    123.3322	   477.0	   457.1	 -4658.9	   335.4
    123.3656	   461.0	   456.5	 -4674.4	   335.4
    123.3990	   462.0	   456.0	 -4672.9	   335.4
    123.4324	   487.0	   455.6	 -4647.4	   335.4
    123.4659	   470.0	   455.2	 -4664.0	   335.4
    123.4993	   454.0	   454.8	 -4679.6	   335.4
    123.5327	   481.0	   454.4	 -4652.3	   335.4
    123.5661	   455.0	   454.1	 -4677.9	   335.4
    123.5995	   474.0	   453.8	 -4658.6	   335.4
    123.6330	   512.0	   453.5	 -4620.3	   335.4
    123.6664	   493.0	   453.2	 -4639.0	   335.4
    123.6998	   448.0	   452.9	 -4683.8	   335.4
    123.7332	   485.0	   452.7	 -4646.6	   335.4
    123.7667	   493.0	   452.5	 -4638.3	   335.4
    123.8001	   477.0	   452.3	 -4654.1	   335.4
    123.8335	   452.0	   452.1	 -4678.9	   335.4
    123.8669	   450.0	   451.9	 -4680.7	   335.4
    123.9004	   434.0	   451.7	 -4696.6	   335.4
    123.9338	   477.0	   451.5	 -4653.4	   335.4
    123.9672	   449.0	   451.4	 -4681.2	   335.4
    124.0006	   495.0	   451.2	 -4635.1	   335.4
    124.0340	   485.0	   451.1	 -4644.9	   335.4
    124.0675	   446.0	   451.0	 -4683.8	   335.4
    124.1009	   466.0	   450.8	 -4663.7	   335.4
    124.1343	   456.0	   450.7	 -4673.6	   335.4
    124.1677	   472.0	   450.6	 -4657.5	   335.4
    124.2012	   499.0	   448.7	 -4628.5	   335.4
    124.2346	   440.0	   448.6	 -4687.5	   335.4
    124.2680	   459.0	   448.6	 -4668.4	   335.4
    124.3014	   469.0	   448.5	 -4658.4	   335.4
    124.3348	   474.0	   448.5	 -4653.3	   335.4
    124.3683	   434.0	   448.5	 -4693.3	   335.4
    124.4017	   448.0	   448.4	 -4679.3	   335.4
    124.4351	   443.0	   448.4	 -4684.2	   335.4
    124.4685	   461.0	   448.3	 -4666.2	   335.4
    124.5020	   472.0	   448.3	 -4655.1	   335.4
    124.5354	   512.0	   448.3	 -4615.1	   335.4
    124.5688	   472.0	   448.2	 -4655.1	   335.4
    124.6022	   493.0	   448.2	 -4634.0	   335.4
    124.6357	   456.0	   448.2	 -4671.0	   335.4
    124.6691	   425.0	   448.1	 -4702.0	   335.4
    124.7025	   474.0	   448.1	 -4653.0	   335.4
    124.7359	   441.0	   447.2	 -4685.0	   335.4
    124.7693	   528.0	   447.2	 -4598.0	   335.4
    124.8028	   499.0	   447.2	 -4627.0	   335.4
    124.8362	   455.0	   447.2	 -4671.0	   335.4
    124.8696	   506.0	   447.2	 -4620.0	   335.4
    124.9030	   466.0	   447.2	 -4660.0	   335.4
    124.9365	   479.0	   447.2	 -4647.0	   335.4
    124.9699	   445.0	   447.2	 -4681.0	   335.4
    125.0033	   486.0	   447.2	 -4640.0	   335.4
    125.0367	   472.0	   447.2	 -4654.0	   335.4
    125.0701	   416.0	   447.2	 -4710.0	   335.4
    125.1036	   451.0	   447.2	 -4675.0	   335.4
    125.1370	   452.0	   447.2	 -4674.0	   335.4
    125.1704	   414.0	   447.2	 -4712.0	   335.4
    125.2038	   472.0	   447.2	 -4654.0	   335.4
    125.2373	   464.0	   447.2	 -4662.0	   335.4
    125.2707	   471.0	   447.2	 -4655.0	   335.4
    125.3041	   520.0	   447.2	 -4606.0	   335.4
    125.3375	   466.0	   447.2	 -4660.0	   335.4
    125.3709	   469.0	   447.2	 -4657.0	   335.4
    125.4044	   454.0	   447.2	 -4672.0	   335.4
    125.4378	   460.0	   447.2	 -4666.0	   335.4
    125.4712	   437.0	   447.2	 -4689.0	   335.4
    125.5046	   460.0	   447.2	 -4666.0	   335.4
    125.5381	   469.0	   447.2	 -4657.0	   335.4
    125.5715	   437.0	   447.2	 -4689.0	   335.4
    125.6049	   520.0	   447.2	 -4606.0	   335.4
    125.6383	   486.0	   447.2	 -4640.0	   335.4
    125.6718	   450.0	   447.2	 -4676.0	   335.4
    125.7052	   446.0	   447.2	 -4680.0	   335.4
    125.7386	   486.0	   447.2	 -4640.0	   335.4
    125.7720	   482.0	   447.2	 -4644.0	   335.4
    125.8054	   520.0	   447.2	 -4606.0	   335.4
    125.8389	   475.0	   447.2	 -4651.0	   335.4
    125.8723	   446.0	   447.2	 -4680.0	   335.4
    125.9057	   449.0	   447.2	 -4677.0	   335.4
    125.9391	   455.0	   447.2	 -4671.0	   335.4
    125.9725	   478.0	   447.2	 -4648.0	   335.4
    126.0060	   425.0	   447.2	 -4701.0	   335.4
    126.0394	   435.0	   447.2	 -4691.0	   335.4
    126.0728	   436.0	   447.2	 -4690.0	   335.4
    126.1062	   446.0	   447.2	 -4680.0	   335.4
    126.1397	   462.0	   447.2	 -4664.0	   335.4
    126.1731	   495.0	   447.2	 -4631.0	   335.4
    126.2065	   458.0	   447.2	 -4668.0	   335.4
    126.2399	   488.0	   447.2	 -4638.0	   335.4
    126.2734	   443.0	   447.2	 -4683.0	   335.4
    126.3068	   440.0	   447.2	 -4686.0	   335.4
    126.3402	   498.0	   447.2	 -4628.0	   335.4
    126.3736	   452.0	   447.2	 -4674.0	   335.4
    126.4070	   449.0	   447.2	 -4677.0	   335.4
    126.4405	   420.0	   447.2	 -4706.0	   335.4
    126.4739	   461.0	   447.2	 -4665.0	   335.4
    126.5073	   457.0	   447.2	 -4669.0	   335.4
    126.5407	   451.0	   447.2	 -4675.0	   335.4
    126.5742	   476.0	   447.2	 -4650.0	   335.4
    126.6076	   497.0	   447.2	 -4629.0	   335.4
    126.6410	   475.0	   447.2	 -4651.0	   335.4
    126.6744	   465.0	   447.2	 -4661.0	   335.4
    126.7078	   455.0	   447.2	 -4671.0	   335.4
    126.7413	   474.0	   447.2	 -4652.0	   335.4
    126.7747	   474.0	   447.2	 -4652.0	   335.4
    126.8081	   468.0	   447.2	 -4658.0	   335.4
    126.8415	   438.0	   447.2	 -4688.0	   335.4
    126.8750	   492.0	   447.2	 -4634.0	   335.4
    126.9084	   464.0	   447.2	 -4662.0	   335.4
    126.9418	   514.0	   447.2	 -4612.0	   335.4
    126.9752	   460.0	   447.2	 -4666.0	   335.4
    127.0087	   462.0	   447.2	 -4664.0	   335.4
    127.0421	   450.0	   447.2	 -4676.0	   335.4
    127.0755	   471.0	   447.2	 -4655.0	   335.4
    127.1089	   470.0	   447.2	 -4656.0	   335.4
    127.1423	   487.0	   447.2	 -4639.0	   335.4
    127.1758	   467.0	   447.2	 -4659.0	   335.4
    127.2092	   460.0	   447.2	 -4666.0	   335.4
    127.2426	   469.0	   447.2	 -4657.0	   335.4
    127.2760	   495.0	   447.2	 -4631.0	   335.4
    127.3095	   445.0	   447.2	 -4681.0	   335.4
    127.3429	   487.0	   447.2	 -4639.0	   335.4
    127.3763	   438.0	   447.2	 -4688.0	   335.4
    127.4097	   475.0	   447.2	 -4651.0	   335.4
    127.4431	   474.0	   447.2	 -4652.0	   335.4
    127.4766	   478.0	   447.2	 -4648.0	   335.4
    127.5100	   497.0	   447.2	 -4629.0	   335.4
    127.5434	   489.0	   447.2	 -4637.0	   335.4
    127.5768	   483.0	   447.2	 -4643.0	   335.4
    127.6103	   506.0	   447.2	 -4620.0	   335.4
    127.6437	   465.0	   447.2	 -4661.0	   335.4
    127.6771	   497.0	   447.2	 -4629.0	   335.4
    127.7105	   438.0	   447.2	 -4688.0	   335.4
    127.7439	   474.0	   447.2	 -4652.0	   335.4
    127.7774	   471.0	   447.2	 -4655.0	   335.4
    127.8108	   461.0	   447.2	 -4665.0	   335.4
    127.8442	   455.0	   447.2	 -4671.0	   335.4
    127.8776	   413.0	   447.2	 -4713.0	   335.4
    127.9111	   440.0	   447.2	 -4686.0	   335.4
    127.9445	   459.0	   447.2	 -4667.0	   335.4
    127.9779	   475.0	   447.2	 -4651.0	   335.4
    128.0113	   470.0	   447.2	 -4656.0	   335.4
    128.0448	   461.0	   447.2	 -4665.0	   335.4
    128.0782	   468.0	   447.2	 -4658.0	   335.4
    128.1116	   470.0	   447.2	 -4656.0	   335.4
    128.1450	   472.0	   447.2	 -4654.0	   335.4
    128.1784	   509.0	   447.2	 -4617.0	   335.4
    128.2119	   469.0	   447.2	 -4657.0	   335.4
    128.2453	   470.0	   447.2	 -4656.0	   335.4
    128.2787	   476.0	   447.2	 -4650.0	   335.4
    128.3121	   462.0	   447.2	 -4664.0	   335.4
    128.3456	   434.0	   447.2	 -4692.0	   335.4
    128.3790	   427.0	   447.2	 -4699.0	   335.4
    128.4124	   488.0	   447.2	 -4638.0	   335.4
    128.4458	   452.0	   447.2	 -4674.0	   335.4
    128.4792	   481.0	   447.2	 -4645.0	   335.4
    128.5127	   492.0	   447.2	 -4634.0	   335.4
    128.5461	   483.0	   447.2	 -4643.0	   335.4
    128.5795	   402.0	   447.2	 -4724.0	   335.4
    128.6129	   451.0	   447.2	 -4675.0	   335.4
    128.6464	   446.0	   447.2	 -4680.0	   335.4
    128.6798	   477.0	   447.2	 -4649.0	   335.4
    128.7132	   471.0	   447.2	 -4655.0	   335.4
    128.7466	   501.0	   447.2	 -4625.0	   335.4
    128.7800	   469.0	   447.2	 -4657.0	   335.4
    128.8135	   479.0	   447.2	 -4647.0	   335.4
    128.8469	   500.0	   447.2	 -4626.0	   335.4
    128.8803	   488.0	   447.2	 -4638.0	   335.4
    128.9137	   468.0	   447.2	 -4658.0	   335.4
    128.9472	   475.0	   447.2	 -4651.0	   335.4
    128.9806	   500.0	   447.2	 -4626.0	   335.4
    129.0140	   482.0	   447.2	 -4644.0	   335.4
    129.0474	   482.0	   447.2	 -4644.0	   335.4
    129.0809	   468.0	   447.2	 -4658.0	   335.4
    129.1143	   476.0	   447.2	 -4650.0	   335.4
    129.1477	   491.0	   447.2	 -4635.0	   335.4
    129.1811	   447.0	   447.2	 -4679.0	   335.4
    129.2145	   485.0	   447.2	 -4641.0	   335.4
    129.2480	   459.0	   447.2	 -4667.0	   335.4
    129.2814	   489.0	   447.2	 -4637.0	   335.4
    129.3148	   456.0	   447.2	 -4670.0	   335.4
    129.3482	   434.0	   447.2	 -4692.0	   335.4
    129.3817	   474.0	   447.2	 -4652.0	   335.4
    129.4151	   475.0	   447.2	 -4651.0	   335.4
    129.4485	   475.0	   447.2	 -4651.0	   335.4
    129.4819	   456.0	   447.2	 -4670.0	   335.4
    129.5154	   467.0	   447.2	 -4659.0	   335.4
    129.5488	   476.0	   447.2	 -4650.0	   335.4
    129.5822	   505.0	   447.2	 -4621.0	   335.4
    129.6156	   477.0	   447.2	 -4649.0	   335.4
    129.6490	   493.0	   447.2	 -4633.0	   335.4
    129.6825	   454.0	   447.2	 -4672.0	   335.4
    129.7159	   469.0	   447.2	 -4657.0	   335.4
    129.7493	   452.0	   447.2	 -4674.0	   335.4
    129.7827	   465.0	   447.2	 -4661.0	   335.4
    129.8161	   465.0	   447.2	 -4661.0	   335.4
    129.8496	   467.0	   447.2	 -4659.0	   335.4
    129.8830	   505.0	   447.2	 -4621.0	   335.4
    129.9164	   454.0	   447.2	 -4672.0	   335.4
    129.9498	   470.0	   447.2	 -4656.0	   335.4
    129.9833	   477.0	   447.2	 -4649.0	   335.4
     44.4590	        	        	        	        	       0	(  1  1  1)	  0  1
     44.5744	        	        	        	        	       0	(  1  1  1)	  0  2
     51.8106	        	        	        	        	       0	(  2  0  0)	  0  1
     51.9477	        	        	        	        	       0	(  2  0  0)	  0  2
     76.3362	        	        	        	        	       0	(  2  2  0)	  0  1
     76.5581	        	        	        	        	       0	(  2  2  0)	  0  2
     92.8866	        	        	        	        	       0	(  3  1  1)	  0  1
     93.1837	        	        	        	        	       0	(  3  1  1)	  0  2
     98.3892	        	        	        	        	       0	(  2  2  2)	  0  1
     98.7164	        	        	        	        	       0	(  2  2  2)	  0  2
    121.8751	        	        	        	        	       0	(  4  0  0)	  0  1
    122.3846	        	        	        	        	       0	(  4  0  0)	  0  2
