! Data file : C:\!Dane\XRD_Lukasz\2024\!NANO\Nano\Gr03\Fe3O4-F.xrdml
! Format:      13
! Number of background points:     57
! background:  positions   intensity: 
!--------------------------------------
         15.20500       2137.26685
         15.77777       1994.28955
         16.11188       1887.05640
         16.78011       1757.07678
         17.59152       1607.60034
         18.45067       1467.87231
         19.26209       1367.13831
         20.12123       1256.65552
         21.26676       1168.91931
         22.79414       1081.18323
         24.84655       1006.44501
         25.84888       1016.19336
         27.18534       1032.44092
         28.61725       1071.43457
         30.04916       1201.41431
         31.38561       1305.39783
         32.62661       1425.62903
         33.67667       1526.36304
         34.44036       1601.10132
         35.44270       1594.60242
         36.44504       1526.36304
         36.87461       1412.63086
         37.35192       1289.15039
         37.68603       1146.17310
         39.78617        902.46143
         40.64532        837.47156
         41.74311        782.23029
         44.55921        700.99292
         46.37297        636.00330
         48.99814        567.76404
         51.48012        574.26294
         54.00983        665.24866
         56.15770        720.48993
         58.83060        814.72510
         60.83529        899.21173
         61.83762        912.20978
         62.74450        902.46143
         63.55592        866.71692
         64.27187        801.72705
         65.41740        639.25281
         66.46747        525.52057
         68.09031        470.27936
         69.66541        418.28757
         71.81328        418.28757
         74.91576        385.79251
         76.87270        333.80072
         79.40242        327.30182
         82.40943        314.30374
         84.50957        314.30374
         86.13241        330.55127
         89.09169        359.79663
         91.43049        359.79663
         92.81467        369.54523
         94.62842        366.29578
         96.53764        359.79663
         98.49458        350.04825
         99.92650        346.79880
