! Data file : C:\!Dane\XRD_Lukasz\2022\LNMiT\Grupa 3\Cr2O3_25min_long.xrdml
! Format:      13
! Number of background points:     62
! background:  positions   intensity: 
!--------------------------------------
         19.84441        243.05356
         20.97595        223.41685
         21.91891        205.74377
         24.18199        205.74377
         26.06789        205.74377
         27.76521        223.41685
         28.70815        250.90822
         29.08533        284.29065
         29.08533        315.70941
         29.46252        347.12817
         29.46252        380.51059
         29.83969        415.85669
         29.65111        443.34808
         29.83969        484.58521
         29.83969        502.25827
         30.78265        472.80319
         30.97124        427.63873
         31.15983        388.36530
         30.97124        353.01920
         30.78265        327.49146
         30.78265        294.10907
         31.34842        270.54498
         32.10278        245.01724
         32.66855        219.48949
         33.42292        195.92543
         34.36586        166.47031
         35.49740        146.83360
         37.00613        123.26954
         39.64639        107.56020
         42.09807        103.63284
         44.73833         95.77818
         46.62423         95.77818
         49.45308         99.70547
         51.33899        107.56020
         53.41348        115.41487
         55.48798        109.52382
         57.18529        109.52382
         60.57991        107.56020
         62.65441         91.85081
         63.97454         83.99614
         65.67185         72.21410
         67.93494         66.32305
         70.19802         58.46839
         74.72419         66.32305
         78.11881         64.35937
         81.70203         64.35937
         84.90806         66.32305
         88.30268         62.39569
         92.64026         62.39569
         96.60066         62.39569
        101.50401         60.43207
        105.84158         58.46839
        109.99056         62.39569
        115.45969         68.28674
        121.68317         68.28674
        126.02074         74.17772
        130.73550         76.14140
        135.63884         78.10509
        140.73079         82.03246
        144.87978         83.99614
        148.27440         89.88712
        151.66902         93.81449
