 Cr2O3   Chi2:  1.9370  CELL:    4.95841   4.95841  13.59449   90.0000   90.0000  120.0000   SPGR: R -3 c                 TEMP:      0.00
  1   2394     1.54060     1.54439     0.00000    -0.04936     0.00000    0
    88     0     1
       0.00000      20.00000
 2Theta	Yobs	Ycal	Yobs-Ycal	Backg	Posr	(hkl)	K
     20.0031	  31.000	  31.871	-146.871	  30.521
     20.0365	  45.000	  31.848	-132.848	  30.499
     20.0700	  37.000	  31.826	-140.826	  30.477
     20.1034	  29.000	  31.804	-148.804	  30.455
     20.1368	  26.000	  31.782	-151.782	  30.433
     20.1702	  24.000	  31.760	-153.760	  30.410
     20.2036	  26.000	  31.737	-151.737	  30.388
     20.2371	  21.000	  31.715	-156.715	  30.366
     20.2705	  28.000	  31.693	-149.693	  30.343
     20.3039	  31.000	  31.670	-146.670	  30.321
     20.3373	  33.000	  31.648	-144.648	  30.298
     20.3708	  31.000	  31.625	-146.625	  30.276
     20.4042	  20.000	  31.603	-157.603	  30.253
     20.4376	  28.000	  31.580	-149.580	  30.231
     20.4710	  30.000	  31.557	-147.557	  30.208
     20.5044	  30.000	  31.535	-147.535	  30.185
     20.5379	  25.000	  31.512	-152.512	  30.163
     20.5713	  27.000	  31.489	-150.489	  30.140
     20.6047	  38.000	  31.466	-139.466	  30.117
     20.6381	  28.000	  31.443	-149.443	  30.094
     20.6716	  26.000	  31.421	-151.421	  30.071
     20.7050	  24.000	  31.398	-153.398	  30.048
     20.7384	  33.000	  31.375	-144.375	  30.025
     20.7718	  31.000	  31.352	-146.352	  30.002
     20.8053	  24.000	  31.329	-153.329	  29.979
     20.8387	  32.000	  31.306	-145.306	  29.956
     20.8721	  28.000	  31.282	-149.282	  29.933
     20.9055	  38.000	  31.259	-139.259	  29.910
     20.9389	  28.000	  31.236	-149.236	  29.887
     20.9724	  21.000	  31.213	-156.213	  29.864
     21.0058	  38.000	  31.190	-139.190	  29.840
     21.0392	  28.000	  31.166	-149.166	  29.817
     21.0726	  39.000	  31.143	-138.143	  29.794
     21.1061	  21.000	  31.120	-156.120	  29.770
     21.1395	  33.000	  31.096	-144.096	  29.747
     21.1729	  38.000	  31.073	-139.073	  29.723
     21.2063	  36.000	  31.049	-141.049	  29.700
     21.2397	  26.000	  31.026	-151.026	  29.676
     21.2732	  28.000	  31.002	-149.002	  29.653
     21.3066	  32.000	  30.979	-144.979	  29.629
     21.3400	  15.000	  30.955	-161.955	  29.606
     21.3734	  27.000	  30.931	-149.931	  29.582
     21.4069	  33.000	  30.908	-143.908	  29.558
     21.4403	  20.000	  30.884	-156.884	  29.535
     21.4737	  31.000	  30.860	-145.860	  29.511
     21.5071	  37.000	  30.836	-139.836	  29.487
     21.5405	  41.000	  30.812	-135.812	  29.463
     21.5740	  24.000	  30.789	-152.789	  29.439
     21.6074	  31.000	  30.918	-145.918	  29.415
     21.6408	  38.000	  30.898	-138.898	  29.392
     21.6742	  31.000	  30.955	-145.955	  29.368
     21.7077	  30.000	  30.936	-146.936	  29.344
     21.7411	  26.000	  30.918	-150.918	  29.320
     21.7745	  36.000	  30.901	-140.900	  29.295
     21.8079	  32.000	  30.883	-144.883	  29.271
     21.8414	  33.000	  30.865	-143.865	  29.247
     21.8748	  25.000	  30.848	-151.848	  29.223
     21.9082	  34.000	  30.831	-142.831	  29.199
     21.9416	  18.000	  30.815	-158.815	  29.175
     21.9750	  38.000	  30.798	-138.798	  29.150
     22.0085	  37.000	  30.782	-139.782	  29.126
     22.0419	  40.000	  30.766	-136.766	  29.102
     22.0753	  26.000	  30.751	-150.751	  29.077
     22.1087	  31.000	  30.736	-145.736	  29.053
     22.1422	  27.000	  30.721	-149.721	  29.029
     22.1756	  28.000	  30.706	-148.706	  29.004
     22.2090	  25.000	  30.692	-151.692	  28.980
     22.2424	  31.000	  30.679	-145.679	  28.955
     22.2758	  31.000	  30.666	-145.666	  28.931
     22.3093	  21.000	  30.653	-155.653	  28.906
     22.3427	  15.000	  30.641	-161.641	  28.882
     22.3761	  31.000	  30.630	-145.630	  28.857
     22.4095	  26.000	  30.619	-150.619	  28.832
     22.4430	  34.000	  30.609	-142.609	  28.808
     22.4764	  33.000	  30.599	-143.599	  28.783
     22.5098	  21.000	  30.591	-155.591	  28.758
     22.5432	  25.000	  30.583	-151.583	  28.733
     22.5766	  26.000	  30.576	-150.576	  28.709
     22.6101	  26.000	  30.570	-150.570	  28.684
     22.6435	  24.000	  30.564	-152.564	  28.659
     22.6769	  30.000	  30.561	-146.561	  28.634
     22.7103	  31.000	  30.558	-145.558	  28.609
     22.7438	  27.000	  30.556	-149.556	  28.584
     22.7772	  33.000	  30.556	-143.556	  28.559
     22.8106	  27.000	  30.557	-149.557	  28.534
     22.8440	  24.000	  30.560	-152.560	  28.509
     22.8774	  30.000	  30.565	-146.565	  28.484
     22.9109	  26.000	  30.571	-150.571	  28.459
     22.9443	  29.000	  30.580	-147.580	  28.434
     22.9777	  27.000	  30.591	-149.591	  28.409
     23.0111	  22.000	  30.604	-154.604	  28.384
     23.0446	  28.000	  30.620	-148.620	  28.359
     23.0780	  29.000	  30.639	-147.639	  28.334
     23.1114	  34.000	  30.661	-142.661	  28.308
     23.1448	  30.000	  30.687	-146.687	  28.283
     23.1783	  24.000	  30.717	-152.717	  28.258
     23.2117	  36.000	  30.751	-140.751	  28.233
     23.2451	  28.000	  30.790	-148.790	  28.207
     23.2785	  27.000	  30.834	-149.834	  28.182
     23.3119	  25.000	  30.885	-151.885	  28.157
     23.3454	  29.000	  30.942	-147.942	  28.131
     23.3788	  29.000	  31.007	-148.007	  28.106
     23.4122	  33.000	  31.081	-144.081	  28.080
     23.4456	  30.000	  31.164	-147.164	  28.055
     23.4791	  34.000	  31.258	-143.258	  28.029
     23.5125	  29.000	  31.365	-148.365	  28.004
     23.5459	  29.000	  31.487	-148.487	  27.978
     23.5793	  36.000	  31.625	-141.625	  27.953
     23.6127	  28.000	  31.782	-149.782	  27.927
     23.6462	  30.000	  31.962	-147.962	  27.902
     23.6796	  32.000	  32.168	-146.168	  27.876
     23.7130	  42.000	  32.406	-136.406	  27.851
     23.7464	  20.000	  32.679	-158.679	  27.825
     23.7799	  33.000	  32.997	-145.997	  27.799
     23.8133	  32.000	  33.367	-147.367	  27.774
     23.8467	  49.000	  33.802	-130.802	  27.748
     23.8801	  37.000	  34.315	-143.315	  27.722
     23.9135	  33.000	  34.926	-147.926	  27.696
     23.9470	  37.000	  35.659	-144.659	  27.671
     23.9804	  28.000	  36.549	-154.549	  27.645
     24.0138	  29.000	  37.640	-154.640	  27.619
     24.0472	  41.000	  38.996	-143.996	  27.593
     24.0807	  40.000	  40.706	-146.706	  27.567
     24.1141	  50.000	  42.901	-138.901	  27.541
     24.1475	  42.000	  45.781	-149.781	  27.515
     24.1809	  50.000	  49.683	-145.683	  27.490
     24.2144	  64.000	  55.277	-137.277	  27.464
     24.2478	  70.000	  64.132	-140.132	  27.438
     24.2812	  73.000	  79.922	-152.922	  27.412
     24.3146	 124.000	 109.860	-131.860	  27.386
     24.3480	 158.000	 164.273	-152.273	  27.360
     24.3815	 217.000	 251.082	-180.082	  27.334
     24.4149	 364.000	 362.275	-144.275	  27.308
     24.4483	 489.000	 451.629	-108.629	  27.282
     24.4817	 467.000	 460.555	-139.555	  27.255
     24.5152	 379.000	 396.647	-163.647	  27.229
     24.5486	 311.000	 295.872	-130.872	  27.203
     24.5820	 187.000	 200.285	-159.285	  27.177
     24.6154	 116.000	 133.006	-163.006	  27.151
     24.6488	  95.000	  92.885	-143.885	  27.125
     24.6823	  66.000	  70.905	-150.905	  27.099
     24.7157	  53.000	  58.878	-151.878	  27.072
     24.7491	  66.000	  51.746	-131.746	  27.046
     24.7825	  60.000	  47.030	-133.030	  27.020
     24.8160	  55.000	  43.644	-134.644	  26.994
     24.8494	  36.000	  41.093	-151.093	  26.967
     24.8828	  32.000	  39.116	-153.116	  26.941
     24.9162	  43.000	  37.552	-140.552	  26.915
     24.9496	  32.000	  36.291	-150.291	  26.889
     24.9831	  53.000	  35.260	-128.260	  26.862
     25.0165	  27.000	  34.405	-153.405	  26.836
     25.0499	  30.000	  33.688	-149.688	  26.809
     25.0833	  31.000	  33.079	-148.079	  26.783
     25.1168	  37.000	  32.557	-141.557	  26.757
     25.1502	  34.000	  32.106	-144.106	  26.730
     25.1836	  30.000	  31.713	-147.713	  26.704
     25.2170	  33.000	  31.367	-144.367	  26.677
     25.2505	  25.000	  31.062	-152.062	  26.651
     25.2839	  33.000	  30.790	-143.790	  26.625
     25.3173	  34.000	  30.546	-142.546	  26.598
     25.3507	  17.000	  30.326	-159.326	  26.572
     25.3841	  30.000	  30.128	-146.128	  26.545
     25.4176	  28.000	  29.946	-147.946	  26.519
     25.4510	  32.000	  29.781	-143.781	  26.492
     25.4844	  32.000	  29.629	-143.629	  26.465
     25.5178	  29.000	  29.488	-146.488	  26.439
     25.5513	  26.000	  29.359	-149.359	  26.412
     25.5847	  37.000	  29.238	-138.238	  26.386
     25.6181	  40.000	  29.125	-135.125	  26.359
     25.6515	  36.000	  29.019	-139.019	  26.333
     25.6849	  20.000	  28.920	-154.920	  26.306
     25.7184	  28.000	  28.827	-146.827	  26.279
     25.7518	  20.000	  28.738	-154.738	  26.253
     25.7852	  34.000	  28.655	-140.655	  26.226
     25.8186	  27.000	  28.575	-147.575	  26.199
     25.8521	  26.000	  28.500	-148.500	  26.173
     25.8855	  40.000	  28.427	-134.427	  26.146
     25.9189	  28.000	  28.358	-146.358	  26.119
     25.9523	  20.000	  28.292	-154.292	  26.093
     25.9857	  26.000	  28.228	-148.228	  26.066
     26.0192	  19.000	  28.166	-155.166	  26.039
     26.0526	  20.000	  28.107	-154.107	  26.012
     26.0860	  29.000	  28.050	-145.050	  25.986
     26.1194	  30.000	  27.994	-143.994	  25.959
     26.1529	  25.000	  27.941	-148.941	  25.932
     26.1863	  31.000	  27.888	-142.888	  25.905
     26.2197	  22.000	  27.838	-151.838	  25.879
     26.2531	  36.000	  27.788	-137.788	  25.852
     26.2865	  17.000	  27.740	-156.740	  25.825
     26.3200	  20.000	  27.693	-153.693	  25.798
     26.3534	  29.000	  27.647	-144.647	  25.771
     26.3868	  26.000	  27.602	-147.602	  25.744
     26.4202	  30.000	  27.558	-143.558	  25.718
     26.4537	  39.000	  27.514	-134.514	  25.691
     26.4871	  19.000	  27.472	-154.472	  25.664
     26.5205	  26.000	  27.430	-147.430	  25.637
     26.5539	  31.000	  27.389	-142.389	  25.610
     26.5874	  24.000	  27.349	-149.349	  25.583
     26.6208	  26.000	  27.309	-147.309	  25.556
     26.6542	  18.000	  27.270	-155.270	  25.529
     26.6876	  24.000	  27.231	-149.231	  25.502
     26.7210	  28.000	  27.193	-145.193	  25.476
     26.7545	  27.000	  27.156	-146.156	  25.449
     26.7879	  17.000	  27.118	-156.118	  25.422
     26.8213	  17.000	  27.082	-156.082	  25.395
     26.8547	  22.000	  27.045	-151.045	  25.368
     26.8882	  24.000	  27.009	-149.009	  25.341
     26.9216	  17.000	  26.974	-155.974	  25.314
     26.9550	  21.000	  26.938	-151.938	  25.287
     26.9884	  30.000	  26.904	-142.904	  25.260
     27.0218	  26.000	  26.869	-146.869	  25.233
     27.0553	  18.000	  26.834	-154.835	  25.206
     27.0887	  25.000	  26.800	-147.800	  25.179
     27.1221	  30.000	  26.767	-142.767	  25.152
     27.1555	  27.000	  26.733	-145.733	  25.125
     27.1890	  31.000	  26.700	-141.700	  25.098
     27.2224	  25.000	  26.667	-147.667	  25.071
     27.2558	  26.000	  26.634	-146.634	  25.044
     27.2892	  28.000	  26.601	-144.601	  25.017
     27.3226	  26.000	  26.568	-146.568	  24.990
     27.3561	  20.000	  26.536	-152.536	  24.963
     27.3895	  22.000	  26.285	-150.285	  24.936
     27.4229	  28.000	  26.258	-144.258	  24.909
     27.4563	  21.000	  26.231	-151.231	  24.882
     27.4898	  20.000	  26.204	-152.204	  24.855
     27.5232	  33.000	  26.177	-139.177	  24.828
     27.5566	  24.000	  26.150	-148.150	  24.801
     27.5900	  28.000	  26.123	-144.123	  24.773
     27.6234	  38.000	  26.096	-134.096	  24.746
     27.6569	  28.000	  26.069	-144.069	  24.719
     27.6903	  30.000	  26.041	-142.041	  24.692
     27.7237	  28.000	  26.014	-144.014	  24.665
     27.7571	  38.000	  25.987	-133.987	  24.638
     27.7906	  34.000	  25.960	-137.960	  24.611
     27.8240	  21.000	  25.933	-150.933	  24.584
     27.8574	  20.000	  25.906	-151.906	  24.557
     27.8908	  29.000	  25.879	-142.879	  24.530
     27.9243	  25.000	  25.852	-146.852	  24.503
     27.9577	  30.000	  25.825	-141.825	  24.475
     27.9911	  29.000	  25.798	-142.798	  24.448
     28.0245	  30.000	  25.770	-141.770	  24.421
     28.0579	  39.000	  25.743	-132.743	  24.394
     28.0914	  17.000	  25.716	-154.716	  24.367
     28.1248	  18.000	  25.689	-153.689	  24.340
     28.1582	  28.000	  25.662	-143.662	  24.313
     28.1916	  29.000	  25.635	-142.635	  24.286
     28.2251	  34.000	  25.608	-137.608	  24.259
     28.2585	  31.000	  25.581	-140.581	  24.231
     28.2919	  31.000	  25.554	-140.554	  24.204
     28.3253	  32.000	  25.526	-139.526	  24.177
     28.3587	  32.000	  25.499	-139.499	  24.150
     28.3922	  28.000	  25.472	-143.472	  24.123
     28.4256	  38.000	  25.445	-133.445	  24.096
     28.4590	  25.000	  25.418	-146.418	  24.069
     28.4924	  28.000	  25.391	-143.391	  24.042
     28.5259	  27.000	  25.364	-144.364	  24.015
     28.5593	  34.000	  25.337	-137.337	  23.987
     28.5927	  27.000	  25.309	-144.309	  23.960
     28.6261	  29.000	  25.282	-142.282	  23.933
     28.6595	  25.000	  25.255	-146.255	  23.906
     28.6930	  36.000	  25.228	-135.228	  23.879
     28.7264	  39.000	  25.201	-132.201	  23.852
     28.7598	  34.000	  25.174	-137.174	  23.825
     28.7932	  32.000	  25.147	-139.147	  23.798
     28.8267	  40.000	  25.120	-131.120	  23.770
     28.8601	  31.000	  25.092	-140.092	  23.743
     28.8935	  41.000	  25.065	-130.065	  23.716
     28.9269	  33.000	  25.038	-138.038	  23.689
     28.9604	  29.000	  25.011	-142.011	  23.662
     28.9938	  31.000	  24.984	-139.984	  23.635
     29.0272	  39.000	  24.957	-131.957	  23.608
     29.0606	  19.000	  24.930	-151.930	  23.581
     29.0940	  28.000	  24.903	-142.903	  23.553
     29.1275	  28.000	  24.876	-142.876	  23.526
     29.1609	  40.000	  24.848	-130.848	  23.499
     29.1943	  41.000	  24.821	-129.821	  23.472
     29.2277	  39.000	  24.794	-131.794	  23.445
     29.2612	  32.000	  24.767	-138.767	  23.418
     29.2946	  30.000	  24.740	-140.740	  23.391
     29.3280	  31.000	  24.713	-139.713	  23.364
     29.3614	  17.000	  24.686	-153.686	  23.337
     29.3948	  33.000	  24.659	-137.659	  23.310
     29.4283	  31.000	  24.632	-139.632	  23.282
     29.4617	  50.000	  24.605	-120.605	  23.255
     29.4951	  40.000	  24.577	-130.577	  23.228
     29.5285	  42.000	  24.550	-128.550	  23.201
     29.5620	  29.000	  24.523	-141.523	  23.174
     29.5954	  29.000	  24.496	-141.496	  23.147
     29.6288	  45.000	  24.469	-125.469	  23.120
     29.6622	  49.000	  24.442	-121.442	  23.093
     29.6956	  38.000	  24.415	-132.415	  23.066
     29.7291	  28.000	  24.388	-142.388	  23.039
     29.7625	  49.000	  24.361	-121.361	  23.012
     29.7959	  40.000	  24.334	-130.334	  22.985
     29.8293	  45.000	  24.307	-125.307	  22.958
     29.8628	  44.000	  24.280	-126.280	  22.931
     29.8962	  25.000	  24.253	-145.253	  22.904
     29.9296	  36.000	  24.226	-134.226	  22.877
     29.9630	  48.000	  24.199	-122.199	  22.849
     29.9964	  45.000	  24.172	-125.172	  22.822
     30.0299	  50.000	  24.145	-120.145	  22.795
     30.0633	  57.000	  24.118	-113.118	  22.768
     30.0967	  40.000	  24.091	-130.091	  22.741
     30.1301	  50.000	  24.064	-120.064	  22.714
     30.1636	  51.000	  24.037	-119.037	  22.687
     30.1970	  53.000	  24.010	-117.010	  22.660
     30.2304	  54.000	  23.983	-115.983	  22.633
     30.2638	  56.000	  23.956	-113.956	  22.606
     30.2973	  41.000	  23.929	-128.929	  22.580
     30.3307	  54.000	  23.902	-115.902	  22.553
     30.3641	  51.000	  23.875	-118.875	  22.526
     30.3975	  51.000	  23.848	-118.848	  22.499
     30.4309	  51.000	  23.821	-118.821	  22.472
     30.4644	  54.000	  23.794	-115.794	  22.445
     30.4978	  52.000	  23.767	-117.767	  22.418
     30.5312	  51.000	  23.740	-118.740	  22.391
     30.5646	  39.000	  23.713	-130.713	  22.364
     30.5981	  63.000	  23.686	-106.686	  22.337
     30.6315	  38.000	  23.659	-131.659	  22.310
     30.6649	  41.000	  23.632	-128.632	  22.283
     30.6983	  45.000	  23.874	-124.874	  22.256
     30.7317	  58.000	  23.854	-111.854	  22.229
     30.7652	  53.000	  23.966	-116.966	  22.203
     30.7986	  45.000	  23.949	-124.949	  22.176
     30.8320	  43.000	  23.932	-126.932	  22.149
     30.8654	  58.000	  23.916	-111.916	  22.122
     30.8989	  29.000	  23.901	-140.901	  22.095
     30.9323	  49.000	  23.885	-120.885	  22.068
     30.9657	  41.000	  23.871	-128.871	  22.041
     30.9991	  56.000	  23.856	-113.856	  22.015
     31.0325	  33.000	  23.842	-136.842	  21.988
     31.0660	  39.000	  23.829	-130.829	  21.961
     31.0994	  37.000	  23.816	-132.816	  21.934
     31.1328	  28.000	  23.804	-141.804	  21.907
     31.1662	  34.000	  23.793	-135.793	  21.881
     31.1997	  43.000	  23.782	-126.782	  21.854
     31.2331	  27.000	  23.771	-142.771	  21.827
     31.2665	  45.000	  23.762	-124.762	  21.800
     31.2999	  36.000	  23.753	-133.753	  21.774
     31.3334	  41.000	  23.745	-128.745	  21.747
     31.3668	  30.000	  23.738	-139.738	  21.720
     31.4002	  31.000	  23.732	-138.732	  21.693
     31.4336	  30.000	  23.727	-139.727	  21.667
     31.4670	  33.000	  23.723	-136.723	  21.640
     31.5005	  25.000	  23.720	-144.720	  21.613
     31.5339	  31.000	  23.718	-138.718	  21.586
     31.5673	  38.000	  23.718	-131.718	  21.560
     31.6007	  24.000	  23.719	-145.719	  21.533
     31.6342	  38.000	  23.721	-131.721	  21.507
     31.6676	  38.000	  23.725	-131.725	  21.480
     31.7010	  37.000	  23.730	-132.730	  21.453
     31.7344	  26.000	  23.737	-143.737	  21.427
     31.7678	  30.000	  23.746	-139.746	  21.400
     31.8013	  34.000	  23.757	-135.757	  21.373
     31.8347	  25.000	  23.771	-144.771	  21.347
     31.8681	  44.000	  23.786	-125.786	  21.320
     31.9015	  37.000	  23.805	-132.805	  21.294
     31.9350	  40.000	  23.826	-129.826	  21.267
     31.9684	  34.000	  23.850	-135.850	  21.240
     32.0018	  27.000	  23.877	-142.877	  21.214
     32.0352	  41.000	  23.907	-128.907	  21.187
     32.0686	  29.000	  23.942	-140.942	  21.161
     32.1021	  38.000	  23.981	-131.981	  21.134
     32.1355	  34.000	  24.024	-136.024	  21.108
     32.1689	  25.000	  24.072	-145.072	  21.081
     32.2023	  26.000	  24.126	-144.126	  21.055
     32.2358	  34.000	  24.186	-136.186	  21.028
     32.2692	  25.000	  24.253	-145.253	  21.002
     32.3026	  28.000	  24.326	-142.326	  20.976
     32.3360	  36.000	  24.409	-134.409	  20.949
     32.3694	  31.000	  24.500	-139.500	  20.923
     32.4029	  27.000	  24.601	-143.601	  20.896
     32.4363	  31.000	  24.713	-139.713	  20.870
     32.4697	  28.000	  24.839	-142.839	  20.844
     32.5031	  41.000	  24.978	-129.978	  20.817
     32.5366	  33.000	  25.133	-138.133	  20.791
     32.5700	  30.000	  25.307	-141.307	  20.764
     32.6034	  26.000	  25.502	-145.502	  20.738
     32.6368	  36.000	  25.720	-135.720	  20.712
     32.6703	  46.000	  25.965	-125.965	  20.686
     32.7037	  45.000	  26.242	-127.242	  20.659
     32.7371	  42.000	  26.555	-130.555	  20.633
     32.7705	  28.000	  26.910	-144.910	  20.607
     32.8039	  38.000	  27.315	-135.315	  20.580
     32.8374	  38.000	  27.779	-135.779	  20.554
     32.8708	  29.000	  28.313	-145.313	  20.528
     32.9042	  28.000	  28.930	-146.930	  20.502
     32.9376	  48.000	  29.649	-127.649	  20.476
     32.9711	  46.000	  30.491	-130.491	  20.449
     33.0045	  43.000	  31.486	-134.486	  20.423
     33.0379	  41.000	  32.670	-137.671	  20.397
     33.0713	  40.000	  34.095	-140.095	  20.371
     33.1047	  37.000	  35.826	-144.826	  20.345
     33.1382	  64.000	  37.955	-119.955	  20.319
     33.1716	  53.000	  40.613	-133.613	  20.293
     33.2050	  68.000	  43.985	-121.985	  20.266
     33.2384	  65.000	  48.357	-129.357	  20.240
     33.2719	  62.000	  54.474	-138.474	  20.214
     33.3053	  67.000	  62.782	-141.782	  20.188
     33.3387	  91.000	  75.523	-130.523	  20.162
     33.3721	 107.000	  96.802	-135.802	  20.136
     33.4055	 131.000	 133.132	-148.132	  20.110
     33.4390	 169.000	 193.438	-170.438	  20.084
     33.4724	 256.000	 284.660	-174.660	  20.058
     33.5058	 361.000	 402.418	-187.418	  20.032
     33.5392	 541.000	 511.928	-116.928	  20.006
     33.5727	 552.000	 553.414	-147.414	  19.980
     33.6061	 584.000	 520.320	 -82.320	  19.954
     33.6395	 476.000	 446.526	-116.526	  19.929
     33.6729	 349.000	 346.771	-143.771	  19.903
     33.7064	 232.000	 247.729	-161.729	  19.877
     33.7398	 152.000	 171.735	-165.735	  19.851
     33.7732	 103.000	 121.228	-164.228	  19.825
     33.8066	  93.000	  90.106	-143.106	  19.799
     33.8400	  69.000	  71.415	-148.415	  19.773
     33.8735	  60.000	  59.877	-145.877	  19.748
     33.9069	  60.000	  52.255	-138.255	  19.722
     33.9403	  61.000	  46.842	-131.842	  19.696
     33.9737	  45.000	  42.783	-143.783	  19.670
     34.0072	  41.000	  39.636	-144.636	  19.645
     34.0406	  46.000	  37.139	-137.139	  19.619
     34.0740	  37.000	  35.126	-144.126	  19.593
     34.1074	  36.000	  33.480	-143.480	  19.568
     34.1408	  31.000	  32.117	-147.117	  19.542
     34.1743	  34.000	  30.976	-142.976	  19.516
     34.2077	  34.000	  30.013	-142.013	  19.491
     34.2411	  32.000	  29.193	-143.193	  19.465
     34.2745	  34.000	  28.490	-140.490	  19.439
     34.3080	  45.000	  27.883	-128.883	  19.414
     34.3414	  28.000	  27.357	-145.357	  19.388
     34.3748	  32.000	  26.898	-140.898	  19.363
     34.4082	  28.000	  26.496	-144.496	  19.337
     34.4416	  41.000	  26.143	-131.143	  19.312
     34.4751	  31.000	  25.833	-140.833	  19.286
     34.5085	  25.000	  25.560	-146.560	  19.261
     34.5419	  26.000	  25.319	-145.319	  19.235
     34.5753	  28.000	  25.107	-143.107	  19.210
     34.6088	  29.000	  24.921	-141.921	  19.184
     34.6422	  24.000	  24.758	-146.758	  19.159
     34.6756	  30.000	  24.616	-140.616	  19.133
     34.7090	  34.000	  24.493	-136.493	  19.108
     34.7425	  25.000	  24.388	-145.388	  19.083
     34.7759	  22.000	  24.301	-148.301	  19.057
     34.8093	  28.000	  24.230	-142.230	  19.032
     34.8427	  31.000	  24.174	-139.174	  19.007
     34.8761	  28.000	  24.133	-142.133	  18.981
     34.9096	  34.000	  24.108	-136.108	  18.956
     34.9430	  28.000	  24.097	-142.097	  18.931
     34.9764	  31.000	  24.102	-139.102	  18.906
     35.0098	  34.000	  24.122	-136.122	  18.880
     35.0433	  34.000	  24.159	-136.159	  18.855
     35.0767	  27.000	  24.213	-143.213	  18.830
     35.1101	  31.000	  24.285	-139.285	  18.805
     35.1435	  30.000	  24.377	-140.377	  18.780
     35.1769	  41.000	  24.490	-129.490	  18.755
     35.2104	  31.000	  24.627	-139.627	  18.730
     35.2438	  26.000	  24.790	-144.790	  18.704
     35.2772	  31.000	  24.982	-139.982	  18.679
     35.3106	  28.000	  25.208	-143.208	  18.654
     35.3441	  27.000	  25.472	-144.472	  18.629
     35.3775	  28.000	  25.779	-143.779	  18.604
     35.4109	  21.000	  26.138	-151.138	  18.579
     35.4443	  33.000	  26.555	-139.555	  18.554
     35.4777	  31.000	  27.043	-142.043	  18.529
     35.5112	  31.000	  27.615	-142.615	  18.504
     35.5446	  38.000	  28.287	-136.287	  18.479
     35.5780	  31.000	  29.083	-144.083	  18.455
     35.6114	  45.000	  30.029	-131.029	  18.430
     35.6449	  33.000	  31.164	-144.164	  18.405
     35.6783	  29.000	  32.536	-149.536	  18.380
     35.7117	  43.000	  34.211	-137.211	  18.355
     35.7451	  44.000	  36.281	-138.281	  18.330
     35.7785	  40.000	  38.874	-144.874	  18.306
     35.8120	  46.000	  42.179	-142.179	  18.281
     35.8454	  68.000	  46.493	-124.493	  18.256
     35.8788	  65.000	  52.336	-133.336	  18.231
     35.9122	  73.000	  60.742	-133.742	  18.207
     35.9457	  95.000	  73.794	-124.794	  18.182
     35.9791	 103.000	  95.356	-138.356	  18.157
     36.0125	 112.000	 131.428	-165.428	  18.133
     36.0459	 151.000	 188.994	-183.994	  18.108
     36.0794	 243.000	 272.289	-175.289	  18.083
     36.1128	 328.000	 373.827	-191.827	  18.059
     36.1462	 447.000	 458.947	-157.947	  18.034
     36.1796	 482.000	 481.808	-145.808	  18.010
     36.2130	 436.000	 448.719	-158.719	  17.985
     36.2465	 382.000	 387.850	-151.850	  17.961
     36.2799	 306.000	 306.575	-146.575	  17.936
     36.3133	 175.000	 223.650	-194.650	  17.912
     36.3467	 127.000	 158.010	-177.010	  17.887
     36.3802	 105.000	 113.035	-154.035	  17.863
     36.4136	  81.000	  84.467	-149.467	  17.838
     36.4470	  54.000	  66.860	-158.860	  17.814
     36.4804	  56.000	  55.580	-145.580	  17.790
     36.5138	  56.000	  48.290	-138.290	  17.765
     36.5473	  44.000	  42.996	-144.996	  17.741
     36.5807	  34.000	  39.134	-151.134	  17.717
     36.6141	  36.000	  36.137	-146.137	  17.692
     36.6475	  28.000	  33.754	-151.754	  17.668
     36.6810	  30.000	  31.826	-147.826	  17.644
     36.7144	  40.000	  30.243	-136.243	  17.620
     36.7478	  29.000	  28.926	-145.926	  17.596
     36.7812	  27.000	  27.820	-146.820	  17.571
     36.8146	  17.000	  26.898	-155.898	  17.547
     36.8481	  22.000	  26.092	-150.092	  17.523
     36.8815	  24.000	  25.396	-147.396	  17.499
     36.9149	  27.000	  24.799	-143.799	  17.475
     36.9483	  21.000	  24.267	-149.267	  17.451
     36.9818	  30.000	  23.798	-139.798	  17.427
     37.0152	  21.000	  23.382	-148.382	  17.403
     37.0486	  24.000	  23.010	-145.010	  17.379
     37.0820	  20.000	  22.676	-148.676	  17.355
     37.1154	   8.000	  22.376	-160.376	  17.331
     37.1489	  21.000	  22.103	-147.103	  17.307
     37.1823	  25.000	  21.855	-142.855	  17.283
     37.2157	  18.000	  21.629	-149.629	  17.259
     37.2491	  15.000	  21.422	-152.422	  17.235
     37.2826	  15.000	  21.231	-152.231	  17.211
     37.3160	  10.000	  21.055	-157.055	  17.188
     37.3494	  12.000	  20.892	-154.892	  17.164
     37.3828	  17.000	  20.741	-149.741	  17.140
     37.4163	  20.000	  20.600	-146.600	  17.116
     37.4497	  18.000	  20.469	-148.469	  17.093
     37.4831	  15.000	  20.345	-151.345	  17.069
     37.5165	  12.000	  20.230	-154.230	  17.045
     37.5499	  13.000	  20.121	-153.121	  17.021
     37.5834	  15.000	  20.018	-151.018	  16.998
     37.6168	  18.000	  19.922	-147.922	  16.974
     37.6502	  18.000	  19.830	-147.830	  16.951
     37.6836	  24.000	  19.743	-141.743	  16.927
     37.7171	  14.000	  19.660	-151.660	  16.903
     37.7505	  10.000	  19.581	-155.581	  16.880
     37.7839	  12.000	  19.506	-153.506	  16.856
     37.8173	  12.000	  19.435	-153.435	  16.833
     37.8507	  16.000	  19.366	-149.366	  16.809
     37.8842	   9.000	  19.301	-156.301	  16.786
     37.9176	   8.000	  19.238	-157.238	  16.763
     37.9510	  16.000	  19.177	-149.177	  16.739
     37.9844	  15.000	  19.119	-150.119	  16.716
     38.0179	  20.000	  19.064	-145.064	  16.692
     38.0513	   8.000	  19.010	-157.010	  16.669
     38.0847	  14.000	  18.958	-150.958	  16.646
     38.1181	  10.000	  18.908	-154.908	  16.623
     38.1516	  20.000	  18.860	-144.860	  16.599
     38.1850	  13.000	  18.814	-151.814	  16.576
     38.2184	   9.000	  18.769	-155.769	  16.553
     38.2518	  15.000	  18.726	-149.726	  16.530
     38.2852	   6.000	  18.684	-158.684	  16.507
     38.3187	  15.000	  18.644	-149.644	  16.483
     38.3521	  15.000	  18.605	-149.605	  16.460
     38.3855	  12.000	  18.567	-152.567	  16.437
     38.4189	   9.000	  18.531	-155.531	  16.414
     38.4524	  19.000	  18.496	-145.496	  16.391
     38.4858	  13.000	  18.463	-151.463	  16.368
     38.5192	   8.000	  18.515	-156.515	  16.345
     38.5526	  17.000	  18.487	-147.487	  16.322
     38.5860	   8.000	  18.460	-156.460	  16.299
     38.6195	   9.000	  18.435	-155.435	  16.276
     38.6529	  21.000	  18.454	-143.454	  16.253
     38.6863	  12.000	  18.433	-152.433	  16.230
     38.7197	  18.000	  18.414	-146.414	  16.208
     38.7532	  15.000	  18.397	-149.397	  16.185
     38.7866	  15.000	  18.383	-149.383	  16.162
     38.8200	   8.000	  18.371	-156.371	  16.139
     38.8534	  20.000	  18.361	-144.361	  16.116
     38.8868	  16.000	  18.355	-148.355	  16.094
     38.9203	  10.000	  18.353	-154.353	  16.071
     38.9537	  13.000	  18.354	-151.354	  16.048
     38.9871	  10.000	  18.360	-154.360	  16.026
     39.0205	  18.000	  18.371	-146.371	  16.003
     39.0540	  18.000	  18.388	-146.388	  15.980
     39.0874	  16.000	  18.168	-148.168	  15.958
     39.1208	  18.000	  18.207	-146.207	  15.935
     39.1542	  15.000	  18.257	-149.257	  15.913
     39.1876	  15.000	  18.199	-149.199	  15.890
     39.2211	  15.000	  18.282	-149.282	  15.868
     39.2545	  17.000	  18.386	-147.386	  15.845
     39.2879	   9.000	  18.517	-155.517	  15.823
     39.3213	  18.000	  18.684	-146.684	  15.800
     39.3548	  22.000	  18.899	-142.899	  15.778
     39.3882	  16.000	  19.184	-149.184	  15.756
     39.4216	  10.000	  19.572	-155.572	  15.733
     39.4550	  14.000	  20.131	-152.131	  15.711
     39.4884	  20.000	  20.991	-146.991	  15.689
     39.5219	  18.000	  22.382	-150.382	  15.666
     39.5553	  26.000	  24.647	-144.647	  15.644
     39.5887	  24.000	  28.174	-150.174	  15.622
     39.6221	  32.000	  33.212	-147.212	  15.600
     39.6556	  53.000	  39.398	-132.398	  15.578
     39.6890	  43.000	  44.877	-147.877	  15.555
     39.7224	  48.000	  46.856	-144.856	  15.533
     39.7558	  43.000	  45.269	-148.269	  15.511
     39.7893	  49.000	  42.093	-139.093	  15.489
     39.8227	  29.000	  37.757	-154.757	  15.467
     39.8561	  27.000	  32.684	-151.684	  15.445
     39.8895	  18.000	  28.135	-156.135	  15.423
     39.9229	  18.000	  24.747	-152.747	  15.401
     39.9564	  17.000	  22.460	-151.460	  15.379
     39.9898	  13.000	  20.991	-153.991	  15.357
     40.0232	  15.000	  20.060	-151.060	  15.335
     40.0566	  13.000	  19.455	-152.455	  15.314
     40.0901	  22.000	  19.041	-143.041	  15.292
     40.1235	  20.000	  18.742	-144.742	  15.270
     40.1569	   9.000	  18.518	-155.518	  15.248
     40.1903	  18.000	  18.345	-146.345	  15.226
     40.2237	  15.000	  18.212	-149.212	  15.205
     40.2572	  20.000	  18.108	-144.108	  15.183
     40.2906	  10.000	  18.029	-154.029	  15.161
     40.3240	  12.000	  17.970	-151.970	  15.140
     40.3574	  13.000	  17.927	-150.927	  15.118
     40.3909	  17.000	  17.900	-146.900	  15.096
     40.4243	  15.000	  17.886	-148.886	  15.075
     40.4577	  13.000	  17.885	-150.885	  15.053
     40.4911	  15.000	  17.897	-148.897	  15.032
     40.5246	  12.000	  17.921	-151.921	  15.010
     40.5580	  14.000	  17.958	-149.958	  14.989
     40.5914	  18.000	  18.009	-146.009	  14.967
     40.6248	  12.000	  18.074	-152.074	  14.946
     40.6582	   9.000	  18.155	-155.155	  14.924
     40.6917	  15.000	  18.255	-149.255	  14.903
     40.7251	   9.000	  18.375	-155.375	  14.882
     40.7585	  10.000	  18.520	-154.520	  14.860
     40.7919	  16.000	  18.693	-148.693	  14.839
     40.8254	  13.000	  18.900	-151.900	  14.818
     40.8588	  19.000	  19.148	-146.148	  14.797
     40.8922	  17.000	  19.446	-148.446	  14.775
     40.9256	  21.000	  19.806	-144.806	  14.754
     40.9590	  22.000	  20.244	-144.244	  14.733
     40.9925	  15.000	  20.780	-151.780	  14.712
     41.0259	  21.000	  21.445	-146.445	  14.691
     41.0593	  16.000	  22.280	-152.280	  14.670
     41.0927	  16.000	  23.346	-153.346	  14.649
     41.1262	  26.000	  24.742	-144.742	  14.628
     41.1596	  29.000	  26.644	-143.644	  14.607
     41.1930	  37.000	  29.390	-138.390	  14.586
     41.2264	  48.000	  33.622	-131.622	  14.565
     41.2598	  41.000	  40.362	-145.362	  14.544
     41.2933	  50.000	  51.113	-147.113	  14.523
     41.3267	  46.000	  67.440	-167.440	  14.502
     41.3601	  91.000	  90.120	-145.120	  14.481
     41.3935	 121.000	 116.878	-141.878	  14.460
     41.4270	 167.000	 138.929	-117.929	  14.440
     41.4604	 164.000	 145.162	-127.162	  14.419
     41.4938	 137.000	 137.318	-146.318	  14.398
     41.5272	 155.000	 123.804	-114.804	  14.377
     41.5606	 116.000	 105.766	-135.766	  14.357
     41.5941	  90.000	  84.397	-140.397	  14.336
     41.6275	  63.000	  64.854	-147.854	  14.315
     41.6609	  43.000	  50.036	-153.036	  14.295
     41.6943	  36.000	  39.844	-149.844	  14.274
     41.7278	  33.000	  33.179	-146.179	  14.254
     41.7612	  32.000	  28.887	-142.887	  14.233
     41.7946	  20.000	  26.063	-152.063	  14.213
     41.8280	  24.000	  24.111	-146.111	  14.192
     41.8615	  21.000	  22.684	-147.684	  14.172
     41.8949	  18.000	  21.591	-149.591	  14.151
     41.9283	  16.000	  20.728	-150.728	  14.131
     41.9617	  14.000	  20.031	-152.031	  14.111
     41.9951	  22.000	  19.458	-143.458	  14.090
     42.0286	   9.000	  18.982	-155.982	  14.070
     42.0620	  17.000	  18.580	-147.580	  14.050
     42.0954	  20.000	  18.238	-144.238	  14.029
     42.1288	  16.000	  17.944	-147.944	  14.009
     42.1623	  16.000	  17.689	-147.689	  13.989
     42.1957	  21.000	  17.466	-142.466	  13.969
     42.2291	  19.000	  17.269	-144.269	  13.949
     42.2625	   7.000	  17.094	-156.094	  13.928
     42.2959	  18.000	  16.938	-144.938	  13.908
     42.3294	  17.000	  16.798	-145.798	  13.888
     42.3628	  13.000	  16.671	-149.671	  13.868
     42.3962	  12.000	  16.557	-150.557	  13.848
     42.4296	  10.000	  16.452	-152.452	  13.828
     42.4631	  20.000	  16.356	-142.356	  13.808
     42.4965	  17.000	  16.267	-145.267	  13.788
     42.5299	  15.000	  16.186	-147.186	  13.768
     42.5633	  19.000	  16.110	-143.110	  13.749
     42.5967	  14.000	  16.040	-148.040	  13.729
     42.6302	   7.000	  15.975	-154.975	  13.709
     42.6636	  12.000	  15.896	-149.896	  13.689
     42.6970	  17.000	  15.839	-144.839	  13.669
     42.7304	  16.000	  15.786	-145.786	  13.650
     42.7639	  14.000	  15.727	-147.727	  13.630
     42.7973	  12.000	  15.680	-149.680	  13.610
     42.8307	  12.000	  15.636	-149.636	  13.591
     42.8641	  13.000	  15.595	-148.595	  13.571
     42.8975	   7.000	  15.556	-154.556	  13.551
     42.9310	  10.000	  15.519	-151.519	  13.532
     42.9644	  21.000	  15.484	-140.484	  13.512
     42.9978	  16.000	  15.451	-145.451	  13.493
     43.0312	  17.000	  15.421	-144.421	  13.473
     43.0647	  10.000	  15.392	-151.392	  13.454
     43.0981	  12.000	  15.366	-149.366	  13.434
     43.1315	  16.000	  15.341	-145.341	  13.415
     43.1649	  25.000	  15.319	-136.319	  13.395
     43.1983	  16.000	  15.298	-145.298	  13.376
     43.2318	  16.000	  15.280	-145.280	  13.357
     43.2652	   8.000	  15.265	-153.265	  13.337
     43.2986	  16.000	  15.252	-145.252	  13.318
     43.3320	  20.000	  15.241	-141.241	  13.299
     43.3655	   9.000	  15.234	-152.234	  13.280
     43.3989	   9.000	  15.231	-152.231	  13.261
     43.4323	  19.000	  15.232	-142.232	  13.241
     43.4657	   8.000	  15.237	-153.237	  13.222
     43.4992	   7.000	  15.247	-154.247	  13.203
     43.5326	  16.000	  15.264	-145.264	  13.184
     43.5660	   9.000	  15.289	-152.289	  13.165
     43.5994	  13.000	  15.323	-148.323	  13.146
     43.6328	  13.000	  15.368	-148.368	  13.127
     43.6663	  16.000	  15.427	-145.427	  13.108
     43.6997	  15.000	  15.504	-146.504	  13.089
     43.7331	  12.000	  15.604	-149.604	  13.070
     43.7665	  12.000	  15.734	-149.734	  13.051
     43.8000	  17.000	  15.903	-144.904	  13.032
     43.8334	  10.000	  16.130	-152.130	  13.014
     43.8668	  14.000	  16.442	-148.442	  12.995
     43.9002	  16.000	  16.892	-146.892	  12.976
     43.9336	  22.000	  17.575	-141.575	  12.957
     43.9671	  22.000	  18.654	-142.654	  12.939
     44.0005	  19.000	  20.356	-147.356	  12.920
     44.0339	  19.000	  22.941	-149.941	  12.901
     44.0673	  27.000	  26.580	-145.580	  12.883
     44.1008	  24.000	  31.082	-153.082	  12.864
     44.1342	  29.000	  35.321	-152.321	  12.845
     44.1676	  26.000	  37.322	-157.322	  12.827
     44.2010	  38.000	  36.561	-144.561	  12.808
     44.2345	  36.000	  34.527	-144.527	  12.790
     44.2679	  27.000	  31.932	-150.932	  12.771
     44.3013	  26.000	  28.571	-148.571	  12.753
     44.3347	  22.000	  24.966	-148.966	  12.734
     44.3681	  22.000	  21.903	-145.904	  12.716
     44.4016	  13.000	  19.563	-152.563	  12.698
     44.4350	  13.000	  18.010	-151.010	  12.679
     44.4684	  19.000	  16.979	-143.979	  12.661
     44.5018	  18.000	  16.254	-144.254	  12.643
     44.5353	  18.000	  15.786	-143.786	  12.625
     44.5687	  19.000	  15.450	-142.450	  12.606
     44.6021	  19.000	  15.196	-142.196	  12.588
     44.6355	  13.000	  14.995	-147.995	  12.570
     44.6689	  12.000	  14.831	-148.831	  12.552
     44.7024	   9.000	  14.695	-151.695	  12.534
     44.7358	  13.000	  14.581	-147.581	  12.516
     44.7692	  10.000	  14.482	-150.482	  12.498
     44.8026	  16.000	  14.396	-144.396	  12.480
     44.8361	  15.000	  14.321	-145.321	  12.462
     44.8695	   4.000	  14.254	-156.254	  12.444
     44.9029	  10.000	  14.194	-150.194	  12.426
     44.9363	   7.000	  14.139	-153.139	  12.408
     44.9697	  15.000	  14.089	-145.089	  12.390
     45.0032	  10.000	  14.043	-150.043	  12.372
     45.0366	  16.000	  14.000	-144.000	  12.354
     45.0700	  15.000	  13.960	-144.960	  12.336
     45.1034	  10.000	  13.922	-149.922	  12.319
     45.1369	  14.000	  13.887	-145.887	  12.301
     45.1703	  12.000	  13.853	-147.853	  12.283
     45.2037	  13.000	  13.821	-146.821	  12.265
     45.2371	   5.000	  13.791	-154.791	  12.248
     45.2705	  17.000	  13.761	-142.761	  12.230
     45.3040	  15.000	  13.733	-144.733	  12.213
     45.3374	   9.000	  13.705	-150.705	  12.195
     45.3708	  13.000	  13.679	-146.679	  12.177
     45.4042	  21.000	  13.653	-138.653	  12.160
     45.4377	  17.000	  13.628	-142.628	  12.142
     45.4711	  10.000	  13.603	-149.603	  12.125
     45.5045	  19.000	  13.579	-140.579	  12.108
     45.5379	  13.000	  13.556	-146.556	  12.090
     45.5714	  10.000	  13.533	-149.533	  12.073
     45.6048	  14.000	  13.510	-145.510	  12.055
     45.6382	  13.000	  13.488	-146.488	  12.038
     45.6716	  14.000	  13.466	-145.466	  12.021
     45.7050	  14.000	  13.445	-145.445	  12.003
     45.7385	  19.000	  13.424	-140.424	  11.986
     45.7719	  13.000	  13.403	-146.403	  11.969
     45.8053	  13.000	  13.382	-146.382	  11.952
     45.8387	  17.000	  13.362	-142.362	  11.935
     45.8722	  12.000	  13.342	-147.342	  11.918
     45.9056	   9.000	  13.322	-150.322	  11.900
     45.9390	  10.000	  13.302	-149.302	  11.883
     45.9724	  24.000	  13.282	-135.282	  11.866
     46.0058	   9.000	  13.263	-150.263	  11.849
     46.0393	  15.000	  13.243	-144.243	  11.832
     46.0727	   9.000	  13.224	-150.224	  11.815
     46.1061	  10.000	  13.205	-149.205	  11.798
     46.1395	  19.000	  13.186	-140.186	  11.782
     46.1730	  16.000	  13.168	-143.168	  11.765
     46.2064	  13.000	  13.149	-146.149	  11.748
     46.2398	  13.000	  13.131	-146.131	  11.731
     46.2732	  13.000	  13.112	-146.112	  11.714
     46.3066	  16.000	  13.094	-143.094	  11.697
     46.3401	  10.000	  13.076	-149.076	  11.681
     46.3735	  13.000	  13.058	-146.058	  11.664
     46.4069	  13.000	  13.040	-146.040	  11.647
     46.4403	   7.000	  13.022	-152.022	  11.631
     46.4738	   5.000	  13.004	-154.004	  11.614
     46.5072	  15.000	  12.986	-143.986	  11.597
     46.5406	  17.000	  12.968	-141.968	  11.581
     46.5740	  13.000	  12.951	-145.951	  11.564
     46.6075	  14.000	  12.933	-144.933	  11.548
     46.6409	  21.000	  12.916	-137.916	  11.531
     46.6743	   9.000	  12.898	-149.898	  11.515
     46.7077	   9.000	  12.881	-149.881	  11.498
     46.7411	  10.000	  12.864	-148.864	  11.482
     46.7746	   7.000	  12.846	-151.846	  11.466
     46.8080	  20.000	  12.829	-138.829	  11.449
     46.8414	   8.000	  12.812	-150.812	  11.433
     46.8748	  17.000	  12.795	-141.795	  11.417
     46.9083	   7.000	  12.778	-151.778	  11.400
     46.9417	  10.000	  12.761	-148.761	  11.384
     46.9751	   7.000	  12.744	-151.744	  11.368
     47.0085	   5.000	  12.728	-153.728	  11.352
     47.0419	  21.000	  12.711	-137.711	  11.336
     47.0754	  15.000	  12.694	-143.694	  11.320
     47.1088	  13.000	  12.661	-145.661	  11.303
     47.1422	  12.000	  12.645	-146.645	  11.287
     47.1756	  10.000	  12.629	-148.629	  11.271
     47.2091	  21.000	  12.736	-137.736	  11.255
     47.2425	  10.000	  12.715	-148.715	  11.239
     47.2759	  12.000	  12.702	-146.702	  11.223
     47.3093	  15.000	  12.689	-143.689	  11.207
     47.3427	   9.000	  12.738	-149.738	  11.192
     47.3762	  10.000	  12.727	-148.727	  11.176
     47.4096	  18.000	  12.716	-140.716	  11.160
     47.4430	  12.000	  12.705	-146.705	  11.144
     47.4764	  14.000	  12.694	-144.694	  11.128
     47.5099	   9.000	  12.684	-149.684	  11.112
     47.5433	  22.000	  12.674	-136.674	  11.097
     47.5767	  19.000	  12.664	-139.664	  11.081
     47.6101	   7.000	  12.654	-151.654	  11.065
     47.6435	  13.000	  12.645	-145.645	  11.050
     47.6770	   9.000	  12.635	-149.635	  11.034
     47.7104	  18.000	  12.627	-140.627	  11.019
     47.7438	  16.000	  12.618	-142.618	  11.003
     47.7772	   7.000	  12.610	-151.610	  10.987
     47.8107	  16.000	  12.602	-142.602	  10.972
     47.8441	  15.000	  12.594	-143.594	  10.956
     47.8775	  12.000	  12.587	-146.587	  10.941
     47.9109	  10.000	  12.581	-148.581	  10.926
     47.9444	  13.000	  12.574	-145.574	  10.910
     47.9778	  14.000	  12.568	-144.568	  10.895
     48.0112	  18.000	  12.563	-140.563	  10.879
     48.0446	  20.000	  12.558	-138.558	  10.864
     48.0780	  16.000	  12.553	-142.553	  10.849
     48.1115	  12.000	  12.549	-146.549	  10.834
     48.1449	  18.000	  12.546	-140.546	  10.818
     48.1783	  10.000	  12.543	-148.543	  10.803
     48.2117	  13.000	  12.541	-145.541	  10.788
     48.2452	   5.000	  12.540	-153.540	  10.773
     48.2786	  15.000	  12.539	-143.539	  10.758
     48.3120	  14.000	  12.540	-144.540	  10.743
     48.3454	  19.000	  12.541	-139.541	  10.727
     48.3788	  21.000	  12.543	-137.543	  10.712
     48.4123	   7.000	  12.545	-151.545	  10.697
     48.4457	  14.000	  12.549	-144.549	  10.682
     48.4791	   7.000	  12.555	-151.555	  10.667
     48.5125	  14.000	  12.561	-144.561	  10.653
     48.5460	  12.000	  12.568	-146.568	  10.638
     48.5794	  13.000	  12.578	-145.578	  10.623
     48.6128	  20.000	  12.588	-138.588	  10.608
     48.6462	  16.000	  12.600	-142.600	  10.593
     48.6796	  15.000	  12.614	-143.614	  10.578
     48.7131	  14.000	  12.630	-144.630	  10.564
     48.7465	   9.000	  12.649	-149.649	  10.549
     48.7799	  16.000	  12.669	-142.669	  10.534
     48.8133	  10.000	  12.692	-148.692	  10.519
     48.8468	  14.000	  12.718	-144.718	  10.505
     48.8802	  18.000	  12.747	-140.747	  10.490
     48.9136	  19.000	  12.779	-139.779	  10.475
     48.9470	  14.000	  12.815	-144.815	  10.461
     48.9804	  13.000	  12.856	-145.856	  10.446
     49.0139	  14.000	  12.901	-144.901	  10.432
     49.0473	  22.000	  12.951	-136.951	  10.417
     49.0807	  14.000	  13.007	-145.007	  10.403
     49.1141	  22.000	  13.069	-137.069	  10.388
     49.1476	  15.000	  13.139	-144.139	  10.374
     49.1810	  15.000	  13.217	-144.217	  10.360
     49.2144	  16.000	  13.304	-143.304	  10.345
     49.2478	  19.000	  13.402	-140.402	  10.331
     49.2813	  16.000	  13.513	-143.513	  10.317
     49.3147	  10.000	  13.637	-149.637	  10.302
     49.3481	  18.000	  13.777	-141.777	  10.288
     49.3815	  27.000	  13.936	-132.936	  10.274
     49.4149	  12.000	  14.117	-148.117	  10.260
     49.4484	  21.000	  14.324	-139.324	  10.246
     49.4818	  19.000	  14.562	-141.562	  10.231
     49.5152	  15.000	  14.835	-145.835	  10.217
     49.5486	  19.000	  15.153	-142.153	  10.203
     49.5821	  29.000	  15.523	-132.523	  10.189
     49.6155	  17.000	  15.958	-144.958	  10.175
     49.6489	  20.000	  16.473	-142.473	  10.161
     49.6823	  26.000	  17.088	-137.088	  10.147
     49.7157	  34.000	  17.829	-129.829	  10.133
     49.7492	  29.000	  18.732	-135.732	  10.119
     49.7826	  30.000	  19.850	-135.850	  10.105
     49.8160	  46.000	  21.256	-121.256	  10.091
     49.8494	  40.000	  23.073	-129.073	  10.078
     49.8829	  28.000	  25.509	-143.509	  10.064
     49.9163	  31.000	  28.927	-143.927	  10.050
     49.9497	  32.000	  33.940	-147.940	  10.036
     49.9831	  49.000	  41.480	-138.480	  10.022
     50.0165	  69.000	  52.781	-129.781	  10.009
     50.0500	  52.000	  69.136	-163.136	   9.995
     50.0834	  95.000	  91.308	-142.308	   9.981
     50.1168	 110.000	 118.039	-154.039	   9.968
     50.1502	 158.000	 143.229	-131.229	   9.954
     50.1837	 175.000	 156.245	-127.245	   9.941
     50.2171	 160.000	 153.146	-139.146	   9.927
     50.2505	 147.000	 142.035	-141.035	   9.914
     50.2839	 112.000	 129.425	-163.425	   9.900
     50.3174	 134.000	 113.946	-125.946	   9.887
     50.3508	 108.000	  94.356	-132.356	   9.873
     50.3842	  63.000	  74.423	-157.423	   9.860
     50.4176	  65.000	  57.789	-138.789	   9.846
     50.4510	  56.000	  45.355	-135.355	   9.833
     50.4845	  43.000	  36.581	-139.581	   9.820
     50.5179	  37.000	  30.555	-139.555	   9.806
     50.5513	  39.000	  26.431	-133.431	   9.793
     50.5847	  22.000	  23.550	-147.550	   9.780
     50.6182	  29.000	  21.460	-138.460	   9.767
     50.6516	  29.000	  19.881	-136.881	   9.753
     50.6850	  19.000	  18.645	-145.645	   9.740
     50.7184	  33.000	  17.651	-130.651	   9.727
     50.7518	  32.000	  16.838	-130.838	   9.714
     50.7853	  21.000	  16.162	-141.162	   9.701
     50.8187	  26.000	  15.594	-135.594	   9.688
     50.8521	  25.000	  15.112	-136.112	   9.675
     50.8855	  18.000	  14.698	-142.698	   9.662
     50.9190	  24.000	  14.341	-136.341	   9.649
     50.9524	  20.000	  14.030	-140.030	   9.636
     50.9858	  16.000	  13.757	-143.757	   9.623
     51.0192	  21.000	  13.516	-138.516	   9.610
     51.0527	  18.000	  13.301	-141.301	   9.597
     51.0861	  24.000	  13.110	-135.110	   9.584
     51.1195	  24.000	  12.939	-134.939	   9.571
     51.1529	  28.000	  12.784	-130.784	   9.558
     51.1863	  19.000	  12.643	-139.643	   9.546
     51.2198	  18.000	  12.515	-140.515	   9.533
     51.2532	  18.000	  12.399	-140.399	   9.520
     51.2866	  19.000	  12.292	-139.292	   9.507
     51.3200	  18.000	  12.193	-140.193	   9.495
     51.3535	  24.000	  12.102	-134.102	   9.482
     51.3869	  12.000	  12.018	-146.018	   9.469
     51.4203	  22.000	  11.939	-135.939	   9.457
     51.4537	  13.000	  11.866	-144.866	   9.444
     51.4871	  15.000	  11.798	-142.798	   9.432
     51.5206	  17.000	  11.733	-140.733	   9.419
     51.5540	  12.000	  11.673	-145.673	   9.407
     51.5874	  16.000	  11.616	-141.616	   9.394
     51.6208	  17.000	  11.563	-140.563	   9.382
     51.6543	   9.000	  11.512	-148.512	   9.369
     51.6877	  20.000	  11.464	-137.464	   9.357
     51.7211	  10.000	  11.418	-147.418	   9.345
     51.7545	  10.000	  11.375	-147.375	   9.332
     51.7879	  14.000	  11.333	-143.333	   9.320
     51.8214	  14.000	  11.586	-143.586	   9.308
     51.8548	   8.000	  11.555	-149.555	   9.295
     51.8882	  12.000	  11.526	-145.526	   9.283
     51.9216	  12.000	  11.498	-145.498	   9.271
     51.9551	  12.000	  11.616	-145.616	   9.259
     51.9885	  10.000	  11.595	-147.595	   9.246
     52.0219	  17.000	  11.575	-140.575	   9.234
     52.0553	  19.000	  11.556	-138.556	   9.222
     52.0887	  17.000	  11.539	-140.539	   9.210
     52.1222	  21.000	  11.523	-136.523	   9.198
     52.1556	  15.000	  11.509	-142.509	   9.186
     52.1890	   8.000	  11.496	-149.496	   9.174
     52.2224	  14.000	  11.484	-143.484	   9.162
     52.2559	  12.000	  11.474	-145.474	   9.150
     52.2893	  13.000	  11.464	-144.464	   9.138
     52.3227	  12.000	  11.456	-145.456	   9.126
     52.3561	   9.000	  11.449	-148.449	   9.114
     52.3895	  10.000	  11.444	-147.444	   9.102
     52.4230	  16.000	  11.439	-141.439	   9.091
     52.4564	  15.000	  11.436	-142.436	   9.079
     52.4898	  17.000	  11.434	-140.434	   9.067
     52.5232	   7.000	  11.434	-150.434	   9.055
     52.5567	  19.000	  11.434	-138.434	   9.044
     52.5901	  14.000	  11.436	-143.436	   9.032
     52.6235	   7.000	  11.440	-150.440	   9.020
     52.6569	  16.000	  11.445	-141.445	   9.008
     52.6904	   8.000	  11.451	-149.451	   8.997
     52.7238	   6.000	  11.459	-151.459	   8.985
     52.7572	  18.000	  11.468	-139.468	   8.974
     52.7906	  14.000	  11.479	-143.479	   8.962
     52.8240	  14.000	  11.492	-143.492	   8.951
     52.8575	  14.000	  11.506	-143.506	   8.939
     52.8909	  19.000	  11.523	-138.523	   8.928
     52.9243	  10.000	  11.541	-147.541	   8.916
     52.9577	  16.000	  11.562	-141.562	   8.905
     52.9912	  18.000	  11.585	-139.585	   8.893
     53.0246	  15.000	  11.610	-142.610	   8.882
     53.0580	  12.000	  11.638	-145.638	   8.870
     53.0914	  10.000	  11.669	-147.669	   8.859
     53.1248	  14.000	  11.702	-143.702	   8.848
     53.1583	  15.000	  11.616	-142.616	   8.837
     53.1917	  16.000	  11.659	-141.659	   8.825
     53.2251	  19.000	  11.705	-138.705	   8.814
     53.2585	  15.000	  11.755	-142.755	   8.803
     53.2920	   7.000	  11.748	-150.748	   8.792
     53.3254	  18.000	  11.808	-139.808	   8.780
     53.3588	  12.000	  11.873	-145.873	   8.769
     53.3922	   9.000	  11.943	-148.943	   8.758
     53.4257	  13.000	  12.019	-145.019	   8.747
     53.4591	  10.000	  12.102	-148.102	   8.736
     53.4925	  15.000	  12.191	-143.191	   8.725
     53.5259	  18.000	  12.288	-140.288	   8.714
     53.5593	  12.000	  12.393	-146.393	   8.703
     53.5928	  17.000	  12.508	-141.508	   8.692
     53.6262	  17.000	  12.634	-141.634	   8.681
     53.6596	   8.000	  12.771	-150.771	   8.670
     53.6930	  14.000	  12.920	-144.920	   8.659
     53.7264	  18.000	  13.085	-141.085	   8.648
     53.7599	  13.000	  13.266	-146.266	   8.637
     53.7933	  13.000	  13.465	-146.465	   8.627
     53.8267	  17.000	  13.685	-142.685	   8.616
     53.8601	  25.000	  13.929	-134.929	   8.605
     53.8936	  25.000	  14.200	-135.200	   8.594
     53.9270	  21.000	  14.502	-139.502	   8.584
     53.9604	  16.000	  14.840	-144.840	   8.573
     53.9938	  16.000	  15.219	-145.219	   8.562
     54.0273	  19.000	  15.646	-142.646	   8.552
     54.0607	  20.000	  16.132	-142.132	   8.541
     54.0941	  24.000	  16.682	-138.682	   8.530
     54.1275	  27.000	  17.311	-136.311	   8.520
     54.1609	  12.000	  18.034	-152.034	   8.509
     54.1944	  31.000	  18.871	-133.871	   8.499
     54.2278	  26.000	  19.848	-139.848	   8.488
     54.2612	  24.000	  20.993	-142.993	   8.478
     54.2946	  18.000	  22.349	-150.349	   8.467
     54.3281	  26.000	  23.969	-143.969	   8.457
     54.3615	  36.000	  25.928	-135.928	   8.446
     54.3949	  42.000	  28.327	-132.327	   8.436
     54.4283	  42.000	  31.316	-135.316	   8.425
     54.4617	  52.000	  35.132	-129.132	   8.415
     54.4952	  51.000	  40.163	-135.163	   8.405
     54.5286	  64.000	  47.066	-129.066	   8.394
     54.5620	  84.000	  56.901	-118.901	   8.384
     54.5954	  79.000	  71.254	-138.254	   8.374
     54.6289	  96.000	  92.223	-142.223	   8.364
     54.6623	 133.000	 122.089	-135.089	   8.354
     54.6957	 162.000	 162.570	-146.570	   8.343
     54.7291	 216.000	 212.860	-142.860	   8.333
     54.7626	 308.000	 265.281	-103.281	   8.323
     54.7960	 339.000	 302.240	-109.240	   8.313
     54.8294	 344.000	 308.473	-110.473	   8.303
     54.8628	 320.000	 291.016	-117.016	   8.293
     54.8962	 263.000	 267.620	-150.620	   8.283
     54.9297	 273.000	 244.093	-117.093	   8.273
     54.9631	 243.000	 214.531	-117.531	   8.263
     54.9965	 172.000	 177.202	-151.202	   8.253
     55.0299	 164.000	 139.299	-121.299	   8.243
     55.0634	 108.000	 107.255	-145.255	   8.233
     55.0968	  77.000	  82.784	-151.784	   8.223
     55.1302	  65.000	  65.043	-146.043	   8.213
     55.1636	  45.000	  52.520	-153.520	   8.203
     55.1970	  50.000	  43.730	-139.730	   8.193
     55.2305	  45.000	  37.476	-138.476	   8.183
     55.2639	  37.000	  32.896	-141.896	   8.174
     55.2973	  28.000	  29.426	-147.426	   8.164
     55.3307	  32.000	  26.700	-140.700	   8.154
     55.3642	  31.000	  24.528	-139.528	   8.144
     55.3976	  34.000	  22.731	-134.731	   8.135
     55.4310	  30.000	  21.237	-137.237	   8.125
     55.4644	  28.000	  19.984	-137.984	   8.115
     55.4978	  30.000	  18.926	-134.926	   8.106
     55.5313	  22.000	  18.012	-142.012	   8.096
     55.5647	  24.000	  17.223	-139.223	   8.086
     55.5981	  17.000	  16.537	-145.537	   8.077
     55.6315	  16.000	  15.936	-145.936	   8.067
     55.6650	   9.000	  15.407	-152.407	   8.058
     55.6984	  13.000	  14.939	-147.939	   8.048
     55.7318	  10.000	  14.523	-150.523	   8.039
     55.7652	  19.000	  14.151	-141.151	   8.029
     55.7986	  16.000	  13.818	-143.818	   8.020
     55.8321	  17.000	  13.517	-142.517	   8.011
     55.8655	  13.000	  13.245	-146.245	   8.001
     55.8989	  13.000	  12.999	-145.999	   7.992
     55.9323	  16.000	  12.774	-142.774	   7.982
     55.9658	  16.000	  12.569	-142.569	   7.973
     55.9992	  25.000	  12.382	-133.382	   7.964
     56.0326	  17.000	  12.210	-141.210	   7.954
     56.0660	  14.000	  12.052	-144.052	   7.945
     56.0994	   7.000	  11.906	-150.906	   7.936
     56.1329	  15.000	  11.772	-142.772	   7.927
     56.1663	  10.000	  11.647	-147.647	   7.918
     56.1997	  10.000	  11.532	-147.532	   7.908
     56.2331	  20.000	  11.426	-137.426	   7.899
     56.2666	   7.000	  11.327	-150.327	   7.890
     56.3000	  17.000	  11.235	-140.235	   7.881
     56.3334	   7.000	  11.150	-150.150	   7.872
     56.3668	  10.000	  11.072	-147.072	   7.863
     56.4003	   9.000	  10.999	-147.999	   7.854
     56.4337	  18.000	  10.932	-138.932	   7.845
     56.4671	   9.000	  10.870	-147.870	   7.836
     56.5005	  10.000	  10.814	-146.814	   7.827
     56.5339	  24.000	  10.764	-132.764	   7.818
     56.5674	   9.000	  10.719	-147.719	   7.809
     56.6008	  16.000	  10.680	-140.680	   7.800
     56.6342	   9.000	  10.648	-147.648	   7.791
     56.6676	  13.000	  10.623	-143.623	   7.782
     56.7011	  12.000	  10.607	-144.607	   7.773
     56.7345	  19.000	  10.603	-137.603	   7.765
     56.7679	  10.000	  10.615	-146.615	   7.756
     56.8013	   4.000	  10.650	-152.650	   7.747
     56.8347	   9.000	  10.718	-147.718	   7.738
     56.8682	  12.000	  10.837	-144.837	   7.729
     56.9016	  16.000	  11.022	-141.022	   7.721
     56.9350	   6.000	  11.294	-151.294	   7.712
     56.9684	  15.000	  11.657	-142.657	   7.703
     57.0019	  17.000	  12.087	-141.087	   7.695
     57.0353	  14.000	  12.483	-144.483	   7.686
     57.0687	  16.000	  12.683	-142.683	   7.677
     57.1021	  14.000	  12.620	-144.620	   7.669
     57.1356	  10.000	  12.413	-148.413	   7.660
     57.1690	  13.000	  12.196	-145.196	   7.652
     57.2024	  14.000	  11.979	-143.979	   7.643
     57.2358	  13.000	  11.704	-144.704	   7.635
     57.2692	  10.000	  11.369	-147.369	   7.626
     57.3027	  14.000	  11.038	-143.038	   7.618
     57.3361	  15.000	  10.760	-141.760	   7.609
     57.3695	   9.000	  10.548	-147.548	   7.601
     57.4029	  12.000	  10.395	-144.395	   7.592
     57.4364	  22.000	  10.288	-134.288	   7.584
     57.4698	   8.000	  10.215	-148.215	   7.576
     57.5032	  15.000	  10.168	-141.168	   7.567
     57.5366	   7.000	  10.140	-149.140	   7.559
     57.5700	  14.000	  10.126	-142.126	   7.551
     57.6035	  16.000	  10.124	-140.124	   7.542
     57.6369	   9.000	  10.133	-147.133	   7.534
     57.6703	  14.000	  10.153	-142.153	   7.526
     57.7037	  13.000	  10.185	-143.185	   7.517
     57.7372	   8.000	  10.228	-148.228	   7.509
     57.7706	   8.000	  10.286	-148.286	   7.501
     57.8040	  17.000	  10.361	-139.361	   7.493
     57.8374	  15.000	  10.172	-141.172	   7.485
     57.8708	  21.000	  10.296	-135.296	   7.477
     57.9043	  10.000	  10.451	-146.451	   7.468
     57.9377	  19.000	  10.645	-137.645	   7.460
     57.9711	  10.000	  10.749	-146.749	   7.452
     58.0045	  22.000	  11.071	-135.071	   7.444
     58.0380	   8.000	  11.500	-149.500	   7.436
     58.0714	  18.000	  12.089	-140.089	   7.428
     58.1048	  15.000	  12.920	-143.920	   7.420
     58.1382	  18.000	  14.107	-142.107	   7.412
     58.1716	  19.000	  15.792	-142.792	   7.404
     58.2051	  27.000	  18.123	-137.123	   7.396
     58.2385	  26.000	  21.187	-141.187	   7.388
     58.2719	  30.000	  24.859	-140.859	   7.381
     58.3053	  34.000	  28.625	-140.625	   7.373
     58.3388	  25.000	  31.581	-152.581	   7.365
     58.3722	  29.000	  32.804	-149.804	   7.357
     58.4056	  32.000	  32.133	-146.133	   7.349
     58.4390	  25.000	  30.440	-151.440	   7.341
     58.4725	  33.000	  28.557	-141.557	   7.334
     58.5059	  28.000	  26.561	-144.561	   7.326
     58.5393	  21.000	  24.156	-149.156	   7.318
     58.5727	  21.000	  21.352	-146.352	   7.310
     58.6061	  15.000	  18.592	-149.592	   7.303
     58.6396	  16.000	  16.258	-146.258	   7.295
     58.6730	  14.000	  14.452	-146.452	   7.287
     58.7064	  27.000	  13.119	-132.119	   7.280
     58.7398	   8.000	  12.155	-150.155	   7.272
     58.7733	  21.000	  11.461	-136.461	   7.264
     58.8067	  13.000	  10.955	-143.955	   7.257
     58.8401	  15.000	  10.577	-141.577	   7.249
     58.8735	  14.000	  10.286	-142.286	   7.242
     58.9069	  12.000	  10.055	-144.055	   7.234
     58.9404	  19.000	   9.867	-136.867	   7.227
     58.9738	  16.000	   9.711	-139.711	   7.219
     59.0072	  17.000	   9.579	-138.579	   7.212
     59.0406	  14.000	   9.467	-141.467	   7.204
     59.0741	  14.000	   9.370	-141.370	   7.197
     59.1075	  17.000	   9.286	-138.286	   7.189
     59.1409	  12.000	   9.212	-143.212	   7.182
     59.1743	  10.000	   9.147	-145.147	   7.175
     59.2077	  13.000	   9.088	-142.088	   7.167
     59.2412	  14.000	   9.036	-141.036	   7.160
     59.2746	  21.000	   8.989	-133.989	   7.153
     59.3080	  12.000	   8.947	-142.947	   7.145
     59.3414	  13.000	   8.908	-141.908	   7.138
     59.3749	  17.000	   8.872	-137.872	   7.131
     59.4083	  19.000	   8.839	-135.839	   7.124
     59.4417	  13.000	   8.809	-141.809	   7.116
     59.4751	  10.000	   8.781	-144.781	   7.109
     59.5086	  15.000	   8.754	-139.754	   7.102
     59.5420	   8.000	   8.730	-146.730	   7.095
     59.5754	  13.000	   8.707	-141.707	   7.088
     59.6088	  16.000	   8.685	-138.685	   7.080
     59.6422	  22.000	   8.664	-132.664	   7.073
     59.6757	  16.000	   8.645	-138.645	   7.066
     59.7091	  16.000	   8.626	-138.626	   7.059
     59.7425	  14.000	   8.608	-140.608	   7.052
     59.7759	  13.000	   8.591	-141.591	   7.045
     59.8093	  14.000	   8.575	-140.575	   7.038
     59.8428	   7.000	   8.559	-147.559	   7.031
     59.8762	  14.000	   8.545	-140.545	   7.024
     59.9096	  15.000	   8.530	-139.530	   7.017
     59.9430	  18.000	   8.516	-136.516	   7.010
     59.9765	  18.000	   8.503	-136.503	   7.003
     60.0099	  16.000	   8.490	-138.490	   6.996
     60.0433	  18.000	   8.477	-136.477	   6.989
     60.0767	  18.000	   8.465	-136.465	   6.982
     60.1102	  20.000	   8.450	-134.450	   6.975
     60.1436	  15.000	   8.438	-139.438	   6.968
     60.1770	   8.000	   8.427	-146.427	   6.962
     60.2104	   8.000	   8.416	-146.416	   6.955
     60.2438	  14.000	   8.405	-140.405	   6.948
     60.2773	  24.000	   8.393	-130.393	   6.941
     60.3107	  14.000	   8.383	-140.383	   6.934
     60.3441	  13.000	   8.373	-141.373	   6.928
     60.3775	   9.000	   8.472	-145.472	   6.921
     60.4110	  10.000	   8.464	-144.464	   6.914
     60.4444	  17.000	   8.457	-137.457	   6.908
     60.4778	  13.000	   8.450	-141.450	   6.901
     60.5112	  10.000	   8.444	-144.444	   6.894
     60.5446	  12.000	   8.491	-142.491	   6.888
     60.5781	  17.000	   8.486	-137.486	   6.881
     60.6115	  16.000	   8.482	-138.482	   6.874
     60.6449	  10.000	   8.477	-144.477	   6.868
     60.6783	  12.000	   8.473	-142.473	   6.861
     60.7118	  19.000	   8.469	-135.469	   6.854
     60.7452	  15.000	   8.465	-139.465	   6.848
     60.7786	  10.000	   8.462	-144.462	   6.841
     60.8120	   8.000	   8.459	-146.459	   6.835
     60.8455	   7.000	   8.456	-147.456	   6.828
     60.8789	  13.000	   8.454	-141.454	   6.822
     60.9123	  10.000	   8.452	-144.452	   6.815
     60.9457	  13.000	   8.450	-141.450	   6.809
     60.9791	  13.000	   8.448	-141.448	   6.803
     61.0126	  15.000	   8.447	-139.447	   6.796
     61.0460	   8.000	   8.446	-146.446	   6.790
     61.0794	  15.000	   8.446	-139.446	   6.783
     61.1128	   4.000	   8.446	-150.446	   6.777
     61.1463	   8.000	   8.446	-146.446	   6.771
     61.1797	  10.000	   8.447	-144.447	   6.764
     61.2131	  19.000	   8.448	-135.448	   6.758
     61.2465	  14.000	   8.449	-140.449	   6.752
     61.2799	  13.000	   8.451	-141.451	   6.745
     61.3134	  10.000	   8.454	-144.454	   6.739
     61.3468	  10.000	   8.457	-144.457	   6.733
     61.3802	  13.000	   8.454	-141.454	   6.727
     61.4136	  12.000	   8.439	-142.439	   6.720
     61.4471	   8.000	   8.444	-146.444	   6.714
     61.4805	  12.000	   8.450	-142.450	   6.708
     61.5139	   7.000	   8.453	-147.453	   6.702
     61.5473	   7.000	   8.460	-147.460	   6.696
     61.5807	   8.000	   8.459	-146.459	   6.689
     61.6142	  19.000	   8.468	-135.468	   6.683
     61.6476	  14.000	   8.478	-140.478	   6.677
     61.6810	  10.000	   8.489	-144.489	   6.671
     61.7144	  22.000	   8.500	-132.500	   6.665
     61.7479	  14.000	   8.513	-140.513	   6.659
     61.7813	   9.000	   8.527	-145.527	   6.653
     61.8147	   6.000	   8.543	-148.543	   6.647
     61.8481	   8.000	   8.559	-146.559	   6.641
     61.8816	   8.000	   8.577	-146.577	   6.635
     61.9150	   6.000	   8.597	-148.597	   6.629
     61.9484	  14.000	   8.618	-140.618	   6.623
     61.9818	  10.000	   8.641	-144.641	   6.617
     62.0152	  10.000	   8.808	-144.808	   6.611
     62.0487	  17.000	   8.838	-137.838	   6.605
     62.0821	   4.000	   8.871	-150.871	   6.599
     62.1155	  18.000	   8.907	-136.907	   6.593
     62.1489	  14.000	   8.946	-140.946	   6.587
     62.1824	  13.000	   9.058	-142.058	   6.581
     62.2158	  13.000	   9.106	-142.106	   6.575
     62.2492	   6.000	   9.158	-149.158	   6.570
     62.2826	  10.000	   9.214	-145.214	   6.564
     62.3160	  18.000	   9.276	-137.276	   6.558
     62.3495	  12.000	   9.343	-143.343	   6.552
     62.3829	  13.000	   9.417	-142.417	   6.546
     62.4163	  12.000	   9.498	-143.498	   6.541
     62.4497	  17.000	   9.587	-138.587	   6.535
     62.4832	   9.000	   9.686	-146.686	   6.529
     62.5166	  10.000	   9.795	-145.795	   6.523
     62.5500	  12.000	   9.917	-143.917	   6.518
     62.5834	  12.000	  10.052	-144.052	   6.512
     62.6168	  10.000	  10.203	-146.203	   6.506
     62.6503	  10.000	  10.373	-146.373	   6.501
     62.6837	  10.000	  10.564	-146.564	   6.495
     62.7171	  10.000	  10.782	-146.782	   6.489
     62.7505	   9.000	  11.029	-148.029	   6.484
     62.7840	  21.000	  11.313	-136.313	   6.478
     62.8174	  19.000	  11.640	-138.640	   6.473
     62.8508	  16.000	  12.019	-142.019	   6.467
     62.8842	  15.000	  12.463	-143.463	   6.461
     62.9176	  12.000	  12.987	-146.987	   6.456
     62.9511	  18.000	  13.611	-141.611	   6.450
     62.9845	  13.000	  14.364	-147.364	   6.445
     63.0179	  10.000	  15.285	-151.285	   6.439
     63.0513	  14.000	  16.437	-148.437	   6.434
     63.0848	  29.000	  17.915	-134.915	   6.428
     63.1182	  25.000	  19.867	-140.867	   6.423
     63.1516	  17.000	  22.523	-151.523	   6.417
     63.1850	  29.000	  26.207	-143.207	   6.412
     63.2185	  27.000	  31.353	-150.353	   6.406
     63.2519	  42.000	  38.448	-142.448	   6.401
     63.2853	  48.000	  47.957	-145.957	   6.396
     63.3187	  43.000	  60.069	-163.069	   6.390
     63.3521	  61.000	  74.093	-159.093	   6.385
     63.3856	  91.000	  87.512	-142.512	   6.379
     63.4190	 103.000	  95.913	-138.913	   6.374
     63.4524	  89.000	  96.444	-153.444	   6.369
     63.4858	  93.000	  91.286	-144.286	   6.363
     63.5193	  88.000	  84.881	-142.881	   6.358
     63.5527	  68.000	  79.336	-157.336	   6.353
     63.5861	  61.000	  73.642	-158.642	   6.348
     63.6195	  79.000	  65.951	-132.951	   6.342
     63.6529	  65.000	  56.367	-137.367	   6.337
     63.6864	  43.000	  46.696	-149.696	   6.332
     63.7198	  32.000	  38.348	-152.348	   6.327
     63.7532	  29.000	  31.750	-148.750	   6.321
     63.7866	  24.000	  26.773	-148.773	   6.316
     63.8201	  14.000	  23.112	-155.112	   6.311
     63.8535	  21.000	  20.448	-145.448	   6.306
     63.8869	  21.000	  18.505	-143.505	   6.301
     63.9203	  20.000	  17.068	-143.068	   6.296
     63.9538	  14.000	  15.987	-147.987	   6.290
     63.9872	  17.000	  15.157	-144.157	   6.285
     64.0206	  14.000	  14.507	-146.507	   6.280
     64.0540	  14.000	  13.997	-145.997	   6.275
     64.0874	  18.000	  13.596	-141.596	   6.270
     64.1209	  20.000	  13.285	-139.285	   6.265
     64.1543	  21.000	  13.050	-138.050	   6.260
     64.1877	  15.000	  12.879	-143.879	   6.255
     64.2211	  18.000	  12.767	-140.767	   6.250
     64.2545	  13.000	  12.709	-145.709	   6.245
     64.2880	  16.000	  12.703	-142.703	   6.240
     64.3214	  13.000	  12.746	-145.746	   6.235
     64.3548	   8.000	  12.841	-150.841	   6.230
     64.3882	  18.000	  12.990	-140.990	   6.225
     64.4217	  13.000	  13.197	-146.197	   6.220
     64.4551	  13.000	  13.468	-146.468	   6.215
     64.4885	   8.000	  13.812	-151.812	   6.210
     64.5219	  20.000	  14.243	-140.243	   6.205
     64.5554	  21.000	  14.775	-139.775	   6.200
     64.5888	   9.000	  15.432	-152.432	   6.195
     64.6222	  17.000	  16.244	-145.244	   6.190
     64.6556	  15.000	  17.254	-148.254	   6.185
     64.6890	  17.000	  18.530	-147.530	   6.181
     64.7225	  18.000	  20.172	-148.172	   6.176
     64.7559	  27.000	  22.338	-141.338	   6.171
     64.7893	  26.000	  25.268	-145.268	   6.166
     64.8227	  24.000	  29.311	-151.311	   6.161
     64.8562	  36.000	  34.933	-144.933	   6.156
     64.8896	  40.000	  42.701	-148.701	   6.152
     64.9230	  44.000	  53.186	-155.186	   6.147
     64.9564	  60.000	  66.764	-152.764	   6.142
     64.9898	  79.000	  83.127	-150.127	   6.137
     65.0233	  96.000	 100.261	-150.261	   6.133
     65.0567	 152.000	 113.631	-107.631	   6.128
     65.0901	 100.000	 118.354	-164.354	   6.123
     65.1235	 116.000	 114.357	-144.357	   6.118
     65.1570	 100.000	 106.535	-152.535	   6.114
     65.1904	  81.000	  99.159	-164.159	   6.109
     65.2238	 112.000	  92.762	-126.762	   6.104
     65.2572	  72.000	  85.158	-159.158	   6.100
     65.2906	  70.000	  74.792	-150.792	   6.095
     65.3241	  49.000	  62.828	-159.828	   6.090
     65.3575	  37.000	  51.464	-160.464	   6.086
     65.3909	  30.000	  41.942	-157.942	   6.081
     65.4243	  28.000	  34.492	-152.492	   6.077
     65.4578	  27.000	  28.865	-147.865	   6.072
     65.4912	  26.000	  24.688	-144.688	   6.067
     65.5246	  14.000	  21.599	-153.599	   6.063
     65.5580	  17.000	  19.296	-148.296	   6.058
     65.5915	  15.000	  17.545	-148.545	   6.054
     65.6249	  15.000	  16.182	-147.182	   6.049
     65.6583	  14.000	  15.093	-147.093	   6.045
     65.6917	  18.000	  14.204	-142.204	   6.040
     65.7251	  19.000	  13.465	-140.465	   6.036
     65.7586	   8.000	  12.844	-150.844	   6.031
     65.7920	  13.000	  12.314	-145.314	   6.027
     65.8254	  14.000	  11.859	-143.859	   6.022
     65.8588	  13.000	  11.466	-144.466	   6.018
     65.8923	  13.000	  11.122	-144.122	   6.013
     65.9257	  14.000	  10.821	-142.821	   6.009
     65.9591	   7.000	  10.555	-149.555	   6.004
     65.9925	  10.000	  10.318	-146.318	   6.000
     66.0259	  16.000	  10.108	-140.108	   5.995
     66.0594	  14.000	   9.919	-141.919	   5.991
     66.0928	  12.000	   9.749	-143.749	   5.987
     66.1262	   6.000	   9.596	-149.596	   5.982
     66.1596	   5.000	   9.457	-150.457	   5.978
     66.1931	  13.000	   9.331	-142.331	   5.974
     66.2265	  16.000	   9.215	-139.215	   5.969
     66.2599	   9.000	   9.110	-146.110	   5.965
     66.2933	  12.000	   9.014	-143.014	   5.960
     66.3267	   8.000	   8.925	-146.925	   5.956
     66.3602	   9.000	   8.844	-145.844	   5.952
     66.3936	   8.000	   8.769	-146.769	   5.948
     66.4270	  10.000	   8.700	-144.700	   5.943
     66.4604	   7.000	   8.637	-147.637	   5.939
     66.4939	   8.000	   8.579	-146.579	   5.935
     66.5273	  13.000	   8.421	-141.421	   5.930
     66.5607	   3.000	   8.375	-151.375	   5.926
     66.5941	  20.000	   8.333	-134.333	   5.922
     66.6275	   7.000	   8.297	-147.297	   5.918
     66.6610	   8.000	   8.265	-146.265	   5.913
     66.6944	   9.000	   8.186	-145.186	   5.909
     66.7278	  19.000	   8.168	-135.168	   5.905
     66.7612	  13.000	   8.158	-141.158	   5.901
     66.7947	  10.000	   8.158	-144.158	   5.897
     66.8281	   7.000	   8.174	-147.174	   5.893
     66.8615	   5.000	   8.209	-149.209	   5.888
     66.8949	   4.000	   8.268	-150.268	   5.884
     66.9284	   7.000	   8.357	-147.357	   5.880
     66.9618	   7.000	   8.477	-147.477	   5.876
     66.9952	   7.000	   8.620	-147.620	   5.872
     67.0286	   6.000	   8.758	-148.758	   5.868
     67.0620	   3.000	   8.841	-151.841	   5.864
     67.0955	   6.000	   8.833	-148.833	   5.859
     67.1289	   3.000	   8.754	-151.754	   5.855
     67.1623	   7.000	   8.654	-147.654	   5.851
     67.1957	   9.000	   8.566	-145.566	   5.847
     67.2292	   6.000	   8.486	-148.486	   5.843
     67.2626	  12.000	   8.392	-142.392	   5.839
     67.2960	   7.000	   8.272	-147.272	   5.835
     67.3294	   8.000	   8.138	-146.138	   5.831
     67.3628	  10.000	   8.011	-144.011	   5.827
     67.3963	   6.000	   7.903	-147.903	   5.823
     67.4297	   8.000	   7.815	-145.815	   5.819
     67.4631	   3.000	   7.746	-150.746	   5.815
     67.4965	   7.000	   7.690	-146.690	   5.811
     67.5300	  15.000	   7.645	-138.645	   5.807
     67.5634	   9.000	   7.609	-144.609	   5.803
     67.5968	   7.000	   7.578	-146.578	   5.799
     67.6302	   9.000	   7.552	-144.552	   5.795
     67.6637	   4.000	   7.529	-149.529	   5.791
     67.6971	  10.000	   7.508	-143.508	   5.787
     67.7305	   8.000	   7.489	-145.489	   5.783
     67.7639	   6.000	   7.471	-147.471	   5.779
     67.7973	  12.000	   7.455	-141.455	   5.775
     67.8308	   4.000	   7.440	-149.440	   5.772
     67.8642	   6.000	   7.425	-147.425	   5.768
     67.8976	   8.000	   7.411	-145.411	   5.764
     67.9310	   7.000	   7.398	-146.398	   5.760
     67.9645	   4.000	   7.386	-149.386	   5.756
     67.9979	   8.000	   7.374	-145.374	   5.752
     68.0313	  10.000	   7.363	-143.363	   5.748
     68.0647	   7.000	   7.352	-146.352	   5.744
     68.0981	   8.000	   7.341	-145.341	   5.741
     68.1316	   6.000	   7.331	-147.331	   5.737
     68.1650	   5.000	   7.321	-148.321	   5.733
     68.1984	   4.000	   7.176	-149.176	   5.729
     68.2318	   6.000	   7.169	-147.169	   5.725
     68.2653	   5.000	   7.163	-148.163	   5.722
     68.2987	  13.000	   7.157	-140.157	   5.718
     68.3321	   6.000	   7.150	-147.150	   5.714
     68.3655	  10.000	   7.076	-143.076	   5.710
     68.3989	   9.000	   7.072	-144.072	   5.706
     68.4324	   1.000	   7.068	-152.068	   5.703
     68.4658	  12.000	   7.063	-141.063	   5.699
     68.4992	   5.000	   7.059	-148.059	   5.695
     68.5326	  14.000	   7.055	-139.055	   5.691
     68.5661	   4.000	   7.051	-149.051	   5.688
     68.5995	   9.000	   7.047	-144.047	   5.684
     68.6329	  13.000	   7.043	-140.043	   5.680
     68.6663	   3.000	   7.039	-150.039	   5.677
     68.6997	   7.000	   7.035	-146.035	   5.673
     68.7332	   5.000	   7.031	-148.031	   5.669
     68.7666	   5.000	   7.027	-148.027	   5.666
     68.8000	   3.000	   7.023	-150.023	   5.662
     68.8334	   2.000	   7.020	-151.020	   5.658
     68.8669	  15.000	   7.016	-138.016	   5.655
     68.9003	  13.000	   7.012	-140.012	   5.651
     68.9337	   3.000	   7.008	-150.008	   5.647
     68.9671	   7.000	   7.005	-146.005	   5.644
     69.0005	   8.000	   7.001	-145.001	   5.640
     69.0340	  10.000	   6.998	-142.998	   5.636
     69.0674	   3.000	   6.994	-149.994	   5.633
     69.1008	   8.000	   6.990	-144.990	   5.629
     69.1342	   9.000	   6.987	-143.987	   5.626
     69.1677	   4.000	   6.983	-148.983	   5.622
     69.2011	   4.000	   6.980	-148.980	   5.618
     69.2345	   8.000	   6.977	-144.977	   5.615
     69.2679	   9.000	   6.973	-143.973	   5.611
     69.3014	   8.000	   6.970	-144.970	   5.608
     69.3348	   6.000	   6.967	-146.967	   5.604
     69.3682	   8.000	   6.964	-144.964	   5.601
     69.4016	   7.000	   6.960	-145.960	   5.597
     69.4350	   6.000	   6.957	-146.957	   5.593
     69.4685	   8.000	   6.954	-144.954	   5.590
     69.5019	   4.000	   6.951	-148.951	   5.586
     69.5353	   8.000	   6.948	-144.948	   5.583
     69.5687	   5.000	   6.946	-147.946	   5.579
     69.6022	   7.000	   6.943	-145.943	   5.576
     69.6356	   6.000	   6.940	-146.940	   5.572
     69.6690	   4.000	   6.938	-148.938	   5.569
     69.7024	   1.000	   6.935	-151.935	   5.565
     69.7358	  10.000	   6.989	-142.989	   5.562
     69.7693	   4.000	   6.988	-148.988	   5.558
     69.8027	  12.000	   6.988	-140.988	   5.555
     69.8361	   8.000	   6.987	-144.987	   5.552
     69.8695	  13.000	   6.987	-139.987	   5.548
     69.9030	   6.000	   6.987	-146.987	   5.545
     69.9364	   8.000	   7.016	-145.016	   5.541
     69.9698	  12.000	   7.018	-141.018	   5.538
     70.0032	   6.000	   7.020	-147.020	   5.534
     70.0367	   5.000	   7.023	-148.023	   5.531
     70.0701	   8.000	   7.026	-145.026	   5.527
     70.1035	   3.000	   7.031	-150.031	   5.524
     70.1369	   5.000	   7.047	-148.047	   5.521
     70.1703	   4.000	   7.055	-149.055	   5.517
     70.2038	   6.000	   7.063	-147.063	   5.514
     70.2372	   4.000	   7.076	-149.076	   5.510
     70.2706	  15.000	   7.092	-138.092	   5.507
     70.3040	   7.000	   7.114	-146.114	   5.504
     70.3374	   7.000	   7.150	-146.150	   5.500
     70.3709	   9.000	   7.190	-144.190	   5.497
     70.4043	  13.000	   7.244	-140.244	   5.494
     70.4377	  12.000	   7.316	-141.316	   5.490
     70.4711	   3.000	   7.407	-150.407	   5.487
     70.5046	  10.000	   7.514	-143.514	   5.484
     70.5380	   7.000	   7.625	-146.625	   5.480
     70.5714	   9.000	   7.713	-144.713	   5.477
     70.6048	   7.000	   7.750	-146.750	   5.474
     70.6383	   6.000	   7.732	-147.732	   5.470
     70.6717	   8.000	   7.684	-145.684	   5.467
     70.7051	   6.000	   7.636	-147.636	   5.464
     70.7385	   8.000	   7.598	-145.598	   5.460
     70.7719	   4.000	   7.563	-149.563	   5.457
     70.8054	   6.000	   7.516	-147.516	   5.454
     70.8388	   5.000	   7.451	-148.451	   5.451
     70.8722	   4.000	   7.380	-149.380	   5.447
     70.9056	   6.000	   7.313	-147.313	   5.444
     70.9391	   8.000	   7.257	-145.257	   5.441
     70.9725	   7.000	   7.214	-146.214	   5.438
     71.0059	  12.000	   7.182	-141.182	   5.434
     71.0393	   8.000	   7.160	-145.160	   5.431
     71.0727	   7.000	   7.145	-146.145	   5.428
     71.1062	   4.000	   7.135	-149.135	   5.425
     71.1396	   4.000	   7.129	-149.129	   5.421
     71.1730	   6.000	   7.127	-147.127	   5.418
     71.2064	  16.000	   7.127	-137.127	   5.415
     71.2399	   5.000	   7.129	-148.129	   5.412
     71.2733	   8.000	   7.133	-145.133	   5.408
     71.3067	   5.000	   7.139	-148.139	   5.405
     71.3401	   6.000	   7.146	-147.146	   5.402
     71.3736	   3.000	   7.155	-150.155	   5.399
     71.4070	   7.000	   7.165	-146.165	   5.396
     71.4404	   6.000	   7.176	-147.176	   5.392
     71.4738	  10.000	   7.189	-143.189	   5.389
     71.5072	   9.000	   7.203	-144.203	   5.386
     71.5407	   9.000	   7.219	-144.219	   5.383
     71.5741	  10.000	   7.236	-143.236	   5.380
     71.6075	   3.000	   7.256	-150.256	   5.377
     71.6409	   9.000	   7.277	-144.277	   5.373
     71.6744	   2.000	   7.300	-151.300	   5.370
     71.7078	   9.000	   7.326	-144.326	   5.367
     71.7412	   7.000	   7.354	-146.354	   5.364
     71.7746	   8.000	   7.385	-145.385	   5.361
     71.8080	   6.000	   7.420	-147.420	   5.358
     71.8415	   8.000	   7.457	-145.457	   5.355
     71.8749	   6.000	   7.499	-147.499	   5.352
     71.9083	  10.000	   7.545	-143.545	   5.348
     71.9417	   8.000	   7.596	-145.596	   5.345
     71.9752	   7.000	   7.652	-146.652	   5.342
     72.0086	   9.000	   7.715	-144.715	   5.339
     72.0420	   6.000	   7.785	-147.785	   5.336
     72.0754	   8.000	   7.863	-145.863	   5.333
     72.1088	   9.000	   7.951	-144.951	   5.330
     72.1423	   6.000	   8.050	-148.050	   5.327
     72.1757	   6.000	   8.163	-148.163	   5.324
     72.2091	  10.000	   8.291	-144.291	   5.321
     72.2425	   7.000	   8.437	-147.437	   5.318
     72.2760	  14.000	   8.605	-140.605	   5.314
     72.3094	   8.000	   8.799	-146.799	   5.311
     72.3428	   9.000	   9.026	-146.026	   5.308
     72.3762	  13.000	   9.292	-142.292	   5.305
     72.4097	   8.000	   9.608	-147.608	   5.302
     72.4431	  10.000	   9.987	-145.987	   5.299
     72.4765	   8.000	  10.450	-148.450	   5.296
     72.5099	  12.000	  11.024	-145.024	   5.293
     72.5433	   8.000	  11.754	-149.754	   5.290
     72.5768	   7.000	  12.700	-151.700	   5.287
     72.6102	  16.000	  13.950	-143.950	   5.284
     72.6436	   7.000	  15.615	-154.615	   5.281
     72.6770	  13.000	  17.832	-150.832	   5.278
     72.7104	  25.000	  20.750	-141.750	   5.275
     72.7439	  20.000	  24.498	-150.498	   5.272
     72.7773	  36.000	  29.112	-139.112	   5.269
     72.8107	  30.000	  34.362	-150.362	   5.266
     72.8441	  38.000	  39.498	-147.498	   5.263
     72.8776	  57.000	  43.202	-132.202	   5.260
     72.9110	  69.000	  44.334	-121.334	   5.257
     72.9444	  41.000	  43.061	-148.061	   5.254
     72.9778	  44.000	  40.728	-142.728	   5.251
     73.0113	  43.000	  38.585	-141.585	   5.248
     73.0447	  28.000	  37.052	-155.052	   5.245
     73.0781	  45.000	  35.739	-136.739	   5.242
     73.1115	  46.000	  33.971	-133.971	   5.239
     73.1449	  33.000	  31.520	-144.520	   5.236
     73.1784	  42.000	  28.812	-132.812	   5.233
     73.2118	  28.000	  26.377	-144.377	   5.230
     73.2452	  34.000	  24.405	-136.405	   5.227
     73.2786	  21.000	  22.735	-147.735	   5.224
     73.3121	  19.000	  21.104	-148.104	   5.221
     73.3455	  24.000	  19.448	-141.448	   5.218
     73.3789	  21.000	  17.914	-142.914	   5.215
     73.4123	  12.000	  16.651	-150.651	   5.213
     73.4457	  21.000	  15.671	-140.671	   5.210
     73.4792	  14.000	  14.857	-146.857	   5.207
     73.5126	  16.000	  14.042	-144.042	   5.204
     73.5460	  12.000	  13.147	-147.147	   5.201
     73.5794	  14.000	  12.252	-144.252	   5.198
     73.6129	  10.000	  11.390	-147.390	   5.195
     73.6463	  12.000	  10.648	-144.648	   5.192
     73.6797	   8.000	  10.037	-148.037	   5.189
     73.7131	   7.000	   9.543	-148.543	   5.186
     73.7466	  13.000	   9.147	-142.147	   5.183
     73.7800	   7.000	   8.828	-147.828	   5.180
     73.8134	   9.000	   8.587	-145.587	   5.178
     73.8468	  13.000	   8.376	-141.376	   5.175
     73.8802	  14.000	   8.201	-140.201	   5.172
     73.9137	   7.000	   8.053	-147.053	   5.169
     73.9471	   8.000	   7.926	-145.926	   5.166
     73.9805	   4.000	   7.816	-149.816	   5.163
     74.0139	   7.000	   7.719	-146.719	   5.160
     74.0474	   5.000	   7.634	-148.634	   5.157
     74.0808	   8.000	   7.558	-145.558	   5.155
     74.1142	  10.000	   7.490	-143.490	   5.152
     74.1476	  10.000	   7.429	-143.429	   5.149
     74.1810	   6.000	   7.374	-147.374	   5.146
     74.2145	  16.000	   7.324	-137.324	   5.143
     74.2479	   5.000	   7.279	-148.279	   5.140
     74.2813	   8.000	   7.237	-145.237	   5.137
     74.3147	   8.000	   7.199	-145.199	   5.135
     74.3482	  12.000	   7.164	-141.164	   5.132
     74.3816	   8.000	   7.133	-145.133	   5.129
     74.4150	  12.000	   7.103	-141.103	   5.126
     74.4484	  12.000	   7.076	-141.076	   5.123
     74.4818	   6.000	   7.051	-147.051	   5.120
     74.5153	   7.000	   7.028	-146.028	   5.118
     74.5487	   8.000	   7.006	-145.006	   5.115
     74.5821	  10.000	   6.986	-142.986	   5.112
     74.6155	   7.000	   6.968	-145.968	   5.109
     74.6490	   6.000	   6.951	-146.951	   5.106
     74.6824	   7.000	   6.935	-145.935	   5.103
     74.7158	   4.000	   6.920	-148.920	   5.101
     74.7492	  13.000	   6.906	-139.906	   5.098
     74.7826	   3.000	   6.894	-149.894	   5.095
     74.8161	  13.000	   6.882	-139.882	   5.092
     74.8495	   4.000	   6.871	-148.871	   5.089
     74.8829	   7.000	   6.861	-145.861	   5.087
     74.9163	   6.000	   6.852	-146.852	   5.084
     74.9498	   7.000	   6.844	-145.844	   5.081
     74.9832	   2.000	   6.837	-150.837	   5.078
     75.0166	   4.000	   6.830	-148.830	   5.075
     75.0500	   2.000	   6.824	-150.824	   5.073
     75.0835	   4.000	   6.819	-148.819	   5.070
     75.1169	   7.000	   6.815	-145.815	   5.067
     75.1503	   6.000	   6.811	-146.811	   5.064
     75.1837	  10.000	   6.808	-142.808	   5.061
     75.2171	   8.000	   6.806	-144.806	   5.059
     75.2506	   3.000	   6.805	-149.805	   5.056
     75.2840	   6.000	   6.804	-146.804	   5.053
     75.3174	   7.000	   6.805	-145.805	   5.050
     75.3508	  12.000	   6.806	-140.806	   5.048
     75.3843	   6.000	   6.808	-146.808	   5.045
     75.4177	   5.000	   6.811	-147.811	   5.042
     75.4511	  13.000	   6.815	-139.815	   5.039
     75.4845	   9.000	   6.821	-143.821	   5.037
     75.5179	  13.000	   6.827	-139.827	   5.034
     75.5514	   8.000	   6.835	-144.835	   5.031
     75.5848	  16.000	   6.844	-136.844	   5.028
     75.6182	   8.000	   6.855	-144.855	   5.026
     75.6516	   5.000	   6.867	-147.867	   5.023
     75.6851	  12.000	   6.881	-140.881	   5.020
     75.7185	  10.000	   6.897	-142.897	   5.017
     75.7519	   8.000	   6.916	-144.916	   5.015
     75.7853	   6.000	   6.960	-146.960	   5.012
     75.8187	   7.000	   6.985	-145.985	   5.009
     75.8522	   6.000	   7.013	-147.013	   5.006
     75.8856	  13.000	   7.044	-140.044	   5.004
     75.9190	  10.000	   7.081	-143.081	   5.001
     75.9524	   6.000	   7.122	-147.122	   4.998
     75.9859	  10.000	   7.170	-143.170	   4.996
     76.0193	   7.000	   7.237	-146.237	   4.993
     76.0527	   2.000	   7.302	-151.302	   4.990
     76.0861	   4.000	   7.324	-149.324	   4.987
     76.1196	   5.000	   7.416	-148.416	   4.985
     76.1530	  13.000	   7.526	-140.526	   4.982
     76.1864	   2.000	   7.657	-151.657	   4.979
     76.2198	  10.000	   7.814	-143.814	   4.977
     76.2532	  12.000	   8.001	-142.001	   4.974
     76.2867	   5.000	   8.220	-149.220	   4.971
     76.3201	  13.000	   8.441	-141.441	   4.968
     76.3535	   6.000	   8.710	-148.710	   4.966
     76.3869	   7.000	   8.994	-147.994	   4.963
     76.4204	  13.000	   9.306	-142.306	   4.960
     76.4538	   9.000	   9.683	-146.683	   4.958
     76.4872	  13.000	  10.177	-143.177	   4.955
     76.5206	  12.000	  10.834	-144.834	   4.952
     76.5540	  10.000	  11.727	-147.727	   4.950
     76.5875	  17.000	  12.901	-141.901	   4.947
     76.6209	   8.000	  14.413	-152.413	   4.944
     76.6543	  13.000	  16.311	-149.311	   4.942
     76.6877	   9.000	  18.592	-155.592	   4.939
     76.7212	  24.000	  21.105	-143.105	   4.936
     76.7546	  18.000	  23.468	-151.468	   4.933
     76.7880	  28.000	  25.055	-143.055	   4.931
     76.8214	  24.000	  25.397	-147.397	   4.928
     76.8548	  18.000	  24.626	-152.626	   4.925
     76.8883	  25.000	  23.353	-144.353	   4.923
     76.9217	   6.000	  22.158	-162.158	   4.920
     76.9551	  18.000	  21.244	-149.244	   4.917
     76.9885	  29.000	  20.478	-137.478	   4.915
     77.0220	  19.000	  19.531	-146.531	   4.912
     77.0554	  29.000	  18.186	-135.186	   4.909
     77.0888	  15.000	  16.528	-147.528	   4.907
     77.1222	  16.000	  14.820	-144.820	   4.904
     77.1556	  15.000	  13.276	-144.276	   4.902
     77.1891	  13.000	  11.979	-144.979	   4.899
     77.2225	   9.000	  10.937	-147.937	   4.896
     77.2559	  12.000	  10.118	-144.118	   4.894
     77.2893	  13.000	   9.482	-142.482	   4.891
     77.3228	  18.000	   8.990	-136.990	   4.888
     77.3562	  10.000	   8.607	-144.607	   4.886
     77.3896	  16.000	   8.306	-138.306	   4.883
     77.4230	   5.000	   8.066	-149.066	   4.880
     77.4565	  10.000	   7.871	-143.871	   4.878
     77.4899	  12.000	   7.711	-141.711	   4.875
     77.5233	  13.000	   7.577	-140.577	   4.872
     77.5567	   7.000	   7.464	-146.464	   4.870
     77.5901	   9.000	   7.369	-144.369	   4.867
     77.6236	   8.000	   7.287	-145.287	   4.865
     77.6570	  12.000	   7.217	-141.217	   4.862
     77.6904	  13.000	   7.156	-140.156	   4.859
     77.7238	   8.000	   7.105	-145.105	   4.857
     77.7573	   4.000	   7.060	-149.060	   4.854
     77.7907	   9.000	   7.022	-144.022	   4.851
     77.8241	   3.000	   6.989	-149.989	   4.849
     77.8575	   7.000	   6.962	-145.962	   4.846
     77.8909	   6.000	   6.939	-146.939	   4.844
     77.9244	  10.000	   6.921	-142.921	   4.841
     77.9578	   5.000	   6.907	-147.907	   4.838
     77.9912	   7.000	   6.897	-145.897	   4.836
     78.0246	  10.000	   6.890	-142.890	   4.833
     78.0581	   7.000	   6.887	-145.887	   4.830
     78.0915	   5.000	   6.888	-147.888	   4.828
     78.1249	  10.000	   6.893	-142.893	   4.825
     78.1583	   9.000	   6.902	-143.902	   4.823
     78.1917	   5.000	   6.915	-147.915	   4.820
     78.2252	   8.000	   6.933	-144.933	   4.817
     78.2586	  10.000	   6.956	-142.956	   4.815
     78.2920	   4.000	   6.985	-148.985	   4.812
     78.3254	  13.000	   7.020	-140.020	   4.810
     78.3589	   3.000	   7.062	-150.062	   4.807
     78.3923	   6.000	   7.113	-147.113	   4.804
     78.4257	  13.000	   7.174	-140.174	   4.802
     78.4591	   7.000	   7.247	-146.247	   4.799
     78.4926	   8.000	   7.334	-145.334	   4.797
     78.5260	   9.000	   7.439	-144.439	   4.794
     78.5594	   5.000	   7.566	-148.566	   4.791
     78.5928	  13.000	   7.722	-140.722	   4.789
     78.6262	   8.000	   7.917	-145.917	   4.786
     78.6597	   7.000	   8.161	-147.161	   4.784
     78.6931	   8.000	   8.475	-146.475	   4.781
     78.7265	  10.000	   8.885	-144.885	   4.779
     78.7599	   8.000	   9.431	-147.431	   4.776
     78.7934	   7.000	  10.127	-149.127	   4.773
     78.8268	  17.000	  11.029	-140.029	   4.771
     78.8602	   9.000	  12.176	-149.176	   4.768
     78.8936	  18.000	  13.590	-141.590	   4.766
     78.9270	  16.000	  15.243	-145.243	   4.763
     78.9605	  17.000	  16.998	-145.998	   4.761
     78.9939	  27.000	  18.550	-137.549	   4.758
     79.0273	  34.000	  19.474	-131.474	   4.755
     79.0607	  27.000	  19.543	-138.543	   4.753
     79.0942	  20.000	  18.925	-144.925	   4.750
     79.1276	  18.000	  18.041	-146.041	   4.748
     79.1610	  20.000	  17.242	-143.242	   4.745
     79.1944	  14.000	  16.645	-148.645	   4.743
     79.2278	  15.000	  16.151	-147.151	   4.740
     79.2613	  21.000	  15.542	-140.542	   4.738
     79.2947	  16.000	  14.666	-144.666	   4.735
     79.3281	  18.000	  13.565	-141.565	   4.732
     79.3615	  19.000	  12.406	-139.406	   4.730
     79.3950	  15.000	  11.339	-142.339	   4.727
     79.4284	  10.000	  10.432	-146.432	   4.725
     79.4618	   4.000	   9.696	-151.696	   4.722
     79.4952	   8.000	   9.114	-147.114	   4.720
     79.5286	   6.000	   8.662	-148.662	   4.717
     79.5621	  12.000	   8.315	-142.315	   4.715
     79.5955	  12.000	   8.048	-142.048	   4.712
     79.6289	   7.000	   7.844	-146.844	   4.710
     79.6623	   9.000	   7.690	-144.690	   4.707
     79.6958	   8.000	   7.574	-145.574	   4.704
     79.7292	   9.000	   7.492	-144.492	   4.702
     79.7626	   7.000	   7.437	-146.437	   4.699
     79.7960	   6.000	   7.410	-147.410	   4.697
     79.8295	   5.000	   7.412	-148.412	   4.694
     79.8629	   8.000	   7.445	-145.445	   4.692
     79.8963	   6.000	   7.517	-147.517	   4.689
     79.9297	  12.000	   7.634	-141.634	   4.687
     79.9631	   8.000	   7.806	-145.806	   4.684
     79.9966	  13.000	   8.041	-141.041	   4.682
     80.0300	   9.000	   8.347	-145.347	   4.679
     80.0634	   9.000	   8.690	-145.690	   4.677
     80.0968	  10.000	   9.107	-145.107	   4.674
     80.1303	  16.000	   9.502	-139.502	   4.672
     80.1637	  13.000	   9.776	-142.776	   4.669
     80.1971	   7.000	   9.847	-148.847	   4.667
     80.2305	   8.000	   9.722	-147.722	   4.664
     80.2639	   4.000	   9.476	-151.476	   4.662
     80.2974	  10.000	   9.242	-145.242	   4.659
     80.3308	  13.000	   9.058	-142.058	   4.657
     80.3642	  13.000	   8.918	-141.918	   4.654
     80.3976	   7.000	   8.776	-147.776	   4.652
     80.4311	   8.000	   8.581	-146.581	   4.649
     80.4645	  13.000	   8.319	-141.319	   4.647
     80.4979	   8.000	   8.021	-146.021	   4.644
     80.5313	  13.000	   7.729	-140.729	   4.642
     80.5648	   6.000	   7.472	-147.472	   4.639
     80.5982	   8.000	   7.259	-145.259	   4.637
     80.6316	  10.000	   7.089	-143.089	   4.634
     80.6650	   7.000	   6.957	-145.957	   4.632
     80.6984	  14.000	   6.857	-138.857	   4.629
     80.7319	  12.000	   6.784	-140.784	   4.627
     80.7653	   9.000	   6.733	-143.733	   4.624
     80.7987	  14.000	   6.700	-138.700	   4.622
     80.8321	  13.000	   6.681	-139.681	   4.619
     80.8656	   9.000	   6.700	-143.700	   4.617
     80.8990	   5.000	   6.694	-147.694	   4.614
     80.9324	   4.000	   6.685	-148.685	   4.612
     80.9658	  13.000	   6.668	-139.668	   4.609
     80.9992	   6.000	   6.647	-146.647	   4.607
     81.0327	  10.000	   6.626	-142.626	   4.604
     81.0661	  12.000	   6.609	-140.609	   4.602
     81.0995	  13.000	   6.598	-139.598	   4.599
     81.1329	   6.000	   6.607	-146.607	   4.597
     81.1664	   8.000	   6.604	-144.604	   4.594
     81.1998	  12.000	   6.600	-140.600	   4.592
     81.2332	  16.000	   6.596	-136.596	   4.590
     81.2666	  12.000	   6.594	-140.594	   4.587
     81.3000	   6.000	   6.597	-146.597	   4.585
     81.3335	   6.000	   6.606	-146.606	   4.582
     81.3669	  10.000	   6.623	-142.623	   4.580
     81.4003	  10.000	   6.648	-142.648	   4.577
     81.4337	  13.000	   6.681	-139.680	   4.575
     81.4672	   6.000	   6.723	-146.723	   4.572
     81.5006	   8.000	   6.776	-144.776	   4.570
     81.5340	   8.000	   6.842	-144.842	   4.567
     81.5674	   6.000	   6.923	-146.923	   4.565
     81.6008	   9.000	   7.023	-144.023	   4.563
     81.6343	  10.000	   7.149	-143.149	   4.560
     81.6677	  10.000	   7.309	-143.309	   4.558
     81.7011	  14.000	   7.512	-139.512	   4.555
     81.7345	   7.000	   7.775	-146.775	   4.553
     81.7680	  10.000	   8.114	-144.114	   4.550
     81.8014	   6.000	   8.552	-148.552	   4.548
     81.8348	   7.000	   9.111	-148.111	   4.546
     81.8682	   8.000	   9.810	-147.810	   4.543
     81.9016	   7.000	  10.657	-149.657	   4.541
     81.9351	  14.000	  11.627	-143.627	   4.538
     81.9685	  19.000	  12.638	-139.638	   4.536
     82.0019	  14.000	  13.527	-145.527	   4.534
     82.0353	  18.000	  14.091	-142.091	   4.531
     82.0688	  18.000	  14.196	-142.196	   4.529
     82.1022	  29.000	  13.895	-130.895	   4.526
     82.1356	  15.000	  13.395	-144.395	   4.524
     82.1690	  17.000	  12.898	-141.898	   4.521
     82.2025	  10.000	  12.505	-148.505	   4.519
     82.2359	  17.000	  12.199	-141.199	   4.517
     82.2693	   7.000	  11.883	-150.883	   4.514
     82.3027	  12.000	  11.439	-145.439	   4.512
     82.3361	  17.000	  10.864	-139.864	   4.510
     82.3696	  10.000	  10.199	-146.199	   4.507
     82.4030	  10.000	   9.535	-145.535	   4.505
     82.4364	  10.000	   8.937	-144.937	   4.502
     82.4698	   6.000	   8.432	-148.432	   4.500
     82.5033	  10.000	   8.021	-144.021	   4.498
     82.5367	  10.000	   7.693	-143.693	   4.495
     82.5701	  13.000	   7.427	-140.427	   4.493
     82.6035	   7.000	   7.224	-146.224	   4.490
     82.6369	   8.000	   7.064	-145.064	   4.488
     82.6704	   9.000	   6.937	-143.937	   4.486
     82.7038	   5.000	   6.836	-147.836	   4.483
     82.7372	  10.000	   6.755	-142.755	   4.481
     82.7706	  14.000	   6.689	-138.689	   4.479
     82.8041	  13.000	   6.635	-139.635	   4.476
     82.8375	   6.000	   6.591	-146.591	   4.474
     82.8709	   7.000	   6.554	-145.554	   4.472
     82.9043	   3.000	   6.525	-149.525	   4.469
     82.9378	   3.000	   6.501	-149.501	   4.467
     82.9712	   4.000	   6.483	-148.483	   4.465
     83.0046	  10.000	   6.469	-142.469	   4.462
     83.0380	   5.000	   6.459	-147.459	   4.460
     83.0714	  17.000	   6.453	-135.453	   4.458
     83.1049	  15.000	   6.451	-137.451	   4.455
     83.1383	  14.000	   6.484	-138.484	   4.453
     83.1717	   9.000	   6.490	-143.490	   4.451
     83.2051	  14.000	   6.499	-138.499	   4.448
     83.2385	  16.000	   6.513	-136.513	   4.446
     83.2720	  14.000	   6.530	-138.530	   4.444
     83.3054	   7.000	   6.552	-145.552	   4.441
     83.3388	  13.000	   6.578	-139.578	   4.439
     83.3722	  20.000	   6.624	-132.624	   4.437
     83.4057	  10.000	   6.662	-142.662	   4.434
     83.4391	  10.000	   6.705	-142.705	   4.432
     83.4725	   7.000	   6.750	-145.750	   4.430
     83.5059	   9.000	   6.809	-143.809	   4.427
     83.5394	  13.000	   6.878	-139.878	   4.425
     83.5728	   7.000	   6.958	-145.958	   4.423
     83.6062	   9.000	   7.051	-144.051	   4.421
     83.6396	  12.000	   7.161	-141.161	   4.418
     83.6730	   9.000	   7.291	-144.291	   4.416
     83.7065	   8.000	   7.443	-145.443	   4.414
     83.7399	   9.000	   7.630	-144.630	   4.411
     83.7733	   8.000	   7.858	-145.858	   4.409
     83.8067	   8.000	   8.141	-146.141	   4.407
     83.8402	  10.000	   8.497	-144.497	   4.405
     83.8736	   8.000	   8.948	-146.948	   4.402
     83.9070	  14.000	   9.525	-141.525	   4.400
     83.9404	  13.000	  10.263	-143.263	   4.398
     83.9738	  14.000	  11.201	-143.201	   4.396
     84.0073	  14.000	  12.379	-144.379	   4.393
     84.0407	  18.000	  13.824	-141.824	   4.391
     84.0741	  16.000	  15.527	-145.527	   4.389
     84.1075	  13.000	  17.400	-150.400	   4.387
     84.1410	  20.000	  19.217	-145.217	   4.384
     84.1744	  26.000	  20.607	-140.607	   4.382
     84.2078	  31.000	  21.214	-136.214	   4.380
     84.2412	  27.000	  20.962	-139.962	   4.378
     84.2747	  15.000	  20.139	-151.139	   4.376
     84.3081	  18.000	  19.158	-147.158	   4.373
     84.3415	  24.000	  18.319	-140.319	   4.371
     84.3749	  18.000	  17.709	-145.709	   4.369
     84.4083	  14.000	  17.229	-149.229	   4.367
     84.4418	  19.000	  16.668	-143.668	   4.365
     84.4752	  16.000	  15.847	-145.847	   4.362
     84.5086	  15.000	  14.755	-145.755	   4.360
     84.5420	  10.000	  13.528	-149.528	   4.358
     84.5755	   6.000	  12.332	-152.332	   4.356
     84.6089	  10.000	  11.269	-147.269	   4.354
     84.6423	   7.000	  10.374	-149.374	   4.351
     84.6757	   9.000	   9.645	-146.645	   4.349
     84.7091	  14.000	   9.062	-141.062	   4.347
     84.7426	   6.000	   8.600	-148.600	   4.345
     84.7760	   8.000	   8.235	-146.235	   4.343
     84.8094	   9.000	   7.948	-144.948	   4.341
     84.8428	   4.000	   7.721	-149.721	   4.338
     84.8763	  10.000	   7.541	-143.541	   4.336
     84.9097	   6.000	   7.397	-147.397	   4.334
     84.9431	   7.000	   7.283	-146.283	   4.332
     84.9765	   7.000	   7.191	-146.191	   4.330
     85.0099	  10.000	   7.120	-143.120	   4.328
     85.0434	   4.000	   7.065	-149.065	   4.326
     85.0768	   8.000	   7.026	-145.026	   4.323
     85.1102	  18.000	   7.001	-135.001	   4.321
     85.1436	   8.000	   6.991	-144.991	   4.319
     85.1771	   8.000	   6.995	-144.995	   4.317
     85.2105	  13.000	   7.016	-140.016	   4.315
     85.2439	  17.000	   7.055	-136.055	   4.313
     85.2773	  10.000	   7.115	-143.115	   4.311
     85.3108	  10.000	   7.203	-143.203	   4.309
     85.3442	  14.000	   7.322	-139.322	   4.307
     85.3776	   8.000	   7.471	-145.471	   4.305
     85.4110	  17.000	   7.683	-136.683	   4.302
     85.4444	   9.000	   7.954	-144.954	   4.300
     85.4779	  13.000	   8.289	-141.289	   4.298
     85.5113	  14.000	   8.690	-140.690	   4.296
     85.5447	  10.000	   9.139	-145.139	   4.294
     85.5781	  17.000	   9.590	-138.590	   4.292
     85.6116	   7.000	   9.964	-148.964	   4.290
     85.6450	  14.000	  10.168	-142.168	   4.288
     85.6784	  21.000	  10.182	-135.182	   4.286
     85.7118	  12.000	  10.047	-144.047	   4.284
     85.7452	  12.000	   9.859	-143.859	   4.282
     85.7787	   9.000	   9.699	-146.699	   4.280
     85.8121	   8.000	   9.601	-147.601	   4.278
     85.8455	  15.000	   9.557	-140.557	   4.276
     85.8789	  14.000	   9.526	-141.526	   4.274
     85.9124	   8.000	   9.464	-147.464	   4.272
     85.9458	  10.000	   9.352	-145.352	   4.270
     85.9792	  16.000	   9.216	-139.216	   4.268
     86.0126	   5.000	   9.099	-150.099	   4.266
     86.0460	  13.000	   9.041	-142.041	   4.264
     86.0795	  10.000	   9.069	-145.069	   4.262
     86.1129	   9.000	   9.200	-146.200	   4.260
     86.1463	  10.000	   9.452	-145.452	   4.258
     86.1797	  17.000	   9.845	-138.845	   4.256
     86.2132	   6.000	  10.404	-150.404	   4.254
     86.2466	   9.000	  11.159	-148.159	   4.252
     86.2800	  14.000	  12.143	-144.143	   4.250
     86.3134	  10.000	  13.380	-149.380	   4.248
     86.3468	  10.000	  14.880	-150.880	   4.246
     86.3803	  18.000	  16.592	-144.592	   4.245
     86.4137	  20.000	  18.369	-144.369	   4.243
     86.4471	  20.000	  19.923	-145.923	   4.241
     86.4805	  16.000	  20.894	-150.893	   4.239
     86.5140	  22.000	  21.051	-145.051	   4.237
     86.5474	  19.000	  20.489	-147.489	   4.235
     86.5808	  24.000	  19.556	-141.556	   4.233
     86.6142	  13.000	  18.609	-151.609	   4.231
     86.6477	  16.000	  17.854	-147.854	   4.229
     86.6811	  15.000	  17.312	-148.312	   4.227
     86.7145	  15.000	  16.912	-147.912	   4.226
     86.7479	  17.000	  16.339	-145.339	   4.224
     86.7813	  15.000	  15.505	-146.505	   4.222
     86.8148	  18.000	  14.423	-142.423	   4.220
     86.8482	  27.000	  13.229	-132.229	   4.218
     86.8816	  18.000	  12.072	-140.072	   4.216
     86.9150	   8.000	  11.040	-149.040	   4.215
     86.9485	  13.000	  10.165	-143.165	   4.213
     86.9819	  12.000	   9.444	-143.444	   4.211
     87.0153	   9.000	   8.889	-145.889	   4.209
     87.0487	  13.000	   8.419	-141.419	   4.207
     87.0821	   9.000	   8.042	-145.042	   4.206
     87.1156	   9.000	   7.738	-144.738	   4.204
     87.1490	   9.000	   7.492	-144.492	   4.202
     87.1824	  16.000	   7.289	-137.289	   4.200
     87.2158	  14.000	   7.122	-139.122	   4.199
     87.2493	  10.000	   6.981	-142.981	   4.197
     87.2827	   6.000	   6.861	-146.861	   4.195
     87.3161	   9.000	   6.759	-143.759	   4.193
     87.3495	   9.000	   6.670	-143.670	   4.192
     87.3829	   4.000	   6.592	-148.592	   4.190
     87.4164	   5.000	   6.524	-147.524	   4.188
     87.4498	   9.000	   6.464	-143.464	   4.186
     87.4832	   6.000	   6.411	-146.411	   4.185
     87.5166	  10.000	   6.363	-142.363	   4.183
     87.5501	   5.000	   6.321	-147.321	   4.181
     87.5835	   8.000	   6.254	-144.254	   4.180
     87.6169	   7.000	   6.221	-145.221	   4.178
     87.6503	   8.000	   6.191	-144.191	   4.176
     87.6838	   5.000	   6.164	-147.164	   4.175
     87.7172	  16.000	   6.140	-136.140	   4.173
     87.7506	   7.000	   6.118	-145.118	   4.171
     87.7840	  18.000	   6.098	-134.098	   4.170
     87.8174	  10.000	   6.066	-142.066	   4.168
     87.8509	   9.000	   6.050	-143.050	   4.167
     87.8843	   6.000	   6.036	-146.036	   4.165
     87.9177	   8.000	   6.024	-144.024	   4.163
     87.9511	   2.000	   6.013	-150.013	   4.162
     87.9846	   3.000	   6.003	-149.003	   4.160
     88.0180	   3.000	   5.995	-148.995	   4.159
     88.0514	   5.000	   5.987	-146.987	   4.157
     88.0848	   2.000	   5.981	-149.981	   4.155
     88.1182	  10.000	   5.976	-141.976	   4.154
     88.1517	   6.000	   5.972	-145.972	   4.152
     88.1851	  12.000	   5.969	-139.969	   4.151
     88.2185	   8.000	   5.967	-143.967	   4.149
     88.2519	   6.000	   5.965	-145.965	   4.148
     88.2854	   8.000	   5.965	-143.965	   4.146
     88.3188	   7.000	   5.966	-144.966	   4.145
     88.3522	   6.000	   5.967	-145.967	   4.143
     88.3856	   7.000	   5.969	-144.969	   4.142
     88.4190	  12.000	   5.973	-139.973	   4.140
     88.4525	   8.000	   5.977	-143.977	   4.139
     88.4859	   9.000	   5.982	-142.982	   4.137
     88.5193	   6.000	   5.989	-145.989	   4.136
     88.5527	   8.000	   5.996	-143.996	   4.135
     88.5862	   9.000	   6.005	-143.005	   4.133
     88.6196	   7.000	   6.014	-145.014	   4.132
     88.6530	   8.000	   6.025	-144.025	   4.130
     88.6864	   1.000	   6.037	-151.037	   4.129
     88.7198	   9.000	   6.051	-143.051	   4.127
     88.7533	  10.000	   6.066	-142.066	   4.126
     88.7867	  12.000	   6.082	-140.082	   4.125
     88.8201	   8.000	   6.101	-144.101	   4.123
     88.8535	   7.000	   6.121	-145.121	   4.122
     88.8870	   4.000	   6.143	-148.143	   4.121
     88.9204	   9.000	   6.167	-143.167	   4.119
     88.9538	  12.000	   6.194	-140.194	   4.118
     88.9872	  10.000	   6.223	-142.223	   4.117
     89.0207	   9.000	   6.256	-143.256	   4.115
     89.0541	   7.000	   6.284	-145.284	   4.114
     89.0875	   7.000	   6.323	-145.323	   4.113
     89.1209	   6.000	   6.366	-146.366	   4.112
     89.1543	   4.000	   6.414	-148.414	   4.110
     89.1878	   8.000	   6.467	-144.467	   4.109
     89.2212	   7.000	   6.525	-145.525	   4.108
     89.2546	   3.000	   6.590	-149.590	   4.107
     89.2880	   9.000	   6.662	-143.662	   4.105
     89.3215	   9.000	   6.738	-143.738	   4.104
     89.3549	   7.000	   6.828	-145.828	   4.103
     89.3883	   7.000	   6.930	-145.930	   4.102
     89.4217	   7.000	   7.044	-146.044	   4.101
     89.4551	   7.000	   7.173	-146.173	   4.099
     89.4886	  14.000	   7.321	-139.321	   4.098
     89.5220	   8.000	   7.490	-145.490	   4.097
     89.5554	   9.000	   7.685	-144.685	   4.096
     89.5888	  16.000	   7.911	-137.911	   4.095
     89.6223	  13.000	   8.175	-141.175	   4.094
     89.6557	   7.000	   8.493	-147.493	   4.093
     89.6891	   5.000	   8.863	-149.863	   4.092
     89.7225	   5.000	   9.309	-150.309	   4.091
     89.7560	  12.000	   9.848	-143.848	   4.089
     89.7894	   8.000	  10.508	-148.508	   4.088
     89.8228	   7.000	  11.322	-150.322	   4.087
     89.8562	   6.000	  12.335	-152.335	   4.086
     89.8896	  12.000	  13.569	-147.569	   4.085
     89.9231	  16.000	  15.147	-145.147	   4.084
     89.9565	  15.000	  17.088	-148.088	   4.083
     89.9899	  16.000	  19.434	-149.434	   4.082
     90.0233	  18.000	  22.179	-150.179	   4.081
     90.0567	  17.000	  25.213	-154.213	   4.080
     90.0902	  37.000	  28.258	-137.258	   4.079
     90.1236	  32.000	  30.830	-144.830	   4.079
     90.1570	  57.000	  32.356	-121.356	   4.078
     90.1904	  38.000	  32.555	-140.555	   4.077
     90.2239	  46.000	  31.589	-131.589	   4.076
     90.2573	  30.000	  30.008	-146.008	   4.075
     90.2907	  34.000	  28.378	-140.378	   4.074
     90.3241	  25.000	  27.049	-148.049	   4.073
     90.3576	  13.000	  26.101	-159.101	   4.072
     90.3910	  24.000	  25.381	-147.381	   4.072
     90.4244	  25.000	  24.590	-145.590	   4.071
     90.4578	  34.000	  23.439	-135.439	   4.070
     90.4912	  26.000	  21.830	-141.830	   4.069
     90.5247	  17.000	  19.902	-148.902	   4.068
     90.5581	  14.000	  17.897	-149.897	   4.068
     90.5915	  17.000	  16.014	-145.014	   4.067
     90.6249	  15.000	  14.359	-145.359	   4.066
     90.6584	   9.000	  12.959	-149.959	   4.065
     90.6918	  13.000	  11.800	-144.800	   4.065
     90.7252	   9.000	  10.853	-147.853	   4.064
     90.7586	  15.000	  10.084	-141.084	   4.063
     90.7920	   9.000	   9.459	-146.459	   4.063
     90.8255	   3.000	   8.951	-151.951	   4.062
     90.8589	  15.000	   8.535	-139.535	   4.061
     90.8923	   8.000	   8.191	-146.191	   4.061
     90.9257	   9.000	   7.903	-144.903	   4.060
     90.9592	  16.000	   7.660	-137.660	   4.059
     90.9926	  10.000	   7.453	-143.453	   4.059
     91.0260	   7.000	   7.274	-146.274	   4.058
     91.0594	   4.000	   7.118	-149.118	   4.058
     91.0928	  12.000	   6.982	-140.982	   4.057
     91.1263	  16.000	   6.862	-136.862	   4.057
     91.1597	   8.000	   6.755	-144.755	   4.056
     91.1931	   9.000	   6.660	-143.660	   4.056
     91.2265	  12.000	   6.576	-140.576	   4.055
     91.2600	   6.000	   6.500	-146.500	   4.055
     91.2934	  10.000	   6.431	-142.431	   4.054
     91.3268	  13.000	   6.369	-139.369	   4.054
     91.3602	   7.000	   6.313	-145.313	   4.053
     91.3937	  12.000	   6.262	-140.262	   4.053
     91.4271	   5.000	   6.216	-147.216	   4.052
     91.4605	   8.000	   6.173	-144.173	   4.052
     91.4939	   5.000	   6.135	-147.135	   4.052
     91.5273	   4.000	   6.099	-148.099	   4.051
     91.5608	  10.000	   6.067	-142.067	   4.051
     91.5942	   4.000	   6.037	-148.037	   4.051
     91.6276	   7.000	   6.009	-145.009	   4.050
     91.6610	  13.000	   5.984	-138.984	   4.050
     91.6945	   5.000	   5.961	-146.961	   4.050
     91.7279	   7.000	   5.986	-144.986	   4.050
     91.7613	   9.000	   5.967	-142.967	   4.049
     91.7947	   9.000	   5.950	-142.950	   4.049
     91.8281	   6.000	   5.935	-145.935	   4.049
     91.8616	   6.000	   5.921	-145.921	   4.049
     91.8950	   6.000	   5.908	-145.908	   4.048
     91.9284	   3.000	   5.896	-148.896	   4.048
     91.9618	   8.000	   5.886	-143.886	   4.048
     91.9953	   8.000	   5.877	-143.877	   4.048
     92.0287	  14.000	   5.893	-137.893	   4.048
     92.0621	   6.000	   5.886	-145.886	   4.048
     92.0955	   8.000	   5.881	-143.881	   4.048
     92.1289	   9.000	   5.877	-142.877	   4.048
     92.1624	   7.000	   5.875	-144.875	   4.048
     92.1958	   7.000	   5.873	-144.873	   4.048
     92.2292	   3.000	   5.873	-148.873	   4.048
     92.2626	   8.000	   5.874	-143.874	   4.048
     92.2961	   7.000	   5.876	-144.876	   4.048
     92.3295	   4.000	   5.880	-147.880	   4.048
     92.3629	   9.000	   5.886	-142.886	   4.048
     92.3963	   8.000	   5.893	-143.893	   4.048
     92.4297	   7.000	   5.903	-144.903	   4.048
     92.4632	   8.000	   5.915	-143.915	   4.048
     92.4966	  14.000	   5.929	-137.929	   4.048
     92.5300	   7.000	   5.946	-144.946	   4.048
     92.5634	  12.000	   5.967	-139.967	   4.048
     92.5969	   6.000	   5.992	-145.992	   4.049
     92.6303	  10.000	   6.023	-142.023	   4.049
     92.6637	   8.000	   6.060	-144.060	   4.049
     92.6971	   7.000	   6.105	-145.105	   4.049
     92.7306	  15.000	   6.161	-137.161	   4.050
     92.7640	   6.000	   6.230	-146.230	   4.050
     92.7974	   5.000	   6.315	-147.315	   4.050
     92.8308	  12.000	   6.422	-140.422	   4.050
     92.8642	   6.000	   6.554	-146.554	   4.051
     92.8977	  14.000	   6.717	-138.717	   4.051
     92.9311	  14.000	   6.916	-138.916	   4.051
     92.9645	   6.000	   7.153	-147.153	   4.052
     92.9979	   4.000	   7.429	-149.429	   4.052
     93.0314	  10.000	   7.732	-143.732	   4.053
     93.0648	   6.000	   8.036	-148.036	   4.053
     93.0982	   4.000	   8.298	-150.298	   4.054
     93.1316	   7.000	   8.466	-147.466	   4.054
     93.1650	  15.000	   8.512	-139.512	   4.055
     93.1985	   7.000	   8.436	-147.436	   4.055
     93.2319	  14.000	   8.290	-140.290	   4.056
     93.2653	   6.000	   8.127	-148.127	   4.056
     93.2987	   9.000	   7.988	-144.988	   4.057
     93.3322	  13.000	   7.887	-140.887	   4.057
     93.3656	   4.000	   7.818	-149.818	   4.058
     93.3990	   8.000	   7.757	-145.757	   4.059
     93.4324	   8.000	   7.676	-145.676	   4.059
     93.4659	  15.000	   7.555	-138.555	   4.060
     93.4993	   9.000	   7.391	-144.391	   4.061
     93.5327	   8.000	   7.204	-145.204	   4.062
     93.5661	  13.000	   7.017	-140.017	   4.062
     93.5995	   7.000	   6.845	-145.845	   4.063
     93.6330	   9.000	   6.639	-143.639	   4.064
     93.6664	  12.000	   6.517	-140.517	   4.065
     93.6998	   7.000	   6.417	-145.417	   4.065
     93.7332	   4.000	   6.339	-148.339	   4.066
     93.7667	   7.000	   6.277	-145.277	   4.067
     93.8001	   9.000	   6.230	-143.230	   4.068
     93.8335	   5.000	   6.196	-147.196	   4.069
     93.8669	   7.000	   6.171	-145.171	   4.070
     93.9003	   6.000	   6.154	-146.154	   4.071
     93.9338	  14.000	   6.116	-138.116	   4.072
     93.9672	   6.000	   6.122	-146.122	   4.073
     94.0006	   8.000	   6.124	-144.124	   4.074
     94.0340	   9.000	   6.130	-143.130	   4.075
     94.0675	  12.000	   6.141	-140.141	   4.076
     94.1009	   7.000	   6.155	-145.155	   4.077
     94.1343	  12.000	   6.174	-140.174	   4.078
     94.1677	   7.000	   6.196	-145.196	   4.079
     94.2011	   9.000	   6.223	-143.223	   4.081
     94.2346	  17.000	   6.254	-135.254	   4.082
     94.2680	   3.000	   6.289	-149.289	   4.083
     94.3014	   5.000	   6.333	-147.333	   4.084
     94.3348	  12.000	   6.378	-140.378	   4.086
     94.3683	   6.000	   6.429	-146.429	   4.087
     94.4017	  13.000	   6.486	-139.486	   4.088
     94.4351	   8.000	   6.549	-144.549	   4.089
     94.4685	   9.000	   6.621	-143.621	   4.091
     94.5019	   2.000	   6.702	-150.702	   4.092
     94.5354	   7.000	   6.794	-145.794	   4.094
     94.5688	   7.000	   6.897	-145.897	   4.095
     94.6022	   7.000	   7.014	-146.014	   4.097
     94.6356	   5.000	   7.148	-148.148	   4.098
     94.6691	   5.000	   7.302	-148.302	   4.099
     94.7025	  12.000	   7.480	-141.480	   4.101
     94.7359	  14.000	   7.687	-139.687	   4.103
     94.7693	  14.000	   7.930	-139.930	   4.104
     94.8027	  12.000	   8.220	-142.220	   4.106
     94.8362	   8.000	   8.567	-146.567	   4.107
     94.8696	  13.000	   8.987	-141.987	   4.109
     94.9030	   9.000	   9.500	-146.500	   4.111
     94.9364	  12.000	  10.130	-144.130	   4.112
     94.9699	  17.000	  10.905	-139.905	   4.114
     95.0033	  19.000	  11.856	-138.856	   4.116
     95.0367	  24.000	  13.016	-135.016	   4.118
     95.0701	   6.000	  14.416	-154.416	   4.119
     95.1036	  16.000	  16.073	-146.073	   4.121
     95.1370	  13.000	  17.973	-150.973	   4.123
     95.1704	  25.000	  20.040	-141.040	   4.125
     95.2038	  19.000	  22.093	-149.093	   4.127
     95.2372	  25.000	  23.843	-144.843	   4.129
     95.2707	  26.000	  24.956	-144.956	   4.131
     95.3041	  27.000	  25.224	-144.224	   4.133
     95.3375	  31.000	  24.707	-139.707	   4.135
     95.3709	  28.000	  23.701	-141.701	   4.137
     95.4044	  27.000	  22.559	-141.559	   4.139
     95.4378	  22.000	  21.548	-145.548	   4.141
     95.4712	  19.000	  20.787	-147.787	   4.143
     95.5046	  13.000	  20.258	-153.258	   4.145
     95.5380	  15.000	  19.833	-150.833	   4.147
     95.5715	  18.000	  19.323	-147.323	   4.150
     95.6049	  19.000	  18.563	-145.563	   4.152
     95.6383	  16.000	  17.508	-147.508	   4.154
     95.6717	  16.000	  16.239	-146.239	   4.156
     95.7052	  15.000	  14.903	-145.903	   4.159
     95.7386	   6.000	  13.625	-153.625	   4.161
     95.7720	  21.000	  12.478	-137.478	   4.163
     95.8054	  12.000	  11.488	-145.488	   4.166
     95.8389	  13.000	  10.655	-143.655	   4.168
     95.8723	   6.000	   9.964	-149.964	   4.171
     95.9057	   6.000	   9.395	-149.395	   4.173
     95.9391	   6.000	   8.929	-148.929	   4.176
     95.9725	  17.000	   8.547	-137.547	   4.178
     96.0060	   6.000	   8.235	-148.235	   4.181
     96.0394	   6.000	   7.979	-147.979	   4.183
     96.0728	   8.000	   7.768	-145.768	   4.186
     96.1062	  10.000	   7.593	-143.593	   4.189
     96.1397	   9.000	   7.449	-144.449	   4.191
     96.1731	   8.000	   7.330	-145.330	   4.194
     96.2065	   9.000	   7.233	-144.233	   4.197
     96.2399	   6.000	   7.156	-147.156	   4.200
     96.2733	   6.000	   7.097	-147.097	   4.202
     96.3068	  12.000	   7.056	-141.056	   4.205
     96.3402	   6.000	   7.032	-147.032	   4.208
     96.3736	  13.000	   7.026	-140.026	   4.211
     96.4070	  10.000	   7.040	-143.040	   4.214
     96.4405	  10.000	   7.076	-143.076	   4.217
     96.4739	  17.000	   7.135	-136.135	   4.220
     96.5073	   4.000	   7.220	-149.220	   4.223
     96.5407	   8.000	   7.332	-145.332	   4.226
     96.5741	   6.000	   7.470	-147.470	   4.229
     96.6076	  14.000	   7.628	-139.628	   4.232
     96.6410	   9.000	   7.793	-144.793	   4.235
     96.6744	   4.000	   7.936	-149.936	   4.238
     96.7078	  12.000	   8.041	-142.041	   4.242
     96.7413	   6.000	   8.078	-148.078	   4.245
     96.7747	  10.000	   8.046	-144.046	   4.248
     96.8081	   8.000	   7.965	-145.965	   4.251
     96.8415	  12.000	   7.866	-141.866	   4.255
     96.8749	  15.000	   7.775	-138.775	   4.258
     96.9084	   8.000	   7.708	-145.708	   4.261
     96.9418	   8.000	   7.668	-145.668	   4.265
     96.9752	   8.000	   7.645	-145.645	   4.268
     97.0086	   6.000	   7.633	-147.633	   4.272
     97.0421	  10.000	   7.612	-143.612	   4.275
     97.0755	  13.000	   7.574	-140.574	   4.279
     97.1089	  13.000	   7.523	-140.523	   4.283
     97.1423	   7.000	   7.471	-146.471	   4.286
     97.1758	   4.000	   7.434	-149.434	   4.290
     97.2092	   7.000	   7.425	-146.425	   4.294
     97.2426	   6.000	   7.453	-147.453	   4.297
     97.2760	  13.000	   7.525	-140.525	   4.301
     97.3094	   8.000	   7.644	-145.644	   4.305
     97.3429	   6.000	   7.817	-147.817	   4.309
     97.3763	  12.000	   8.044	-142.044	   4.313
     97.4097	   7.000	   8.327	-147.327	   4.316
     97.4431	  14.000	   8.656	-140.656	   4.320
     97.4766	  17.000	   9.012	-138.012	   4.324
     97.5100	   9.000	   9.354	-146.354	   4.328
     97.5434	  14.000	   9.626	-141.626	   4.332
     97.5768	  15.000	   9.772	-140.772	   4.336
     97.6102	  13.000	   9.767	-142.767	   4.341
     97.6437	   8.000	   9.631	-147.631	   4.345
     97.6771	   8.000	   9.421	-147.421	   4.349
     97.7105	  13.000	   9.198	-142.198	   4.353
     97.7439	  10.000	   9.004	-145.004	   4.357
     97.7774	   6.000	   8.858	-148.858	   4.362
     97.8108	  17.000	   8.755	-137.755	   4.366
     97.8442	   6.000	   8.673	-148.673	   4.370
     97.8776	   4.000	   8.579	-150.579	   4.375
     97.9110	   9.000	   8.443	-145.443	   4.379
     97.9445	   9.000	   8.253	-145.253	   4.384
     97.9779	  12.000	   8.021	-142.021	   4.388
     98.0113	   7.000	   7.772	-146.772	   4.393
     98.0447	   9.000	   7.528	-144.528	   4.397
     98.0782	  10.000	   7.306	-143.306	   4.402
     98.1116	   9.000	   7.112	-144.112	   4.407
     98.1450	   8.000	   6.947	-144.947	   4.411
     98.1784	  10.000	   6.808	-142.808	   4.416
     98.2119	   6.000	   6.693	-146.693	   4.421
     98.2453	   8.000	   6.598	-144.598	   4.426
     98.2787	   4.000	   6.521	-148.521	   4.430
     98.3121	   4.000	   6.457	-148.457	   4.435
     98.3455	   7.000	   6.405	-145.405	   4.440
     98.3790	   3.000	   6.363	-149.363	   4.445
     98.4124	   4.000	   6.329	-148.329	   4.450
     98.4458	   6.000	   6.301	-146.301	   4.455
     98.4792	   2.000	   6.279	-150.279	   4.460
     98.5126	   7.000	   6.263	-145.263	   4.465
     98.5461	   9.000	   6.250	-143.250	   4.471
     98.5795	   6.000	   6.240	-146.240	   4.476
     98.6129	   3.000	   6.231	-149.231	   4.481
     98.6463	  13.000	   6.223	-139.223	   4.486
     98.6798	   5.000	   6.214	-147.214	   4.492
     98.7132	   6.000	   6.203	-146.203	   4.497
     98.7466	   6.000	   6.192	-146.192	   4.502
     98.7800	   4.000	   6.180	-148.180	   4.508
     98.8135	   5.000	   6.170	-147.170	   4.513
     98.8469	   9.000	   6.161	-143.161	   4.519
     98.8803	   7.000	   6.109	-145.109	   4.524
     98.9137	   4.000	   6.105	-148.105	   4.530
     98.9471	   9.000	   6.101	-143.101	   4.536
     98.9806	   7.000	   6.098	-145.098	   4.541
     99.0140	  12.000	   6.094	-140.094	   4.547
     99.0474	   6.000	   6.090	-146.090	   4.553
     99.0808	   8.000	   6.085	-144.085	   4.558
     99.1143	  13.000	   6.080	-139.080	   4.564
     99.1477	   6.000	   6.077	-146.077	   4.570
     99.1811	   8.000	   6.050	-144.050	   4.576
     99.2145	   5.000	   6.049	-147.049	   4.582
     99.2479	   7.000	   6.048	-145.048	   4.588
     99.2814	  14.000	   6.047	-138.047	   4.594
     99.3148	   4.000	   6.048	-148.048	   4.600
     99.3482	   3.000	   6.049	-149.049	   4.606
     99.3816	   3.000	   6.051	-149.051	   4.613
     99.4151	   6.000	   6.053	-146.053	   4.619
     99.4485	   6.000	   6.056	-146.056	   4.625
     99.4819	   5.000	   6.059	-147.059	   4.631
     99.5153	  12.000	   6.062	-140.062	   4.638
     99.5488	   5.000	   6.066	-147.066	   4.644
     99.5822	   3.000	   6.069	-149.069	   4.651
     99.6156	   7.000	   6.073	-145.073	   4.657
     99.6490	   5.000	   6.077	-147.077	   4.664
     99.6824	  14.000	   6.082	-138.082	   4.670
     99.7159	  10.000	   6.087	-142.087	   4.677
     99.7493	   6.000	   6.091	-146.091	   4.684
     99.7827	   5.000	   6.096	-147.096	   4.690
     99.8161	   6.000	   6.101	-146.101	   4.697
     99.8496	   6.000	   6.107	-146.107	   4.704
     99.8830	   7.000	   6.112	-145.112	   4.711
     99.9164	   5.000	   6.117	-147.117	   4.718
     99.9498	   7.000	   6.123	-145.123	   4.724
     99.9832	   6.000	   6.154	-146.154	   4.731
     24.4524	        	        	        	        	       0	(  0  1  2)	  0  1 :  1
     24.5136	        	        	        	        	       0	(  0  1  2)	  0  2 :  1
     33.5549	        	        	        	        	       0	(  1  0  4)	  0  1 :  1
     33.6400	        	        	        	        	       0	(  1  0  4)	  0  2 :  1
     36.1565	        	        	        	        	       0	(  1  1  0)	  0  1 :  1
     36.2487	        	        	        	        	       0	(  1  1  0)	  0  2 :  1
     39.7044	        	        	        	        	       0	(  0  0  6)	  0  1 :  1
     39.8063	        	        	        	        	       0	(  0  0  6)	  0  2 :  1
     41.4385	        	        	        	        	       0	(  1  1  3)	  0  1 :  1
     41.5453	        	        	        	        	       0	(  1  1  3)	  0  2 :  1
     44.1566	        	        	        	        	       0	(  2  0  2)	  0  1 :  1
     44.2712	        	        	        	        	       0	(  2  0  2)	  0  2 :  1
     50.1765	        	        	        	        	       0	(  0  2  4)	  0  1 :  1
     50.3086	        	        	        	        	       0	(  0  2  4)	  0  2 :  1
     54.8035	        	        	        	        	       0	(  1  1  6)	  0  1 :  1
     54.9498	        	        	        	        	       0	(  1  1  6)	  0  2 :  1
     57.0637	        	        	        	        	       0	(  2  1  1)	  0  1 :  1
     57.2172	        	        	        	        	       0	(  2  1  1)	  0  2 :  1
     58.3103	        	        	        	        	       0	(  0  1  8)	  0  1 :  1
     58.3689	        	        	        	        	       0	(  1  2  2)	  0  1 :  1
     58.4678	        	        	        	        	       0	(  0  1  8)	  0  2 :  1
     58.5266	        	        	        	        	       0	(  1  2  2)	  0  2 :  1
     63.4226	        	        	        	        	       0	(  2  1  4)	  0  1 :  1
     63.5970	        	        	        	        	       0	(  2  1  4)	  0  2 :  1
     65.0748	        	        	        	        	       0	(  3  0  0)	  0  1 :  1
     65.2550	        	        	        	        	       0	(  3  0  0)	  0  2 :  1
     67.0691	        	        	        	        	       0	(  1  2  5)	  0  1 :  1
     67.2562	        	        	        	        	       0	(  1  2  5)	  0  2 :  1
     70.5936	        	        	        	        	       0	(  2  0  8)	  0  1 :  1
     70.7935	        	        	        	        	       0	(  2  0  8)	  0  2 :  1
     72.8921	        	        	        	        	       0	(  1  0 10)	  0  1 :  1
     73.1006	        	        	        	        	       0	(  1  0 10)	  0  2 :  1
     73.2940	        	        	        	        	       0	(  1  1  9)	  0  1 :  1
     73.5041	        	        	        	        	       0	(  1  1  9)	  0  2 :  1
     76.3786	        	        	        	        	       0	(  2  1  7)	  0  1 :  1
     76.6007	        	        	        	        	       0	(  2  1  7)	  0  2 :  1
     76.7996	        	        	        	        	       0	(  2  2  0)	  0  1 :  1
     77.0234	        	        	        	        	       0	(  2  2  0)	  0  2 :  1
     79.0320	        	        	        	        	       0	(  0  3  6)	  0  1 :  1
     79.0320	        	        	        	        	       0	(  3  0  6)	  0  1 :  1
     79.2649	        	        	        	        	       0	(  0  3  6)	  0  2 :  1
     79.2649	        	        	        	        	       0	(  3  0  6)	  0  2 :  1
     80.1797	        	        	        	        	       0	(  2  2  3)	  0  1 :  1
     80.4174	        	        	        	        	       0	(  2  2  3)	  0  2 :  1
     80.9342	        	        	        	        	       0	(  1  3  1)	  0  1 :  1
     81.1751	        	        	        	        	       0	(  1  3  1)	  0  2 :  1
     82.0001	        	        	        	        	       0	(  1  2  8)	  0  1 :  1
     82.0505	        	        	        	        	       0	(  3  1  2)	  0  1 :  1
     82.2456	        	        	        	        	       0	(  1  2  8)	  0  2 :  1
     82.2962	        	        	        	        	       0	(  3  1  2)	  0  2 :  1
     84.1991	        	        	        	        	       0	(  0  2 10)	  0  1 :  1
     84.4543	        	        	        	        	       0	(  0  2 10)	  0  2 :  1
     85.6436	        	        	        	        	       0	(  0  0 12)	  0  1 :  1
     85.9053	        	        	        	        	       0	(  0  0 12)	  0  2 :  1
     86.4897	        	        	        	        	       0	(  1  3  4)	  0  1 :  1
     86.7554	        	        	        	        	       0	(  1  3  4)	  0  2 :  1
     89.8040	        	        	        	        	       0	(  3  1  5)	  0  1 :  1
     90.0856	        	        	        	        	       0	(  3  1  5)	  0  2 :  1
     90.1637	        	        	        	        	       0	(  2  2  6)	  0  1 :  1
     90.4471	        	        	        	        	       0	(  2  2  6)	  0  2 :  1
     93.1429	        	        	        	        	       0	(  0  4  2)	  0  1 :  1
     93.4414	        	        	        	        	       0	(  0  4  2)	  0  2 :  1
     95.2822	        	        	        	        	       0	(  2  1 10)	  0  1 :  1
     95.5921	        	        	        	        	       0	(  2  1 10)	  0  2 :  1
     96.7291	        	        	        	        	       0	(  1  1 12)	  0  1 :  1
     97.0470	        	        	        	        	       0	(  1  1 12)	  0  2 :  1
     97.5800	        	        	        	        	       0	(  4  0  4)	  0  1 :  1
     97.9027	        	        	        	        	       0	(  4  0  4)	  0  2 :  1
     98.6702	        	        	        	        	       0	(  1  3  7)	  0  1 :  1
     98.9992	        	        	        	        	       0	(  1  3  7)	  0  2 :  1
    103.1185	        	        	        	        	       0	(  1  2 11)	  0  1 :  1
    103.2210	        	        	        	        	       0	(  3  2  1)	  0  1 :  1
    103.4746	        	        	        	        	       0	(  1  2 11)	  0  2 :  1
    103.5778	        	        	        	        	       0	(  3  2  1)	  0  2 :  1
    104.3065	        	        	        	        	       0	(  3  1  8)	  0  1 :  1
    104.3580	        	        	        	        	       0	(  2  3  2)	  0  1 :  1
    104.6704	        	        	        	        	       0	(  3  1  8)	  0  2 :  1
    104.7223	        	        	        	        	       0	(  2  3  2)	  0  2 :  1
    106.9738	        	        	        	        	       0	(  2  2  9)	  0  1 :  1
    107.3558	        	        	        	        	       0	(  2  2  9)	  0  2 :  1
    108.8118	        	        	        	        	       0	(  0  1 14)	  0  1 :  1
    108.9701	        	        	        	        	       0	(  3  2  4)	  0  1 :  1
    109.2070	        	        	        	        	       0	(  0  1 14)	  0  2 :  1
    109.3664	        	        	        	        	       0	(  3  2  4)	  0  2 :  1
    110.5524	        	        	        	        	       0	(  4  1  0)	  0  1 :  1
    110.9606	        	        	        	        	       0	(  4  1  0)	  0  2 :  1
    112.5133	        	        	        	        	       0	(  2  3  5)	  0  1 :  1
    112.9368	        	        	        	        	       0	(  2  3  5)	  0  2 :  1
