 Cr2O3   Chi2:  2.4350  CELL:    4.95776   4.95776  13.59573   90.0000   90.0000  120.0000   SPGR: R -3 c                 TEMP:      0.00
  1   2394     1.54060     1.54439     0.00000    -0.04945     0.00000    0
    93     0     1
       0.00000      20.00000
 2Theta	Yobs	Ycal	Yobs-Ycal	Backg	Posr	(hkl)	K
     20.0031	  30.000	  36.355	-144.105	  34.782
     20.0365	  45.000	  36.337	-129.087	  34.765
     20.0700	  45.000	  36.319	-129.069	  34.747
     20.1034	  33.000	  36.301	-141.051	  34.729
     20.1368	  38.000	  36.283	-136.033	  34.711
     20.1702	  34.000	  36.265	-140.015	  34.693
     20.2036	  28.000	  36.247	-145.997	  34.675
     20.2371	  32.000	  36.229	-141.979	  34.657
     20.2705	  32.000	  36.211	-141.961	  34.638
     20.3039	  39.000	  36.193	-134.943	  34.620
     20.3373	  52.000	  36.174	-121.924	  34.602
     20.3708	  36.000	  36.156	-137.906	  34.583
     20.4042	  33.000	  36.137	-140.887	  34.565
     20.4376	  32.000	  36.119	-141.869	  34.546
     20.4710	  27.000	  36.100	-146.850	  34.527
     20.5044	  31.000	  36.081	-142.831	  34.509
     20.5379	  19.000	  36.062	-154.812	  34.490
     20.5713	  32.000	  36.044	-141.794	  34.471
     20.6047	  36.000	  36.025	-137.775	  34.452
     20.6381	  41.000	  36.006	-132.756	  34.433
     20.6716	  38.000	  35.987	-135.737	  34.414
     20.7050	  27.000	  35.968	-146.718	  34.395
     20.7384	  46.000	  35.948	-127.698	  34.376
     20.7718	  38.000	  35.929	-135.679	  34.357
     20.8053	  31.000	  35.910	-142.660	  34.337
     20.8387	  34.000	  35.891	-139.641	  34.318
     20.8721	  33.000	  35.871	-140.621	  34.299
     20.9055	  29.000	  35.852	-144.602	  34.279
     20.9389	  28.000	  35.832	-145.582	  34.260
     20.9724	  38.000	  35.813	-135.563	  34.240
     21.0058	  37.000	  35.793	-136.543	  34.220
     21.0392	  28.000	  35.773	-145.523	  34.201
     21.0726	  32.000	  35.753	-141.503	  34.181
     21.1061	  39.000	  35.734	-134.484	  34.161
     21.1395	  34.000	  35.714	-139.464	  34.141
     21.1729	  41.000	  35.694	-132.444	  34.121
     21.2063	  44.000	  35.674	-129.424	  34.101
     21.2397	  20.000	  35.654	-153.404	  34.081
     21.2732	  45.000	  35.633	-128.383	  34.061
     21.3066	  38.000	  35.613	-135.363	  34.041
     21.3400	  30.000	  35.593	-143.343	  34.020
     21.3734	  26.000	  35.573	-147.323	  34.000
     21.4069	  37.000	  35.694	-136.444	  33.980
     21.4403	  33.000	  35.676	-140.426	  33.959
     21.4737	  30.000	  35.730	-143.480	  33.939
     21.5071	  33.000	  35.714	-140.464	  33.918
     21.5405	  24.000	  35.699	-149.449	  33.898
     21.5740	  37.000	  35.683	-136.433	  33.877
     21.6074	  31.000	  35.668	-142.418	  33.856
     21.6408	  22.000	  35.653	-151.403	  33.835
     21.6742	  37.000	  35.638	-136.388	  33.815
     21.7077	  27.000	  35.623	-146.373	  33.794
     21.7411	  37.000	  35.609	-136.359	  33.773
     21.7745	  33.000	  35.594	-140.344	  33.752
     21.8079	  36.000	  35.580	-137.330	  33.731
     21.8414	  27.000	  35.566	-146.316	  33.710
     21.8748	  46.000	  35.552	-127.302	  33.688
     21.9082	  27.000	  35.539	-146.289	  33.667
     21.9416	  22.000	  35.525	-151.275	  33.646
     21.9750	  28.000	  35.512	-145.262	  33.625
     22.0085	  24.000	  35.499	-149.249	  33.603
     22.0419	  29.000	  35.487	-144.237	  33.582
     22.0753	  40.000	  35.475	-133.225	  33.560
     22.1087	  26.000	  35.463	-147.213	  33.539
     22.1422	  39.000	  35.451	-134.201	  33.517
     22.1756	  39.000	  35.440	-134.190	  33.496
     22.2090	  24.000	  35.430	-149.180	  33.474
     22.2424	  40.000	  35.420	-133.170	  33.452
     22.2758	  33.000	  35.410	-140.160	  33.430
     22.3093	  32.000	  35.401	-141.151	  33.409
     22.3427	  30.000	  35.392	-143.142	  33.387
     22.3761	  33.000	  35.384	-140.134	  33.365
     22.4095	  31.000	  35.377	-142.127	  33.343
     22.4430	  34.000	  35.370	-139.120	  33.321
     22.4764	  40.000	  35.364	-133.114	  33.299
     22.5098	  28.000	  35.358	-145.108	  33.276
     22.5432	  49.000	  35.354	-124.104	  33.254
     22.5766	  27.000	  35.351	-146.101	  33.232
     22.6101	  34.000	  35.348	-139.098	  33.210
     22.6435	  49.000	  35.346	-124.096	  33.187
     22.6769	  36.000	  35.346	-137.096	  33.165
     22.7103	  30.000	  35.347	-143.097	  33.143
     22.7438	  24.000	  35.349	-149.099	  33.120
     22.7772	  30.000	  35.352	-143.102	  33.098
     22.8106	  43.000	  35.358	-130.108	  33.075
     22.8440	  42.000	  35.364	-131.114	  33.052
     22.8774	  37.000	  35.373	-136.123	  33.030
     22.9109	  28.000	  35.383	-145.133	  33.007
     22.9443	  39.000	  35.396	-134.146	  32.984
     22.9777	  28.000	  35.411	-145.161	  32.961
     23.0111	  34.000	  35.429	-139.179	  32.939
     23.0446	  37.000	  35.449	-136.199	  32.916
     23.0780	  41.000	  35.472	-132.222	  32.893
     23.1114	  31.000	  35.499	-142.249	  32.870
     23.1448	  39.000	  35.530	-134.280	  32.847
     23.1783	  31.000	  35.565	-142.315	  32.824
     23.2117	  37.000	  35.604	-136.354	  32.801
     23.2451	  26.000	  35.649	-147.399	  32.777
     23.2785	  32.000	  35.699	-141.449	  32.754
     23.3119	  39.000	  35.755	-134.505	  32.731
     23.3454	  28.000	  35.819	-145.569	  32.708
     23.3788	  40.000	  35.890	-133.640	  32.684
     23.4122	  33.000	  35.971	-140.721	  32.661
     23.4456	  32.000	  36.062	-141.812	  32.638
     23.4791	  34.000	  36.164	-139.914	  32.614
     23.5125	  36.000	  36.280	-138.030	  32.591
     23.5459	  43.000	  36.410	-131.160	  32.567
     23.5793	  36.000	  36.558	-138.308	  32.544
     23.6127	  27.000	  36.727	-147.477	  32.520
     23.6462	  41.000	  36.918	-133.668	  32.496
     23.6796	  36.000	  37.137	-138.887	  32.473
     23.7130	  27.000	  37.389	-148.139	  32.449
     23.7464	  42.000	  37.678	-133.428	  32.425
     23.7799	  38.000	  38.014	-137.764	  32.401
     23.8133	  48.000	  38.404	-128.154	  32.377
     23.8467	  38.000	  38.861	-138.611	  32.353
     23.8801	  37.000	  39.399	-140.149	  32.329
     23.9135	  40.000	  40.039	-137.789	  32.305
     23.9470	  42.000	  40.806	-136.556	  32.281
     23.9804	  33.000	  41.734	-146.484	  32.257
     24.0138	  55.000	  42.871	-125.621	  32.233
     24.0472	  48.000	  44.280	-134.030	  32.209
     24.0807	  53.000	  46.052	-130.802	  32.185
     24.1141	  53.000	  48.322	-133.072	  32.161
     24.1475	  69.000	  51.295	-120.045	  32.137
     24.1809	  69.000	  55.323	-124.073	  32.112
     24.2144	  61.000	  61.119	-137.869	  32.088
     24.2478	  98.000	  70.261	-110.011	  32.064
     24.2812	  87.000	  86.120	-136.870	  32.039
     24.3146	 137.000	 114.691	-115.441	  32.015
     24.3480	 134.000	 163.878	-167.628	  31.990
     24.3815	 237.000	 239.226	-139.976	  31.966
     24.4149	 347.000	 333.696	-124.446	  31.941
     24.4483	 443.000	 410.568	-105.318	  31.917
     24.4817	 433.000	 422.111	-126.861	  31.892
     24.5152	 407.000	 370.925	-101.675	  31.867
     24.5486	 285.000	 286.135	-138.885	  31.843
     24.5820	 187.000	 202.202	-152.952	  31.818
     24.6154	 155.000	 140.168	-122.918	  31.793
     24.6488	 104.000	 101.137	-134.887	  31.768
     24.6823	  77.000	  78.580	-139.330	  31.744
     24.7157	  57.000	  65.759	-146.509	  31.719
     24.7491	  64.000	  58.071	-131.821	  31.694
     24.7825	  48.000	  53.021	-142.771	  31.669
     24.8160	  45.000	  49.425	-142.175	  31.644
     24.8494	  43.000	  46.726	-141.476	  31.619
     24.8828	  55.000	  44.637	-127.387	  31.594
     24.9162	  41.000	  42.983	-139.733	  31.569
     24.9496	  45.000	  41.650	-134.400	  31.544
     24.9831	  39.000	  40.561	-139.311	  31.519
     25.0165	  30.000	  39.657	-147.407	  31.494
     25.0499	  41.000	  38.900	-135.650	  31.469
     25.0833	  25.000	  38.257	-151.007	  31.443
     25.1168	  37.000	  37.707	-138.457	  31.418
     25.1502	  40.000	  37.231	-134.981	  31.393
     25.1836	  39.000	  36.817	-135.567	  31.368
     25.2170	  40.000	  36.453	-134.203	  31.342
     25.2505	  38.000	  36.132	-135.882	  31.317
     25.2839	  48.000	  35.847	-125.597	  31.292
     25.3173	  39.000	  35.591	-134.341	  31.266
     25.3507	  34.000	  35.361	-139.111	  31.241
     25.3841	  44.000	  35.153	-128.903	  31.215
     25.4176	  45.000	  34.963	-127.713	  31.190
     25.4510	  39.000	  34.790	-133.540	  31.164
     25.4844	  38.000	  34.632	-134.382	  31.139
     25.5178	  36.000	  34.486	-136.236	  31.113
     25.5513	  26.000	  34.351	-146.101	  31.087
     25.5847	  40.000	  34.225	-131.975	  31.062
     25.6181	  26.000	  34.108	-145.858	  31.036
     25.6515	  34.000	  33.999	-137.749	  31.010
     25.6849	  44.000	  33.896	-127.646	  30.985
     25.7184	  48.000	  33.800	-123.550	  30.959
     25.7518	  34.000	  33.709	-137.459	  30.933
     25.7852	  33.000	  33.622	-138.372	  30.907
     25.8186	  36.000	  33.541	-135.291	  30.882
     25.8521	  33.000	  33.463	-138.213	  30.856
     25.8855	  43.000	  33.389	-128.139	  30.830
     25.9189	  36.000	  33.318	-135.068	  30.804
     25.9523	  42.000	  33.250	-129.000	  30.778
     25.9857	  32.000	  33.185	-138.935	  30.752
     26.0192	  37.000	  33.122	-133.872	  30.726
     26.0526	  29.000	  33.062	-141.812	  30.700
     26.0860	  25.000	  33.003	-145.753	  30.674
     26.1194	  44.000	  32.947	-126.697	  30.648
     26.1529	  27.000	  32.892	-143.642	  30.622
     26.1863	  29.000	  32.839	-141.589	  30.596
     26.2197	  38.000	  32.788	-132.538	  30.570
     26.2531	  32.000	  32.737	-138.487	  30.544
     26.2865	  36.000	  32.689	-134.439	  30.517
     26.3200	  29.000	  32.641	-141.391	  30.491
     26.3534	  29.000	  32.594	-141.344	  30.465
     26.3868	  26.000	  32.549	-144.299	  30.439
     26.4202	  34.000	  32.504	-136.254	  30.413
     26.4537	  28.000	  32.461	-142.211	  30.386
     26.4871	  33.000	  32.418	-137.168	  30.360
     26.5205	  34.000	  32.376	-136.126	  30.334
     26.5539	  34.000	  32.335	-136.085	  30.307
     26.5874	  28.000	  32.294	-142.044	  30.281
     26.6208	  34.000	  32.254	-136.004	  30.254
     26.6542	  30.000	  32.215	-139.965	  30.228
     26.6876	  25.000	  32.176	-144.926	  30.202
     26.7210	  33.000	  32.137	-136.887	  30.175
     26.7545	  41.000	  32.100	-128.850	  30.149
     26.7879	  31.000	  32.062	-138.812	  30.122
     26.8213	  32.000	  32.025	-137.775	  30.096
     26.8547	  31.000	  31.989	-138.739	  30.069
     26.8882	  32.000	  31.953	-137.703	  30.043
     26.9216	  36.000	  31.917	-133.667	  30.016
     26.9550	  31.000	  31.882	-138.632	  29.989
     26.9884	  19.000	  31.847	-150.597	  29.963
     27.0218	  26.000	  31.812	-143.562	  29.936
     27.0553	  29.000	  31.777	-140.527	  29.909
     27.0887	  30.000	  31.743	-139.493	  29.883
     27.1221	  27.000	  31.709	-142.459	  29.856
     27.1555	  29.000	  31.676	-140.426	  29.829
     27.1890	  36.000	  31.642	-133.392	  29.803
     27.2224	  32.000	  31.609	-137.359	  29.776
     27.2558	  36.000	  31.576	-133.326	  29.749
     27.2892	  29.000	  31.543	-140.293	  29.722
     27.3226	  28.000	  31.511	-141.261	  29.696
     27.3561	  38.000	  31.478	-131.228	  29.669
     27.3895	  28.000	  31.446	-141.196	  29.642
     27.4229	  33.000	  31.414	-136.164	  29.615
     27.4563	  32.000	  31.382	-137.132	  29.588
     27.4898	  30.000	  31.350	-139.100	  29.561
     27.5232	  32.000	  31.319	-137.069	  29.534
     27.5566	  29.000	  31.151	-139.901	  29.508
     27.5900	  30.000	  31.053	-138.803	  29.481
     27.6234	  27.000	  31.026	-141.776	  29.454
     27.6569	  33.000	  30.999	-135.749	  29.427
     27.6903	  20.000	  30.972	-148.722	  29.400
     27.7237	  32.000	  30.945	-136.695	  29.373
     27.7571	  40.000	  30.918	-128.668	  29.346
     27.7906	  38.000	  30.891	-130.641	  29.319
     27.8240	  39.000	  30.864	-129.614	  29.292
     27.8574	  37.000	  30.837	-131.587	  29.265
     27.8908	  40.000	  30.810	-128.560	  29.237
     27.9243	  40.000	  30.783	-128.533	  29.210
     27.9577	  29.000	  30.756	-139.506	  29.183
     27.9911	  33.000	  30.729	-135.479	  29.156
     28.0245	  36.000	  30.702	-132.452	  29.129
     28.0579	  30.000	  30.675	-138.424	  29.102
     28.0914	  38.000	  30.647	-130.397	  29.075
     28.1248	  33.000	  30.620	-135.370	  29.048
     28.1582	  32.000	  30.593	-136.343	  29.020
     28.1916	  34.000	  30.566	-134.316	  28.993
     28.2251	  28.000	  30.539	-140.289	  28.966
     28.2585	  26.000	  30.511	-142.261	  28.939
     28.2919	  36.000	  30.484	-132.234	  28.912
     28.3253	  40.000	  30.457	-128.207	  28.884
     28.3587	  36.000	  30.430	-132.180	  28.857
     28.3922	  49.000	  30.402	-119.152	  28.830
     28.4256	  55.000	  30.375	-113.125	  28.803
     28.4590	  34.000	  30.348	-134.098	  28.775
     28.4924	  24.000	  30.321	-144.071	  28.748
     28.5259	  48.000	  30.293	-120.043	  28.721
     28.5593	  45.000	  30.266	-123.016	  28.693
     28.5927	  32.000	  30.239	-135.989	  28.666
     28.6261	  31.000	  30.211	-136.961	  28.639
     28.6595	  44.000	  30.184	-123.934	  28.611
     28.6930	  44.000	  30.157	-123.907	  28.584
     28.7264	  28.000	  30.129	-139.879	  28.557
     28.7598	  43.000	  30.102	-124.852	  28.529
     28.7932	  44.000	  30.074	-123.824	  28.502
     28.8267	  32.000	  30.047	-135.797	  28.474
     28.8601	  39.000	  30.020	-128.770	  28.447
     28.8935	  37.000	  29.992	-130.742	  28.420
     28.9269	  39.000	  29.965	-128.715	  28.392
     28.9604	  45.000	  29.937	-122.687	  28.365
     28.9938	  42.000	  29.910	-125.660	  28.337
     29.0272	  55.000	  29.882	-112.632	  28.310
     29.0606	  43.000	  29.855	-124.605	  28.282
     29.0940	  38.000	  29.827	-129.577	  28.255
     29.1275	  33.000	  29.800	-134.550	  28.227
     29.1609	  57.000	  29.773	-110.523	  28.200
     29.1943	  41.000	  29.745	-126.495	  28.172
     29.2277	  52.000	  29.718	-115.468	  28.145
     29.2612	  52.000	  29.690	-115.440	  28.117
     29.2946	  42.000	  29.663	-125.413	  28.090
     29.3280	  40.000	  29.635	-127.385	  28.062
     29.3614	  39.000	  29.607	-128.357	  28.035
     29.3948	  46.000	  29.580	-121.330	  28.007
     29.4283	  48.000	  29.552	-119.302	  27.980
     29.4617	  50.000	  29.525	-117.275	  27.952
     29.4951	  36.000	  29.497	-131.247	  27.925
     29.5285	  39.000	  29.470	-128.220	  27.897
     29.5620	  45.000	  29.442	-122.192	  27.870
     29.5954	  42.000	  29.415	-125.165	  27.842
     29.6288	  62.000	  29.387	-105.137	  27.814
     29.6622	  50.000	  29.359	-117.109	  27.787
     29.6956	  66.000	  29.332	-101.082	  27.759
     29.7291	  53.000	  29.304	-114.054	  27.732
     29.7625	  56.000	  29.277	-111.027	  27.704
     29.7959	  52.000	  29.249	-114.999	  27.676
     29.8293	  52.000	  29.221	-114.971	  27.649
     29.8628	  52.000	  29.194	-114.944	  27.621
     29.8962	  70.000	  29.166	 -96.916	  27.594
     29.9296	  49.000	  29.139	-117.889	  27.566
     29.9630	  66.000	  29.111	-100.861	  27.538
     29.9964	  69.000	  29.083	 -97.833	  27.511
     30.0299	  64.000	  29.056	-102.806	  27.483
     30.0633	  68.000	  29.028	 -98.778	  27.455
     30.0967	  69.000	  29.000	 -97.750	  27.428
     30.1301	  67.000	  28.973	 -99.723	  27.400
     30.1636	  66.000	  28.945	-100.695	  27.372
     30.1970	  70.000	  28.917	 -96.667	  27.345
     30.2304	  69.000	  28.890	 -97.640	  27.317
     30.2638	  78.000	  28.862	 -88.612	  27.290
     30.2973	  83.000	  28.834	 -83.584	  27.262
     30.3307	  67.000	  28.807	 -99.557	  27.234
     30.3641	  83.000	  28.779	 -83.529	  27.207
     30.3975	  74.000	  28.751	 -92.501	  27.179
     30.4309	  64.000	  28.724	-102.474	  27.151
     30.4644	  69.000	  28.963	 -97.713	  27.124
     30.4978	  76.000	  28.941	 -90.691	  27.096
     30.5312	  74.000	  28.919	 -92.669	  27.068
     30.5646	  62.000	  29.032	-104.782	  27.040
     30.5981	  62.000	  29.014	-104.764	  27.013
     30.6315	  73.000	  28.996	 -93.746	  26.985
     30.6649	  64.000	  28.978	-102.728	  26.957
     30.6983	  68.000	  28.961	 -98.711	  26.930
     30.7317	  50.000	  28.944	-116.694	  26.902
     30.7652	  76.000	  28.928	 -90.678	  26.874
     30.7986	  61.000	  28.912	-105.662	  26.847
     30.8320	  66.000	  28.896	-100.646	  26.819
     30.8654	  60.000	  28.881	-106.631	  26.791
     30.8989	  68.000	  28.866	 -98.616	  26.764
     30.9323	  51.000	  28.852	-115.602	  26.736
     30.9657	  41.000	  28.838	-125.588	  26.708
     30.9991	  46.000	  28.825	-120.575	  26.681
     31.0325	  73.000	  28.812	 -93.562	  26.653
     31.0660	  48.000	  28.800	-118.550	  26.625
     31.0994	  50.000	  28.789	-116.539	  26.598
     31.1328	  38.000	  28.778	-128.528	  26.570
     31.1662	  48.000	  28.768	-118.518	  26.542
     31.1997	  46.000	  28.759	-120.509	  26.515
     31.2331	  57.000	  28.751	-109.501	  26.487
     31.2665	  55.000	  28.743	-111.493	  26.459
     31.2999	  46.000	  28.736	-120.486	  26.431
     31.3334	  55.000	  28.731	-111.481	  26.404
     31.3668	  45.000	  28.726	-121.476	  26.376
     31.4002	  43.000	  28.722	-123.472	  26.348
     31.4336	  62.000	  28.719	-104.469	  26.321
     31.4670	  45.000	  28.718	-121.468	  26.293
     31.5005	  33.000	  28.718	-133.468	  26.265
     31.5339	  39.000	  28.719	-127.469	  26.238
     31.5673	  37.000	  28.722	-129.472	  26.210
     31.6007	  45.000	  28.726	-121.476	  26.182
     31.6342	  45.000	  28.732	-121.482	  26.155
     31.6676	  44.000	  28.740	-122.490	  26.127
     31.7010	  51.000	  28.749	-115.499	  26.100
     31.7344	  57.000	  28.761	-109.511	  26.072
     31.7678	  37.000	  28.775	-129.525	  26.044
     31.8013	  29.000	  28.791	-137.541	  26.017
     31.8347	  51.000	  28.809	-115.559	  25.989
     31.8681	  44.000	  28.831	-122.581	  25.961
     31.9015	  54.000	  28.855	-112.605	  25.934
     31.9350	  36.000	  28.883	-130.633	  25.906
     31.9684	  48.000	  28.914	-118.664	  25.878
     32.0018	  52.000	  28.949	-114.699	  25.851
     32.0352	  37.000	  28.987	-129.737	  25.823
     32.0686	  46.000	  29.031	-120.781	  25.796
     32.1021	  41.000	  29.079	-125.829	  25.768
     32.1355	  46.000	  29.132	-120.882	  25.740
     32.1689	  32.000	  29.191	-134.941	  25.713
     32.2023	  29.000	  29.257	-138.007	  25.685
     32.2358	  37.000	  29.329	-130.079	  25.658
     32.2692	  44.000	  29.410	-123.160	  25.630
     32.3026	  49.000	  29.499	-118.249	  25.603
     32.3360	  50.000	  29.597	-117.347	  25.575
     32.3694	  36.000	  29.705	-131.455	  25.547
     32.4029	  27.000	  29.826	-140.576	  25.520
     32.4363	  38.000	  29.959	-129.709	  25.492
     32.4697	  26.000	  30.108	-141.858	  25.465
     32.5031	  34.000	  30.272	-134.022	  25.437
     32.5366	  36.000	  30.455	-132.205	  25.410
     32.5700	  38.000	  30.660	-130.410	  25.382
     32.6034	  29.000	  30.888	-139.638	  25.355
     32.6368	  39.000	  31.143	-129.893	  25.327
     32.6703	  37.000	  31.430	-132.180	  25.300
     32.7037	  45.000	  31.753	-124.503	  25.272
     32.7371	  37.000	  32.119	-132.869	  25.245
     32.7705	  39.000	  32.533	-131.283	  25.217
     32.8039	  57.000	  33.004	-113.754	  25.190
     32.8374	  45.000	  33.543	-126.293	  25.162
     32.8708	  54.000	  34.163	-117.913	  25.135
     32.9042	  60.000	  34.879	-112.629	  25.107
     32.9376	  48.000	  35.711	-125.461	  25.080
     32.9711	  43.000	  36.685	-131.435	  25.052
     33.0045	  50.000	  37.834	-125.584	  25.025
     33.0379	  49.000	  39.200	-127.950	  24.998
     33.0713	  60.000	  41.099	-118.850	  24.970
     33.1047	  65.000	  43.094	-115.844	  24.943
     33.1382	  57.000	  45.669	-126.419	  24.915
     33.1716	  69.000	  48.719	-117.469	  24.888
     33.2050	  73.000	  52.582	-117.332	  24.861
     33.2384	  97.000	  57.598	 -98.348	  24.833
     33.2719	  77.000	  64.364	-125.114	  24.806
     33.3053	  79.000	  74.003	-132.753	  24.779
     33.3387	 114.000	  88.632	-112.382	  24.751
     33.3721	  88.000	 111.892	-161.642	  24.724
     33.4055	 132.000	 149.109	-154.859	  24.697
     33.4390	 196.000	 206.343	-148.093	  24.669
     33.4724	 249.000	 287.406	-176.156	  24.642
     33.5058	 383.000	 386.577	-141.327	  24.615
     33.5392	 512.000	 475.171	-100.921	  24.587
     33.5727	 551.000	 509.651	 -96.401	  24.560
     33.6061	 506.000	 484.244	-115.994	  24.533
     33.6395	 421.000	 422.350	-139.100	  24.506
     33.6729	 336.000	 338.103	-139.853	  24.478
     33.7064	 242.000	 252.509	-148.259	  24.451
     33.7398	 181.000	 183.710	-140.460	  24.424
     33.7732	 146.000	 135.322	-127.072	  24.397
     33.8066	 113.000	 103.590	-128.340	  24.369
     33.8400	  96.000	  83.363	-125.113	  24.342
     33.8735	  81.000	  70.347	-127.097	  24.315
     33.9069	  64.000	  61.618	-135.368	  24.288
     33.9403	  75.000	  55.424	-118.174	  24.261
     33.9737	  75.000	  50.798	-113.548	  24.233
     34.0072	  49.000	  47.217	-135.967	  24.206
     34.0406	  52.000	  44.374	-130.124	  24.179
     34.0740	  53.000	  42.078	-126.828	  24.152
     34.1074	  42.000	  40.196	-135.946	  24.125
     34.1408	  37.000	  38.636	-139.386	  24.098
     34.1743	  48.000	  37.331	-127.081	  24.071
     34.2077	  33.000	  36.227	-140.977	  24.044
     34.2411	  44.000	  35.286	-129.036	  24.017
     34.2745	  45.000	  34.479	-127.229	  23.990
     34.3080	  33.000	  33.783	-138.533	  23.963
     34.3414	  29.000	  33.179	-141.929	  23.936
     34.3748	  37.000	  32.652	-133.402	  23.909
     34.4082	  36.000	  32.191	-133.941	  23.882
     34.4416	  48.000	  31.787	-121.537	  23.855
     34.4751	  48.000	  31.431	-121.181	  23.828
     34.5085	  33.000	  31.118	-135.868	  23.801
     34.5419	  34.000	  30.843	-134.593	  23.774
     34.5753	  34.000	  30.601	-134.351	  23.747
     34.6088	  32.000	  30.388	-136.138	  23.720
     34.6422	  31.000	  30.202	-136.952	  23.693
     34.6756	  36.000	  30.041	-131.791	  23.666
     34.7090	  30.000	  29.902	-137.652	  23.639
     34.7425	  41.000	  29.783	-126.533	  23.612
     34.7759	  42.000	  29.685	-125.435	  23.585
     34.8093	  31.000	  29.605	-136.355	  23.558
     34.8427	  32.000	  29.543	-135.293	  23.532
     34.8761	  41.000	  29.499	-126.249	  23.505
     34.9096	  36.000	  29.472	-131.222	  23.478
     34.9430	  50.000	  29.462	-117.212	  23.451
     34.9764	  34.000	  29.470	-133.220	  23.424
     35.0098	  46.000	  29.496	-121.246	  23.398
     35.0433	  37.000	  29.541	-130.291	  23.371
     35.0767	  44.000	  29.606	-123.356	  23.344
     35.1101	  40.000	  29.691	-127.441	  23.317
     35.1435	  55.000	  29.800	-112.550	  23.291
     35.1769	  48.000	  29.933	-119.683	  23.264
     35.2104	  43.000	  30.093	-124.843	  23.237
     35.2438	  51.000	  30.283	-117.033	  23.211
     35.2772	  52.000	  30.507	-116.257	  23.184
     35.3106	  38.000	  30.768	-130.518	  23.157
     35.3441	  31.000	  31.074	-137.824	  23.131
     35.3775	  41.000	  31.429	-128.179	  23.104
     35.4109	  34.000	  31.841	-135.591	  23.078
     35.4443	  51.000	  32.322	-119.072	  23.051
     35.4777	  37.000	  32.882	-133.632	  23.024
     35.5112	  51.000	  33.536	-120.286	  22.998
     35.5446	  50.000	  34.305	-122.055	  22.971
     35.5780	  32.000	  35.211	-140.961	  22.945
     35.6114	  54.000	  36.287	-120.037	  22.918
     35.6449	  44.000	  37.572	-131.322	  22.892
     35.6783	  32.000	  39.121	-144.871	  22.865
     35.7117	  51.000	  41.006	-127.756	  22.839
     35.7451	  61.000	  43.324	-120.074	  22.813
     35.7785	  65.000	  46.216	-118.966	  22.786
     35.8120	  55.000	  49.889	-132.639	  22.760
     35.8454	  86.000	  54.676	-106.426	  22.733
     35.8788	  78.000	  61.162	-120.912	  22.707
     35.9122	  75.000	  70.423	-133.173	  22.681
     35.9457	  77.000	  84.378	-145.128	  22.654
     35.9791	 112.000	 106.128	-131.878	  22.628
     36.0125	 103.000	 139.924	-174.674	  22.602
     36.0459	 162.000	 190.337	-166.087	  22.575
     36.0794	 251.000	 259.813	-146.563	  22.549
     36.1128	 321.000	 342.634	-159.384	  22.523
     36.1462	 421.000	 414.893	-131.643	  22.497
     36.1796	 410.000	 442.776	-170.526	  22.470
     36.2130	 417.000	 423.117	-143.867	  22.444
     36.2465	 350.000	 375.595	-163.345	  22.418
     36.2799	 258.000	 309.513	-189.263	  22.392
     36.3133	 184.000	 237.988	-191.738	  22.366
     36.3467	 149.000	 176.933	-165.683	  22.340
     36.3802	  91.000	 131.965	-178.715	  22.313
     36.4136	  91.000	 101.293	-148.043	  22.287
     36.4470	  74.000	  81.110	-144.860	  22.261
     36.4804	  65.000	  67.880	-140.630	  22.235
     36.5138	  63.000	  58.974	-133.724	  22.209
     36.5473	  51.000	  52.693	-139.443	  22.183
     36.5807	  51.000	  48.057	-134.807	  22.157
     36.6141	  38.000	  44.470	-144.220	  22.131
     36.6475	  44.000	  41.626	-135.376	  22.105
     36.6810	  42.000	  39.075	-134.825	  22.079
     36.7144	  53.000	  37.191	-121.941	  22.053
     36.7478	  28.000	  35.493	-145.243	  22.027
     36.7812	  36.000	  34.178	-135.928	  22.001
     36.8146	  37.000	  33.062	-133.812	  21.975
     36.8481	  17.000	  32.106	-152.856	  21.950
     36.8815	  19.000	  31.280	-150.030	  21.924
     36.9149	  26.000	  30.562	-142.312	  21.898
     36.9483	  36.000	  29.932	-131.682	  21.872
     36.9818	  29.000	  29.376	-138.126	  21.846
     37.0152	  25.000	  28.884	-141.634	  21.821
     37.0486	  17.000	  28.444	-149.194	  21.795
     37.0820	  26.000	  28.050	-139.800	  21.769
     37.1154	  21.000	  27.695	-144.445	  21.743
     37.1489	  33.000	  27.374	-132.124	  21.718
     37.1823	  24.000	  27.083	-140.833	  21.692
     37.2157	  12.000	  26.816	-152.566	  21.666
     37.2491	  20.000	  26.573	-144.323	  21.641
     37.2826	  16.000	  26.349	-148.099	  21.615
     37.3160	  15.000	  26.143	-148.893	  21.589
     37.3494	  27.000	  25.952	-136.702	  21.564
     37.3828	  18.000	  25.775	-145.525	  21.538
     37.4163	  13.000	  25.610	-150.360	  21.513
     37.4497	  19.000	  25.457	-144.207	  21.487
     37.4831	  18.000	  25.313	-145.063	  21.462
     37.5165	  29.000	  25.179	-133.929	  21.436
     37.5499	  13.000	  25.052	-149.802	  21.411
     37.5834	  21.000	  24.933	-141.683	  21.385
     37.6168	  29.000	  24.821	-133.571	  21.360
     37.6502	  21.000	  24.715	-141.465	  21.335
     37.6836	  19.000	  24.614	-143.364	  21.309
     37.7171	  16.000	  24.519	-146.269	  21.284
     37.7505	  20.000	  24.428	-142.178	  21.258
     37.7839	  21.000	  24.341	-141.091	  21.233
     37.8173	  19.000	  24.259	-143.009	  21.208
     37.8507	  17.000	  24.180	-144.930	  21.183
     37.8842	  20.000	  24.105	-141.855	  21.157
     37.9176	  27.000	  24.033	-134.783	  21.132
     37.9510	  12.000	  23.964	-149.714	  21.107
     37.9844	  15.000	  23.897	-146.647	  21.082
     38.0179	  17.000	  23.834	-144.584	  21.056
     38.0513	  18.000	  23.772	-143.522	  21.031
     38.0847	  17.000	  23.713	-144.464	  21.006
     38.1181	  20.000	  23.657	-141.407	  20.981
     38.1516	  15.000	  23.602	-146.352	  20.956
     38.1850	  26.000	  23.549	-135.299	  20.931
     38.2184	  13.000	  23.499	-148.249	  20.906
     38.2518	   5.000	  23.450	-156.200	  20.881
     38.2852	  20.000	  23.403	-141.153	  20.856
     38.3187	  22.000	  23.446	-139.196	  20.831
     38.3521	  16.000	  23.404	-145.154	  20.806
     38.3855	  25.000	  23.364	-136.114	  20.781
     38.4189	  18.000	  23.369	-143.119	  20.756
     38.4524	  13.000	  23.334	-148.084	  20.731
     38.4858	   7.000	  23.299	-154.049	  20.706
     38.5192	  15.000	  23.267	-146.017	  20.681
     38.5526	  15.000	  23.237	-145.987	  20.657
     38.5860	   8.000	  23.208	-152.958	  20.632
     38.6195	  17.000	  23.181	-143.931	  20.607
     38.6529	  17.000	  23.156	-143.906	  20.582
     38.6863	  15.000	  23.134	-145.884	  20.557
     38.7197	  18.000	  23.113	-142.863	  20.533
     38.7532	  19.000	  23.095	-141.845	  20.508
     38.7866	  19.000	  23.080	-141.830	  20.483
     38.8200	  17.000	  23.067	-143.817	  20.459
     38.8534	  28.000	  23.058	-132.808	  20.434
     38.8868	  17.000	  23.052	-143.802	  20.409
     38.9203	  21.000	  23.051	-139.801	  20.385
     38.9537	  17.000	  23.054	-143.804	  20.360
     38.9871	  14.000	  23.062	-146.812	  20.336
     39.0205	  14.000	  23.076	-146.826	  20.311
     39.0540	  21.000	  23.098	-139.848	  20.287
     39.0874	  14.000	  23.128	-146.878	  20.262
     39.1208	  25.000	  23.169	-135.919	  20.238
     39.1542	  20.000	  23.222	-140.972	  20.213
     39.1876	  12.000	  23.290	-149.040	  20.189
     39.2211	  17.000	  23.378	-144.128	  20.165
     39.2545	  18.000	  23.490	-143.240	  20.140
     39.2879	  14.000	  23.379	-147.129	  20.116
     39.3213	  25.000	  23.570	-136.320	  20.091
     39.3548	  18.000	  23.817	-143.567	  20.067
     39.3882	  22.000	  24.019	-139.769	  20.043
     39.4216	  17.000	  24.476	-145.226	  20.019
     39.4550	  17.000	  25.135	-145.885	  19.994
     39.4884	  21.000	  26.122	-142.872	  19.970
     39.5219	  19.000	  27.623	-146.373	  19.946
     39.5553	  37.000	  29.869	-130.619	  19.922
     39.5887	  21.000	  33.083	-149.833	  19.898
     39.6221	  39.000	  37.323	-136.073	  19.874
     39.6556	  37.000	  42.116	-142.866	  19.850
     39.6890	  60.000	  45.989	-123.739	  19.825
     39.7224	  31.000	  47.242	-153.992	  19.801
     39.7558	  48.000	  46.005	-135.755	  19.777
     39.7893	  42.000	  43.414	-139.164	  19.753
     39.8227	  44.000	  39.853	-133.603	  19.729
     39.8561	  34.000	  35.798	-139.548	  19.706
     39.8895	  21.000	  32.114	-148.864	  19.682
     39.9229	  27.000	  29.256	-140.006	  19.658
     39.9564	  17.000	  27.218	-147.968	  19.634
     39.9898	  12.000	  25.826	-151.576	  19.610
     40.0232	  14.000	  24.890	-148.640	  19.586
     40.0566	  12.000	  24.254	-150.004	  19.562
     40.0901	  15.000	  23.810	-146.560	  19.539
     40.1235	  16.000	  23.488	-145.238	  19.515
     40.1569	  18.000	  23.247	-142.997	  19.491
     40.1903	  24.000	  23.063	-136.813	  19.467
     40.2237	  15.000	  22.920	-145.670	  19.444
     40.2572	  18.000	  22.811	-142.561	  19.420
     40.2906	  30.000	  22.727	-130.477	  19.396
     40.3240	  24.000	  22.666	-136.416	  19.373
     40.3574	  10.000	  22.624	-150.374	  19.349
     40.3909	  16.000	  22.598	-144.348	  19.326
     40.4243	  28.000	  22.588	-132.338	  19.302
     40.4577	  20.000	  22.593	-140.343	  19.279
     40.4911	  15.000	  22.611	-145.361	  19.255
     40.5246	  22.000	  22.644	-138.394	  19.232
     40.5580	  20.000	  22.692	-140.442	  19.208
     40.5914	  16.000	  22.755	-144.505	  19.185
     40.6248	  24.000	  22.836	-136.586	  19.161
     40.6582	  12.000	  22.935	-148.685	  19.138
     40.6917	  17.000	  23.056	-143.806	  19.115
     40.7251	  31.000	  23.201	-129.951	  19.091
     40.7585	  27.000	  23.374	-134.124	  19.068
     40.7919	  17.000	  23.580	-144.330	  19.045
     40.8254	  15.000	  23.825	-146.575	  19.022
     40.8588	  30.000	  24.118	-131.868	  18.998
     40.8922	  24.000	  24.468	-138.218	  18.975
     40.9256	  25.000	  24.889	-137.639	  18.952
     40.9590	  22.000	  25.399	-141.149	  18.929
     40.9925	  25.000	  26.021	-138.771	  18.906
     41.0259	  32.000	  26.805	-132.555	  18.883
     41.0593	  26.000	  27.766	-139.516	  18.860
     41.0927	  28.000	  28.992	-138.742	  18.837
     41.1262	  21.000	  30.606	-147.356	  18.814
     41.1596	  22.000	  32.796	-148.546	  18.791
     41.1930	  32.000	  35.908	-141.658	  18.768
     41.2264	  37.000	  40.495	-141.245	  18.745
     41.2598	  62.000	  47.350	-123.100	  18.722
     41.2933	  50.000	  57.448	-145.198	  18.699
     41.3267	  67.000	  71.731	-142.481	  18.676
     41.3601	  81.000	  90.461	-147.211	  18.653
     41.3935	 105.000	 111.762	-144.512	  18.630
     41.4270	 135.000	 129.589	-132.339	  18.608
     41.4604	 156.000	 136.398	-118.148	  18.585
     41.4938	 161.000	 131.947	-108.697	  18.562
     41.5272	 136.000	 121.397	-123.147	  18.539
     41.5606	 129.000	 106.718	-115.468	  18.517
     41.5941	  99.000	  89.099	-127.849	  18.494
     41.6275	  77.000	  72.071	-132.821	  18.471
     41.6609	  48.000	  58.237	-147.987	  18.449
     41.6943	  48.000	  48.052	-137.802	  18.426
     41.7278	  43.000	  40.917	-135.667	  18.404
     41.7612	  34.000	  36.017	-139.767	  18.381
     41.7946	  28.000	  32.646	-142.396	  18.359
     41.8280	  32.000	  30.270	-136.020	  18.336
     41.8615	  28.000	  28.532	-138.282	  18.314
     41.8949	  22.000	  27.211	-142.961	  18.291
     41.9283	  26.000	  26.173	-137.923	  18.269
     41.9617	  15.000	  25.336	-148.086	  18.247
     41.9951	  26.000	  24.649	-136.399	  18.224
     42.0286	  27.000	  24.077	-134.827	  18.202
     42.0620	  21.000	  23.595	-140.345	  18.180
     42.0954	  26.000	  23.184	-134.934	  18.157
     42.1288	  22.000	  22.831	-138.581	  18.135
     42.1623	  16.000	  22.524	-144.274	  18.113
     42.1957	  26.000	  22.257	-134.007	  18.091
     42.2291	  18.000	  22.021	-141.771	  18.069
     42.2625	  14.000	  21.811	-145.561	  18.046
     42.2959	  25.000	  21.625	-134.374	  18.024
     42.3294	  10.000	  21.457	-149.207	  18.002
     42.3628	  17.000	  21.306	-142.056	  17.980
     42.3962	  13.000	  21.169	-145.919	  17.958
     42.4296	  19.000	  21.044	-139.794	  17.936
     42.4631	  17.000	  20.929	-141.679	  17.914
     42.4965	  22.000	  20.824	-136.574	  17.892
     42.5299	  10.000	  20.728	-148.478	  17.870
     42.5633	  16.000	  20.638	-142.388	  17.848
     42.5967	  16.000	  20.555	-142.305	  17.827
     42.6302	  20.000	  20.478	-138.228	  17.805
     42.6636	  16.000	  20.406	-142.156	  17.783
     42.6970	  17.000	  20.338	-141.088	  17.761
     42.7304	  15.000	  20.275	-143.025	  17.739
     42.7639	  21.000	  20.216	-136.966	  17.718
     42.7973	  19.000	  20.160	-138.910	  17.696
     42.8307	  16.000	  20.107	-141.857	  17.674
     42.8641	  18.000	  20.040	-139.790	  17.653
     42.8975	  13.000	  19.994	-144.744	  17.631
     42.9310	  16.000	  19.951	-141.701	  17.609
     42.9644	  14.000	  19.901	-143.651	  17.588
     42.9978	  19.000	  19.863	-138.613	  17.566
     43.0312	  13.000	  19.827	-144.577	  17.545
     43.0647	  13.000	  19.794	-144.544	  17.523
     43.0981	  18.000	  19.763	-139.513	  17.502
     43.1315	  16.000	  19.734	-141.484	  17.480
     43.1649	   9.000	  19.708	-148.458	  17.459
     43.1983	   9.000	  19.684	-148.434	  17.437
     43.2318	  13.000	  19.663	-144.413	  17.416
     43.2652	  15.000	  19.644	-142.394	  17.395
     43.2986	  25.000	  19.628	-132.378	  17.373
     43.3320	   8.000	  19.616	-149.366	  17.352
     43.3655	  15.000	  19.607	-142.357	  17.331
     43.3989	  15.000	  19.602	-142.352	  17.310
     43.4323	  13.000	  19.601	-144.351	  17.288
     43.4657	  15.000	  19.606	-142.356	  17.267
     43.4992	  20.000	  19.616	-137.366	  17.246
     43.5326	  17.000	  19.634	-140.384	  17.225
     43.5660	  17.000	  19.659	-140.409	  17.204
     43.5994	  12.000	  19.695	-145.445	  17.183
     43.6328	  19.000	  19.742	-138.492	  17.162
     43.6663	  20.000	  19.805	-137.555	  17.141
     43.6997	  14.000	  19.886	-143.636	  17.120
     43.7331	  18.000	  19.992	-139.742	  17.099
     43.7665	   7.000	  20.128	-150.878	  17.078
     43.8000	  21.000	  20.308	-137.058	  17.057
     43.8334	  22.000	  20.547	-136.297	  17.036
     43.8668	  25.000	  20.877	-133.627	  17.015
     43.9002	  17.000	  21.345	-142.095	  16.994
     43.9336	  20.000	  22.029	-139.779	  16.974
     43.9671	  25.000	  23.040	-135.790	  16.953
     44.0005	  29.000	  24.516	-133.266	  16.932
     44.0339	  18.000	  26.601	-146.351	  16.911
     44.0673	  22.000	  29.372	-145.122	  16.891
     44.1008	  24.000	  32.668	-146.418	  16.870
     44.1342	  38.000	  35.790	-135.540	  16.849
     44.1676	  30.000	  37.555	-145.305	  16.829
     44.2010	  32.000	  37.436	-143.186	  16.808
     44.2345	  39.000	  36.106	-134.856	  16.788
     44.2679	  42.000	  34.157	-129.907	  16.767
     44.3013	  27.000	  31.638	-142.388	  16.747
     44.3347	  22.000	  28.838	-144.588	  16.726
     44.3681	  24.000	  26.282	-140.032	  16.706
     44.4016	  20.000	  24.252	-142.002	  16.685
     44.4350	  17.000	  22.753	-143.503	  16.665
     44.4684	  22.000	  21.685	-137.435	  16.645
     44.5018	  27.000	  20.931	-131.681	  16.624
     44.5353	  18.000	  20.395	-140.145	  16.604
     44.5687	  14.000	  20.004	-143.754	  16.584
     44.6021	  16.000	  19.620	-141.370	  16.563
     44.6355	  29.000	  19.389	-128.139	  16.543
     44.6689	  13.000	  19.202	-143.952	  16.523
     44.7024	  14.000	  19.003	-142.753	  16.503
     44.7358	  19.000	  18.873	-137.623	  16.483
     44.7692	  20.000	  18.761	-136.511	  16.463
     44.8026	  24.000	  18.664	-132.414	  16.442
     44.8361	  20.000	  18.578	-136.328	  16.422
     44.8695	  22.000	  18.502	-134.252	  16.402
     44.9029	  17.000	  18.433	-139.183	  16.382
     44.9363	  19.000	  18.371	-137.121	  16.362
     44.9697	  17.000	  18.315	-139.065	  16.342
     45.0032	  17.000	  18.262	-139.012	  16.323
     45.0366	  16.000	  18.214	-139.964	  16.303
     45.0700	  14.000	  18.169	-141.919	  16.283
     45.1034	  15.000	  18.126	-140.876	  16.263
     45.1369	  17.000	  18.086	-138.836	  16.243
     45.1703	  16.000	  18.048	-139.798	  16.223
     45.2037	  18.000	  18.012	-137.762	  16.204
     45.2371	  20.000	  17.977	-135.727	  16.184
     45.2705	  15.000	  17.944	-140.694	  16.164
     45.3040	  22.000	  17.912	-133.662	  16.144
     45.3374	  24.000	  17.881	-131.631	  16.125
     45.3708	  21.000	  17.851	-134.601	  16.105
     45.4042	  25.000	  17.822	-130.572	  16.086
     45.4377	  12.000	  17.794	-143.544	  16.066
     45.4711	  18.000	  17.766	-137.516	  16.047
     45.5045	  14.000	  17.739	-141.489	  16.027
     45.5379	   6.000	  17.713	-149.463	  16.008
     45.5714	  13.000	  17.687	-142.437	  15.988
     45.6048	  13.000	  17.662	-142.412	  15.969
     45.6382	  12.000	  17.637	-143.387	  15.949
     45.6716	  13.000	  17.612	-142.362	  15.930
     45.7050	  12.000	  17.588	-143.338	  15.911
     45.7385	  10.000	  17.564	-145.314	  15.891
     45.7719	  12.000	  17.541	-143.291	  15.872
     45.8053	  18.000	  17.518	-137.268	  15.853
     45.8387	  13.000	  17.495	-142.245	  15.833
     45.8722	  20.000	  17.472	-135.222	  15.814
     45.9056	  19.000	  17.450	-136.200	  15.795
     45.9390	  14.000	  17.427	-141.177	  15.776
     45.9724	  16.000	  17.405	-139.155	  15.757
     46.0058	  19.000	  17.383	-136.133	  15.738
     46.0393	  18.000	  17.362	-137.112	  15.719
     46.0727	  15.000	  17.340	-140.090	  15.700
     46.1061	  15.000	  17.319	-140.069	  15.681
     46.1395	  24.000	  17.298	-131.048	  15.662
     46.1730	  16.000	  17.276	-139.026	  15.643
     46.2064	  21.000	  17.256	-134.006	  15.624
     46.2398	  14.000	  17.235	-140.985	  15.605
     46.2732	   8.000	  17.214	-146.964	  15.586
     46.3066	  16.000	  17.193	-138.943	  15.567
     46.3401	  15.000	  17.173	-139.923	  15.548
     46.3735	  15.000	  17.153	-139.903	  15.529
     46.4069	  20.000	  17.132	-134.882	  15.511
     46.4403	  18.000	  17.112	-136.862	  15.492
     46.4738	  22.000	  17.092	-132.842	  15.473
     46.5072	  10.000	  17.072	-144.822	  15.455
     46.5406	  16.000	  17.052	-138.802	  15.436
     46.5740	  12.000	  17.032	-142.782	  15.417
     46.6075	  17.000	  17.012	-137.762	  15.399
     46.6409	  18.000	  16.993	-136.743	  15.380
     46.6743	  14.000	  16.973	-140.723	  15.362
     46.7077	  14.000	  16.954	-140.704	  15.343
     46.7411	  12.000	  16.934	-142.684	  15.325
     46.7746	  18.000	  16.915	-136.665	  15.306
     46.8080	  20.000	  16.895	-134.645	  15.288
     46.8414	  17.000	  16.876	-137.626	  15.269
     46.8748	  20.000	  16.857	-134.607	  15.251
     46.9083	  16.000	  16.838	-138.588	  15.233
     46.9417	  20.000	  16.819	-134.569	  15.214
     46.9751	  18.000	  16.800	-136.550	  15.196
     47.0085	  17.000	  16.925	-137.675	  15.178
     47.0419	  16.000	  16.909	-138.659	  15.159
     47.0754	  19.000	  16.894	-135.644	  15.141
     47.1088	  16.000	  16.878	-138.628	  15.123
     47.1422	  20.000	  16.935	-134.685	  15.105
     47.1756	  14.000	  16.921	-140.671	  15.087
     47.2091	  10.000	  16.908	-144.658	  15.069
     47.2425	  15.000	  16.894	-139.645	  15.051
     47.2759	  13.000	  16.881	-141.631	  15.033
     47.3093	  15.000	  16.869	-139.619	  15.015
     47.3427	   7.000	  16.840	-147.590	  14.997
     47.3762	  14.000	  16.829	-140.579	  14.979
     47.4096	  21.000	  16.817	-133.567	  14.961
     47.4430	  19.000	  16.798	-135.548	  14.943
     47.4764	  14.000	  16.787	-140.537	  14.925
     47.5099	  16.000	  16.776	-138.526	  14.907
     47.5433	  20.000	  16.765	-134.515	  14.889
     47.5767	  18.000	  16.755	-136.505	  14.871
     47.6101	  20.000	  16.746	-134.496	  14.854
     47.6435	  16.000	  16.736	-138.486	  14.836
     47.6770	  17.000	  16.727	-137.477	  14.818
     47.7104	  14.000	  16.718	-140.468	  14.800
     47.7438	  18.000	  16.710	-136.460	  14.783
     47.7772	   7.000	  16.702	-147.452	  14.765
     47.8107	  17.000	  16.695	-137.445	  14.747
     47.8441	  20.000	  16.688	-134.438	  14.730
     47.8775	   9.000	  16.681	-145.431	  14.712
     47.9109	  20.000	  16.675	-134.425	  14.695
     47.9444	  18.000	  16.670	-136.420	  14.677
     47.9778	  20.000	  16.665	-134.415	  14.660
     48.0112	  19.000	  16.661	-135.411	  14.642
     48.0446	  16.000	  16.657	-138.407	  14.625
     48.0780	  18.000	  16.654	-136.404	  14.608
     48.1115	  18.000	  16.652	-136.402	  14.590
     48.1449	  21.000	  16.650	-133.400	  14.573
     48.1783	  21.000	  16.649	-133.399	  14.556
     48.2117	  17.000	  16.650	-137.400	  14.538
     48.2452	  13.000	  16.651	-141.401	  14.521
     48.2786	  19.000	  16.653	-135.403	  14.504
     48.3120	  17.000	  16.656	-137.406	  14.487
     48.3454	  20.000	  16.660	-134.410	  14.469
     48.3788	  19.000	  16.665	-135.415	  14.452
     48.4123	  14.000	  16.672	-140.422	  14.435
     48.4457	  25.000	  16.680	-129.430	  14.418
     48.4791	  19.000	  16.690	-135.440	  14.401
     48.5125	  21.000	  16.701	-133.451	  14.384
     48.5460	  20.000	  16.714	-134.464	  14.367
     48.5794	  14.000	  16.729	-140.479	  14.350
     48.6128	  16.000	  16.745	-138.495	  14.333
     48.6462	  20.000	  16.764	-134.514	  14.316
     48.6796	  19.000	  16.786	-135.536	  14.299
     48.7131	  19.000	  16.809	-135.559	  14.282
     48.7465	  32.000	  16.836	-122.586	  14.265
     48.7799	  15.000	  16.866	-139.616	  14.249
     48.8133	  24.000	  16.899	-130.649	  14.232
     48.8468	  18.000	  16.936	-136.686	  14.215
     48.8802	  21.000	  16.977	-133.727	  14.198
     48.9136	  20.000	  17.022	-134.772	  14.182
     48.9470	  14.000	  17.073	-140.823	  14.165
     48.9804	  21.000	  17.128	-133.878	  14.148
     49.0139	  28.000	  17.190	-126.940	  14.132
     49.0473	  19.000	  17.259	-136.009	  14.115
     49.0807	  27.000	  17.335	-128.085	  14.098
     49.1141	  24.000	  17.420	-131.170	  14.082
     49.1476	  13.000	  17.514	-142.264	  14.065
     49.1810	  18.000	  17.619	-137.369	  14.049
     49.2144	  19.000	  17.736	-136.486	  14.032
     49.2478	  18.000	  17.867	-137.617	  14.016
     49.2813	  25.000	  18.014	-130.764	  13.999
     49.3147	  27.000	  18.179	-128.929	  13.983
     49.3481	  34.000	  18.365	-122.115	  13.967
     49.3815	  19.000	  18.576	-137.326	  13.950
     49.4149	  46.000	  18.814	-110.564	  13.934
     49.4484	  16.000	  19.086	-140.836	  13.918
     49.4818	  27.000	  19.397	-130.147	  13.902
     49.5152	  20.000	  19.754	-137.504	  13.885
     49.5486	  24.000	  20.167	-133.917	  13.869
     49.5821	  26.000	  20.647	-132.397	  13.853
     49.6155	  26.000	  21.209	-132.959	  13.837
     49.6489	  24.000	  21.872	-135.622	  13.821
     49.6823	  28.000	  22.659	-132.409	  13.805
     49.7157	  39.000	  23.605	-122.355	  13.788
     49.7492	  39.000	  24.753	-123.503	  13.772
     49.7826	  42.000	  26.170	-121.920	  13.756
     49.8160	  38.000	  27.953	-127.703	  13.740
     49.8494	  51.000	  30.256	-117.006	  13.724
     49.8829	  37.000	  33.321	-134.071	  13.708
     49.9163	  41.000	  37.514	-134.264	  13.693
     49.9497	  48.000	  43.366	-133.116	  13.677
     49.9831	  62.000	  51.564	-127.314	  13.661
     50.0165	  70.000	  62.912	-130.662	  13.645
     50.0500	  67.000	  78.159	-148.909	  13.629
     50.0834	 101.000	  97.534	-134.284	  13.613
     50.1168	  97.000	 119.720	-160.470	  13.598
     50.1502	 163.000	 140.267	-115.017	  13.582
     50.1837	 152.000	 152.299	-138.049	  13.566
     50.2171	 178.000	 152.583	-112.333	  13.550
     50.2505	 167.000	 144.983	-115.733	  13.535
     50.2839	 127.000	 134.042	-144.792	  13.519
     50.3174	 122.000	 120.231	-135.980	  13.504
     50.3508	 112.000	 103.298	-129.048	  13.488
     50.3842	  81.000	  85.512	-142.262	  13.472
     50.4176	  72.000	  69.672	-135.422	  13.457
     50.4510	  79.000	  56.993	-115.743	  13.441
     50.4845	  56.000	  47.413	-129.163	  13.426
     50.5179	  54.000	  40.373	-124.123	  13.410
     50.5513	  52.000	  35.252	-121.002	  13.395
     50.5847	  43.000	  31.513	-126.263	  13.380
     50.6182	  38.000	  28.739	-128.489	  13.364
     50.6516	  43.000	  26.630	-121.380	  13.349
     50.6850	  48.000	  24.985	-114.735	  13.334
     50.7184	  33.000	  23.667	-128.417	  13.318
     50.7518	  37.000	  22.590	-123.340	  13.303
     50.7853	  36.000	  21.696	-123.446	  13.288
     50.8187	  27.000	  20.944	-131.694	  13.273
     50.8521	  20.000	  20.304	-138.054	  13.257
     50.8855	  27.000	  19.756	-130.506	  13.242
     50.9190	  22.000	  19.281	-135.031	  13.227
     50.9524	  24.000	  18.868	-132.618	  13.212
     50.9858	  25.000	  18.505	-131.255	  13.197
     51.0192	  27.000	  18.184	-128.934	  13.182
     51.0527	  36.000	  17.900	-119.650	  13.167
     51.0861	  26.000	  17.646	-129.396	  13.152
     51.1195	  38.000	  17.418	-117.168	  13.137
     51.1529	  29.000	  17.213	-125.963	  13.122
     51.1863	  33.000	  17.027	-121.777	  13.107
     51.2198	  27.000	  16.858	-127.608	  13.092
     51.2532	  37.000	  16.703	-117.453	  13.077
     51.2866	  33.000	  16.562	-121.312	  13.062
     51.3200	  21.000	  16.431	-133.181	  13.047
     51.3535	  17.000	  16.311	-137.061	  13.033
     51.3869	  22.000	  16.200	-131.950	  13.018
     51.4203	  22.000	  16.097	-131.847	  13.003
     51.4537	  24.000	  16.001	-129.751	  12.988
     51.4871	  19.000	  15.911	-134.661	  12.974
     51.5206	  25.000	  15.827	-128.577	  12.959
     51.5540	  27.000	  15.748	-126.498	  12.944
     51.5874	  19.000	  16.005	-134.755	  12.930
     51.6208	  26.000	  15.942	-127.692	  12.915
     51.6543	  28.000	  15.883	-125.633	  12.900
     51.6877	  31.000	  15.828	-122.578	  12.886
     51.7211	  20.000	  15.940	-133.690	  12.871
     51.7545	  20.000	  15.895	-133.645	  12.857
     51.7879	  27.000	  15.853	-126.603	  12.842
     51.8214	  19.000	  15.813	-134.563	  12.828
     51.8548	  21.000	  15.777	-132.527	  12.813
     51.8882	  14.000	  15.743	-139.493	  12.799
     51.9216	  19.000	  15.711	-134.461	  12.785
     51.9551	  19.000	  15.682	-134.432	  12.770
     51.9885	  27.000	  15.655	-126.405	  12.756
     52.0219	  24.000	  15.629	-129.379	  12.742
     52.0553	  17.000	  15.606	-136.356	  12.727
     52.0887	  31.000	  15.585	-122.335	  12.713
     52.1222	  26.000	  15.565	-127.315	  12.699
     52.1556	  18.000	  15.547	-135.297	  12.685
     52.1890	  20.000	  15.531	-133.281	  12.671
     52.2224	  22.000	  15.517	-131.267	  12.656
     52.2559	  26.000	  15.504	-127.254	  12.642
     52.2893	  19.000	  15.493	-134.243	  12.628
     52.3227	  16.000	  15.483	-137.233	  12.614
     52.3561	  22.000	  15.476	-131.226	  12.600
     52.3895	  14.000	  15.469	-139.219	  12.586
     52.4230	  19.000	  15.465	-134.215	  12.572
     52.4564	  19.000	  15.462	-134.212	  12.558
     52.4898	  12.000	  15.460	-141.210	  12.544
     52.5232	  15.000	  15.461	-138.211	  12.530
     52.5567	  15.000	  15.463	-138.213	  12.516
     52.5901	  19.000	  15.467	-134.217	  12.502
     52.6235	  17.000	  15.472	-136.222	  12.488
     52.6569	  21.000	  15.480	-132.230	  12.475
     52.6904	  17.000	  15.489	-136.239	  12.461
     52.7238	  27.000	  15.500	-126.250	  12.447
     52.7572	  19.000	  15.514	-134.264	  12.433
     52.7906	  17.000	  15.529	-136.279	  12.419
     52.8240	  24.000	  15.547	-129.297	  12.406
     52.8575	  19.000	  15.567	-134.317	  12.392
     52.8909	  14.000	  15.590	-139.340	  12.378
     52.9243	  20.000	  15.615	-133.365	  12.365
     52.9577	  14.000	  15.644	-139.394	  12.351
     52.9912	  27.000	  15.675	-126.425	  12.337
     53.0246	  13.000	  15.709	-140.459	  12.324
     53.0580	  26.000	  15.746	-127.496	  12.310
     53.0914	  16.000	  15.787	-137.537	  12.297
     53.1248	  15.000	  15.832	-138.582	  12.283
     53.1583	  16.000	  15.881	-137.631	  12.270
     53.1917	  28.000	  15.934	-125.684	  12.256
     53.2251	  13.000	  15.992	-140.742	  12.243
     53.2585	  24.000	  16.055	-129.805	  12.229
     53.2920	  28.000	  16.124	-125.874	  12.216
     53.3254	  17.000	  16.198	-136.948	  12.203
     53.3588	  26.000	  16.279	-128.029	  12.189
     53.3922	  20.000	  16.226	-133.976	  12.176
     53.4257	  18.000	  16.325	-136.075	  12.163
     53.4591	  17.000	  16.432	-137.182	  12.149
     53.4925	  19.000	  16.548	-135.298	  12.136
     53.5259	  18.000	  16.604	-136.354	  12.123
     53.5593	  25.000	  16.742	-129.492	  12.110
     53.5928	  27.000	  16.893	-127.643	  12.097
     53.6262	  34.000	  17.057	-120.807	  12.083
     53.6596	  24.000	  17.236	-130.986	  12.070
     53.6930	  24.000	  17.432	-131.182	  12.057
     53.7264	  25.000	  17.647	-130.397	  12.044
     53.7599	  18.000	  17.883	-137.633	  12.031
     53.7933	  28.000	  18.143	-127.893	  12.018
     53.8267	  30.000	  18.434	-126.184	  12.005
     53.8601	  27.000	  18.751	-129.501	  11.992
     53.8936	  31.000	  19.103	-125.853	  11.979
     53.9270	  37.000	  19.495	-120.245	  11.966
     53.9604	  37.000	  19.932	-120.682	  11.953
     53.9938	  28.000	  20.425	-130.175	  11.940
     54.0273	  21.000	  20.977	-137.727	  11.927
     54.0607	  39.000	  21.601	-120.351	  11.914
     54.0941	  21.000	  22.310	-139.060	  11.902
     54.1275	  33.000	  23.118	-127.868	  11.889
     54.1609	  25.000	  24.046	-136.796	  11.876
     54.1944	  28.000	  25.117	-134.867	  11.863
     54.2278	  33.000	  26.362	-131.112	  11.851
     54.2612	  41.000	  27.819	-124.569	  11.838
     54.2946	  44.000	  29.538	-123.288	  11.825
     54.3281	  51.000	  31.587	-118.337	  11.812
     54.3615	  46.000	  34.059	-125.809	  11.800
     54.3949	  51.000	  37.086	-123.836	  11.787
     54.4283	  44.000	  40.863	-134.613	  11.775
     54.4617	  51.000	  45.688	-132.438	  11.762
     54.4952	  75.000	  52.006	-114.756	  11.749
     54.5286	  62.000	  60.466	-136.216	  11.737
     54.5620	  72.000	  71.958	-137.708	  11.724
     54.5954	  90.000	  87.624	-135.374	  11.712
     54.6289	 120.000	 108.766	-126.516	  11.699
     54.6623	 117.000	 136.606	-157.356	  11.687
     54.6957	 157.000	 171.657	-152.407	  11.674
     54.7291	 231.000	 212.262	-119.012	  11.662
     54.7626	 325.000	 252.152	 -64.902	  11.650
     54.7960	 360.000	 280.230	 -57.980	  11.637
     54.8294	 327.000	 287.978	 -98.728	  11.625
     54.8628	 290.000	 278.373	-126.123	  11.613
     54.8962	 282.000	 260.792	-116.542	  11.600
     54.9297	 266.000	 239.658	-111.408	  11.588
     54.9631	 226.000	 213.510	-125.260	  11.576
     54.9965	 198.000	 182.233	-121.983	  11.564
     55.0299	 175.000	 150.039	-112.789	  11.551
     55.0634	 119.000	 121.349	-140.099	  11.539
     55.0968	 114.000	  98.044	-121.794	  11.527
     55.1302	  81.000	  80.056	-136.806	  11.515
     55.1636	  62.000	  66.479	-142.229	  11.503
     55.1970	  54.000	  56.348	-140.098	  11.491
     55.2305	  57.000	  48.778	-129.528	  11.479
     55.2639	  63.000	  43.065	-117.815	  11.466
     55.2973	  48.000	  38.658	-128.408	  11.454
     55.3307	  56.000	  35.190	-116.940	  11.442
     55.3642	  39.000	  32.403	-131.153	  11.430
     55.3976	  32.000	  30.118	-135.868	  11.418
     55.4310	  44.000	  28.216	-121.966	  11.406
     55.4644	  21.000	  26.614	-143.364	  11.395
     55.4978	  28.000	  25.249	-134.999	  11.383
     55.5313	  27.000	  24.078	-134.828	  11.371
     55.5647	  36.000	  23.064	-124.814	  11.359
     55.5981	  30.000	  22.181	-129.931	  11.347
     55.6315	  26.000	  21.407	-133.157	  11.335
     55.6650	  22.000	  20.725	-136.475	  11.323
     55.6984	  28.000	  20.120	-129.870	  11.312
     55.7318	  20.000	  19.582	-137.332	  11.300
     55.7652	  19.000	  19.100	-137.850	  11.288
     55.7986	  18.000	  18.668	-138.418	  11.276
     55.8321	  15.000	  18.279	-141.029	  11.265
     55.8655	  17.000	  17.926	-138.676	  11.253
     55.8989	   9.000	  17.606	-146.356	  11.241
     55.9323	  18.000	  17.315	-137.065	  11.230
     55.9658	  29.000	  17.049	-125.799	  11.218
     55.9992	  28.000	  16.806	-126.556	  11.206
     56.0326	  17.000	  16.583	-137.333	  11.195
     56.0660	  25.000	  16.378	-129.128	  11.183
     56.0994	  22.000	  16.189	-131.939	  11.172
     56.1329	  28.000	  16.015	-125.765	  11.160
     56.1663	  19.000	  15.854	-134.604	  11.149
     56.1997	  15.000	  15.705	-138.455	  11.137
     56.2331	  21.000	  15.567	-132.317	  11.126
     56.2666	  14.000	  15.440	-139.190	  11.114
     56.3000	  17.000	  15.322	-136.072	  11.103
     56.3334	  15.000	  15.213	-137.963	  11.092
     56.3668	  14.000	  15.112	-138.862	  11.080
     56.4003	  20.000	  15.019	-132.769	  11.069
     56.4337	  33.000	  14.933	-119.683	  11.058
     56.4671	  25.000	  14.855	-127.605	  11.046
     56.5005	  16.000	  14.784	-136.534	  11.035
     56.5339	  17.000	  14.721	-135.471	  11.024
     56.5674	  16.000	  14.666	-136.416	  11.012
     56.6008	  20.000	  14.618	-132.368	  11.001
     56.6342	  16.000	  14.580	-136.330	  10.990
     56.6676	  15.000	  14.552	-137.302	  10.979
     56.7011	  20.000	  14.536	-132.286	  10.968
     56.7345	  16.000	  14.537	-136.287	  10.956
     56.7679	  19.000	  14.558	-133.309	  10.945
     56.8013	  18.000	  14.608	-134.358	  10.934
     56.8347	  20.000	  14.695	-132.445	  10.923
     56.8682	  21.000	  14.831	-131.581	  10.912
     56.9016	  22.000	  15.029	-130.779	  10.901
     56.9350	  22.000	  15.300	-131.050	  10.890
     56.9684	  19.000	  15.645	-134.395	  10.879
     57.0019	  20.000	  16.037	-133.787	  10.868
     57.0353	  26.000	  16.403	-128.153	  10.857
     57.0687	  17.000	  16.630	-137.380	  10.846
     57.1021	  16.000	  16.651	-138.401	  10.835
     57.1356	  14.000	  16.511	-140.261	  10.824
     57.1690	  21.000	  16.305	-133.055	  10.813
     57.2024	  17.000	  16.070	-136.820	  10.802
     57.2358	  16.000	  15.790	-137.540	  10.791
     57.2692	  22.000	  15.460	-131.210	  10.781
     57.3027	  19.000	  15.116	-133.866	  10.770
     57.3361	  19.000	  14.806	-133.556	  10.759
     57.3695	  18.000	  14.551	-134.301	  10.748
     57.4029	   9.000	  14.354	-143.104	  10.737
     57.4364	  16.000	  14.207	-135.957	  10.727
     57.4698	  22.000	  14.101	-129.851	  10.716
     57.5032	  27.000	  14.028	-124.778	  10.705
     57.5366	  18.000	  13.982	-133.732	  10.695
     57.5700	   9.000	  13.957	-142.707	  10.684
     57.6035	  14.000	  13.949	-137.699	  10.673
     57.6369	  24.000	  13.959	-127.709	  10.663
     57.6703	  15.000	  13.983	-136.733	  10.652
     57.7037	  13.000	  14.024	-138.774	  10.641
     57.7372	  10.000	  14.082	-141.832	  10.631
     57.7706	  14.000	  14.160	-137.910	  10.620
     57.8040	  21.000	  14.260	-131.010	  10.610
     57.8374	  18.000	  14.387	-134.137	  10.599
     57.8708	  18.000	  14.546	-134.296	  10.589
     57.9043	  22.000	  14.746	-130.496	  10.578
     57.9377	  22.000	  15.001	-130.751	  10.568
     57.9711	  20.000	  15.327	-133.077	  10.557
     58.0045	  24.000	  15.751	-129.501	  10.547
     58.0380	  17.000	  16.311	-137.061	  10.536
     58.0714	   9.000	  16.739	-145.489	  10.526
     58.1048	  20.000	  17.750	-135.500	  10.516
     58.1382	  17.000	  19.097	-139.847	  10.505
     58.1716	  30.000	  20.867	-128.617	  10.495
     58.2051	  19.000	  22.965	-141.715	  10.485
     58.2385	  27.000	  25.700	-136.450	  10.474
     58.2719	  26.000	  28.725	-140.475	  10.464
     58.3053	  30.000	  31.636	-139.386	  10.454
     58.3388	  48.000	  33.897	-123.647	  10.443
     58.3722	  42.000	  35.031	-130.781	  10.433
     58.4056	  62.000	  34.884	-110.634	  10.423
     58.4390	  30.000	  33.767	-141.517	  10.413
     58.4725	  25.000	  32.143	-144.893	  10.403
     58.5059	  36.000	  30.239	-131.989	  10.392
     58.5393	  38.000	  28.051	-127.801	  10.382
     58.5727	  36.000	  25.621	-127.371	  10.372
     58.6061	  24.000	  23.176	-136.926	  10.362
     58.6396	  33.000	  20.972	-125.722	  10.352
     58.6730	  25.000	  19.146	-131.896	  10.342
     58.7064	  22.000	  17.701	-133.451	  10.332
     58.7398	  28.000	  16.586	-126.336	  10.322
     58.7733	  21.000	  15.734	-132.484	  10.312
     58.8067	  19.000	  15.082	-133.832	  10.302
     58.8401	  24.000	  14.578	-128.328	  10.292
     58.8735	  20.000	  14.184	-131.934	  10.282
     58.9069	  18.000	  13.869	-133.619	  10.272
     58.9404	  18.000	  13.612	-133.362	  10.262
     58.9738	  21.000	  13.400	-130.150	  10.252
     59.0072	  18.000	  13.220	-132.970	  10.242
     59.0406	  14.000	  13.068	-136.818	  10.232
     59.0741	  25.000	  12.936	-125.686	  10.222
     59.1075	  13.000	  12.821	-137.571	  10.212
     59.1409	  29.000	  12.720	-121.470	  10.202
     59.1743	  24.000	  12.630	-126.380	  10.193
     59.2077	  24.000	  12.550	-126.300	  10.183
     59.2412	  25.000	  12.479	-125.229	  10.173
     59.2746	  18.000	  12.414	-132.164	  10.163
     59.3080	  10.000	  12.356	-140.106	  10.153
     59.3414	  17.000	  12.302	-133.052	  10.144
     59.3749	  19.000	  12.253	-131.003	  10.134
     59.4083	  20.000	  12.208	-129.958	  10.124
     59.4417	  20.000	  12.166	-129.916	  10.115
     59.4751	  22.000	  12.128	-127.878	  10.105
     59.5086	  20.000	  12.091	-129.841	  10.095
     59.5420	  19.000	  12.057	-130.807	  10.086
     59.5754	  16.000	  12.026	-133.776	  10.076
     59.6088	  16.000	  11.996	-133.746	  10.066
     59.6422	  20.000	  11.967	-129.717	  10.057
     59.6757	  14.000	  11.940	-135.690	  10.047
     59.7091	  30.000	  11.915	-119.665	  10.038
     59.7425	  20.000	  11.890	-129.640	  10.028
     59.7759	  21.000	  11.867	-128.617	  10.019
     59.8093	  19.000	  11.845	-130.595	  10.009
     59.8428	  22.000	  11.823	-127.573	  10.000
     59.8762	  24.000	  11.803	-125.553	   9.990
     59.9096	  18.000	  11.783	-131.533	   9.981
     59.9430	  18.000	  11.764	-131.514	   9.971
     59.9765	  19.000	  11.745	-130.495	   9.962
     60.0099	  14.000	  11.727	-135.477	   9.952
     60.0433	  27.000	  11.710	-122.460	   9.943
     60.0767	  17.000	  11.693	-132.443	   9.933
     60.1102	  22.000	  11.811	-127.561	   9.924
     60.1436	  15.000	  11.797	-134.547	   9.915
     60.1770	  17.000	  11.784	-132.534	   9.905
     60.2104	  19.000	  11.772	-130.522	   9.896
     60.2438	  28.000	  11.760	-121.510	   9.887
     60.2773	  27.000	  11.815	-122.565	   9.877
     60.3107	  18.000	  11.805	-131.555	   9.868
     60.3441	  20.000	  11.792	-129.542	   9.859
     60.3775	  17.000	  11.783	-132.533	   9.850
     60.4110	  26.000	  11.775	-123.525	   9.840
     60.4444	  18.000	  11.767	-131.517	   9.831
     60.4778	  19.000	  11.757	-130.507	   9.822
     60.5112	  12.000	  11.750	-137.500	   9.813
     60.5446	  10.000	  11.743	-139.493	   9.804
     60.5781	  21.000	  11.736	-128.486	   9.794
     60.6115	  22.000	  11.730	-127.480	   9.785
     60.6449	  15.000	  11.724	-134.474	   9.776
     60.6783	  21.000	  11.719	-128.469	   9.767
     60.7118	   9.000	  11.714	-140.464	   9.758
     60.7452	  15.000	  11.709	-134.459	   9.749
     60.7786	  19.000	  11.705	-130.455	   9.740
     60.8120	  19.000	  11.701	-130.451	   9.731
     60.8455	  21.000	  11.697	-128.447	   9.722
     60.8789	  18.000	  11.694	-131.444	   9.713
     60.9123	  20.000	  11.692	-129.442	   9.704
     60.9457	  17.000	  11.689	-132.439	   9.695
     60.9791	   9.000	  11.688	-140.438	   9.686
     61.0126	  17.000	  11.686	-132.436	   9.677
     61.0460	  18.000	  11.686	-131.436	   9.668
     61.0794	  15.000	  11.685	-134.435	   9.659
     61.1128	  19.000	  11.685	-130.436	   9.650
     61.1463	  16.000	  11.686	-133.436	   9.641
     61.1797	  21.000	  11.688	-128.438	   9.632
     61.2131	  17.000	  11.690	-132.440	   9.623
     61.2465	  12.000	  11.692	-137.442	   9.614
     61.2799	  21.000	  11.695	-128.445	   9.605
     61.3134	  17.000	  11.699	-132.449	   9.596
     61.3468	  22.000	  11.704	-127.454	   9.588
     61.3802	  18.000	  11.709	-131.459	   9.579
     61.4136	  13.000	  11.715	-136.465	   9.570
     61.4471	  17.000	  11.722	-132.472	   9.561
     61.4805	  16.000	  11.730	-133.480	   9.552
     61.5139	  21.000	  11.739	-128.489	   9.544
     61.5473	  18.000	  11.749	-131.499	   9.535
     61.5807	  19.000	  11.751	-130.501	   9.526
     61.6142	  25.000	  11.763	-124.513	   9.517
     61.6476	  15.000	  11.755	-134.505	   9.509
     61.6810	  15.000	  11.771	-134.521	   9.500
     61.7144	  22.000	  11.788	-127.538	   9.491
     61.7479	  24.000	  11.971	-125.721	   9.483
     61.7813	  14.000	  11.995	-135.745	   9.474
     61.8147	  15.000	  12.009	-134.759	   9.465
     61.8481	  17.000	  12.037	-132.787	   9.457
     61.8816	  19.000	  12.067	-130.817	   9.448
     61.9150	  20.000	  12.099	-129.849	   9.439
     61.9484	  17.000	  12.220	-132.970	   9.431
     61.9818	  17.000	  12.259	-133.009	   9.422
     62.0152	  14.000	  12.302	-136.052	   9.414
     62.0487	   9.000	  12.347	-141.097	   9.405
     62.0821	  17.000	  12.397	-133.147	   9.397
     62.1155	  15.000	  12.450	-135.200	   9.388
     62.1489	  18.000	  12.508	-132.258	   9.380
     62.1824	  26.000	  12.571	-124.321	   9.371
     62.2158	  19.000	  12.639	-131.389	   9.363
     62.2492	  25.000	  12.713	-125.463	   9.354
     62.2826	  20.000	  12.794	-130.544	   9.346
     62.3160	  21.000	  12.882	-129.632	   9.337
     62.3495	  14.000	  12.978	-136.728	   9.329
     62.3829	  13.000	  13.083	-137.833	   9.320
     62.4163	  14.000	  13.199	-136.949	   9.312
     62.4497	  15.000	  13.325	-136.075	   9.303
     62.4832	  14.000	  13.465	-137.215	   9.295
     62.5166	  18.000	  13.620	-133.370	   9.287
     62.5500	  20.000	  13.792	-131.542	   9.278
     62.5834	   7.000	  13.982	-144.732	   9.270
     62.6168	  24.000	  14.195	-127.945	   9.262
     62.6503	  16.000	  14.434	-136.184	   9.253
     62.6837	  20.000	  14.703	-132.453	   9.245
     62.7171	  20.000	  15.006	-132.756	   9.237
     62.7505	  24.000	  15.351	-129.101	   9.228
     62.7840	  24.000	  15.745	-129.495	   9.220
     62.8174	  28.000	  16.197	-125.947	   9.212
     62.8508	  22.000	  16.720	-132.470	   9.204
     62.8842	  22.000	  17.328	-133.078	   9.195
     62.9176	  28.000	  18.043	-127.793	   9.187
     62.9511	  27.000	  18.892	-129.642	   9.179
     62.9845	  24.000	  19.913	-133.663	   9.171
     63.0179	  26.000	  21.159	-132.909	   9.162
     63.0513	  13.000	  22.707	-147.457	   9.154
     63.0848	  24.000	  24.665	-138.415	   9.146
     63.1182	  21.000	  27.179	-143.929	   9.138
     63.1516	  43.000	  30.444	-125.194	   9.130
     63.1850	  48.000	  34.704	-124.454	   9.122
     63.2185	  40.000	  40.239	-137.989	   9.114
     63.2519	  39.000	  47.342	-146.092	   9.105
     63.2853	  53.000	  56.228	-140.978	   9.097
     63.3187	  64.000	  66.859	-140.609	   9.089
     63.3521	  56.000	  78.557	-160.307	   9.081
     63.3856	 111.000	  89.571	-116.321	   9.073
     63.4190	 111.000	  97.265	-124.015	   9.065
     63.4524	  96.000	  99.740	-141.490	   9.057
     63.4858	  84.000	  97.548	-151.298	   9.049
     63.5193	  81.000	  92.979	-149.729	   9.041
     63.5527	  79.000	  87.743	-146.493	   9.033
     63.5861	  81.000	  81.918	-138.668	   9.025
     63.6195	  83.000	  74.803	-129.553	   9.017
     63.6529	  51.000	  66.353	-153.103	   9.009
     63.6864	  54.000	  57.501	-141.251	   9.001
     63.7198	  41.000	  49.307	-146.057	   8.993
     63.7532	  44.000	  42.346	-136.096	   8.985
     63.7866	  36.000	  36.722	-138.472	   8.977
     63.8201	  28.000	  32.304	-142.054	   8.969
     63.8535	  30.000	  28.882	-136.632	   8.961
     63.8869	  29.000	  26.247	-134.997	   8.953
     63.9203	  28.000	  24.220	-133.970	   8.945
     63.9538	  24.000	  22.652	-136.402	   8.938
     63.9872	  19.000	  21.432	-140.182	   8.930
     64.0206	  26.000	  20.475	-132.225	   8.922
     64.0540	  27.000	  19.721	-130.471	   8.914
     64.0874	  31.000	  19.127	-125.877	   8.906
     64.1209	  22.000	  18.663	-134.413	   8.898
     64.1543	  22.000	  18.306	-134.056	   8.890
     64.1877	  22.000	  18.043	-133.793	   8.883
     64.2211	  27.000	  17.862	-128.612	   8.875
     64.2545	  27.000	  17.758	-128.508	   8.867
     64.2880	  21.000	  17.725	-134.475	   8.859
     64.3214	  19.000	  17.761	-136.511	   8.851
     64.3548	  19.000	  17.868	-136.618	   8.844
     64.3882	  19.000	  18.048	-136.798	   8.836
     64.4217	  15.000	  18.306	-141.056	   8.828
     64.4551	  15.000	  18.649	-141.399	   8.820
     64.4885	  29.000	  19.088	-127.838	   8.813
     64.5219	  27.000	  19.638	-130.388	   8.805
     64.5554	  16.000	  20.320	-142.070	   8.797
     64.5888	  25.000	  21.161	-133.911	   8.790
     64.6222	  27.000	  22.201	-132.951	   8.782
     64.6556	  32.000	  23.493	-129.243	   8.774
     64.6890	  26.000	  25.116	-136.866	   8.767
     64.7225	  20.000	  27.180	-144.930	   8.759
     64.7559	  34.000	  29.837	-133.587	   8.751
     64.7893	  28.000	  33.285	-143.035	   8.744
     64.8227	  25.000	  37.776	-150.526	   8.736
     64.8562	  43.000	  43.615	-138.365	   8.728
     64.8896	  45.000	  51.130	-143.880	   8.721
     64.9230	  37.000	  60.620	-161.370	   8.713
     64.9564	  54.000	  72.190	-155.940	   8.706
     64.9898	  88.000	  85.467	-135.217	   8.698
     65.0233	 111.000	  99.068	-125.818	   8.691
     65.0567	 112.000	 110.379	-136.129	   8.683
     65.0901	 112.000	 116.520	-142.270	   8.675
     65.1235	 108.000	 116.549	-146.299	   8.668
     65.1570	  88.000	 112.292	-162.042	   8.660
     65.1904	  84.000	 106.386	-160.136	   8.653
     65.2238	  88.000	 100.038	-149.788	   8.645
     65.2572	 102.000	  92.794	-128.544	   8.638
     65.2906	  89.000	  83.903	-132.653	   8.630
     65.3241	  64.000	  73.674	-147.424	   8.623
     65.3575	  62.000	  63.307	-139.057	   8.615
     65.3909	  53.000	  53.892	-138.642	   8.608
     65.4243	  32.000	  45.944	-151.694	   8.600
     65.4578	  32.000	  39.508	-145.258	   8.593
     65.4912	  39.000	  34.408	-133.158	   8.586
     65.5246	  21.000	  30.403	-147.154	   8.578
     65.5580	  25.000	  27.266	-140.016	   8.571
     65.5915	  22.000	  24.797	-140.547	   8.563
     65.6249	  24.000	  22.837	-136.587	   8.556
     65.6583	  25.000	  21.259	-134.009	   8.548
     65.6917	  21.000	  19.970	-136.720	   8.541
     65.7251	  29.000	  18.902	-127.652	   8.534
     65.7586	  21.000	  18.005	-134.755	   8.526
     65.7920	  17.000	  17.241	-137.991	   8.519
     65.8254	  21.000	  16.585	-133.335	   8.512
     65.8588	  21.000	  16.017	-132.767	   8.504
     65.8923	  21.000	  15.520	-132.270	   8.497
     65.9257	  15.000	  15.084	-137.834	   8.490
     65.9591	  19.000	  14.699	-133.449	   8.482
     65.9925	  14.000	  14.356	-138.106	   8.475
     66.0259	  21.000	  14.051	-130.801	   8.468
     66.0594	  18.000	  13.777	-133.527	   8.460
     66.0928	  13.000	  13.530	-138.280	   8.453
     66.1262	  28.000	  13.307	-123.057	   8.446
     66.1596	  16.000	  13.105	-134.855	   8.438
     66.1931	  13.000	  12.921	-137.671	   8.431
     66.2265	  16.000	  12.753	-134.503	   8.424
     66.2599	  18.000	  12.600	-132.350	   8.417
     66.2933	  18.000	  12.459	-132.209	   8.409
     66.3267	  19.000	  12.331	-131.081	   8.402
     66.3602	   8.000	  12.212	-141.962	   8.395
     66.3936	   7.000	  12.103	-142.853	   8.388
     66.4270	  10.000	  12.003	-139.753	   8.381
     66.4604	   9.000	  11.911	-140.661	   8.373
     66.4939	   7.000	  11.827	-142.577	   8.366
     66.5273	  16.000	  11.749	-133.499	   8.359
     66.5607	  15.000	  11.679	-134.429	   8.352
     66.5941	  15.000	  11.616	-134.366	   8.345
     66.6275	  13.000	  11.560	-136.310	   8.337
     66.6610	  15.000	  11.511	-134.261	   8.330
     66.6944	  16.000	  11.471	-133.221	   8.323
     66.7278	   8.000	  11.441	-141.191	   8.316
     66.7612	  19.000	  11.288	-130.038	   8.309
     66.7947	   7.000	  11.285	-142.035	   8.302
     66.8281	  16.000	  11.299	-133.049	   8.295
     66.8615	  17.000	  11.333	-132.083	   8.288
     66.8949	  14.000	  11.390	-135.140	   8.280
     66.9284	   6.000	  11.406	-143.156	   8.273
     66.9618	  18.000	  11.515	-131.265	   8.266
     66.9952	  15.000	  11.637	-134.387	   8.259
     67.0286	  12.000	  11.751	-137.501	   8.252
     67.0620	  14.000	  11.824	-135.574	   8.245
     67.0955	  15.000	  11.829	-134.579	   8.238
     67.1289	  12.000	  11.772	-137.522	   8.231
     67.1623	  13.000	  11.681	-136.431	   8.224
     67.1957	   6.000	  11.583	-143.333	   8.217
     67.2292	   8.000	  11.480	-141.230	   8.210
     67.2626	  20.000	  11.365	-129.115	   8.203
     67.2960	   7.000	  11.232	-141.982	   8.196
     67.3294	  16.000	  11.087	-132.837	   8.189
     67.3628	  13.000	  10.943	-135.693	   8.182
     67.3963	  10.000	  10.813	-138.563	   8.175
     67.4297	   9.000	  10.700	-139.450	   8.168
     67.4631	  13.000	  10.605	-135.355	   8.161
     67.4965	  18.000	  10.525	-130.275	   8.154
     67.5300	   5.000	  10.458	-143.208	   8.147
     67.5634	   6.000	  10.401	-142.151	   8.140
     67.5968	   4.000	  10.352	-144.102	   8.133
     67.6302	  14.000	  10.310	-134.060	   8.126
     67.6637	   8.000	  10.272	-140.022	   8.119
     67.6971	   8.000	  10.238	-139.988	   8.112
     67.7305	  15.000	  10.208	-132.958	   8.105
     67.7639	   4.000	  10.180	-143.930	   8.098
     67.7973	  10.000	  10.153	-137.903	   8.091
     67.8308	   7.000	  10.129	-140.879	   8.084
     67.8642	   5.000	  10.106	-142.856	   8.077
     67.8976	   9.000	  10.084	-138.834	   8.070
     67.9310	  12.000	  10.063	-135.813	   8.064
     67.9645	  10.000	  10.043	-137.793	   8.057
     67.9979	  10.000	  10.024	-137.774	   8.050
     68.0313	  15.000	  10.006	-132.756	   8.043
     68.0647	   7.000	   9.988	-140.738	   8.036
     68.0981	   6.000	   9.971	-141.721	   8.029
     68.1316	  13.000	   9.954	-134.704	   8.022
     68.1650	  10.000	   9.938	-137.688	   8.015
     68.1984	   8.000	   9.923	-139.673	   8.009
     68.2318	  13.000	   9.908	-134.658	   8.002
     68.2653	  15.000	   9.893	-132.643	   7.995
     68.2987	  15.000	   9.878	-132.628	   7.988
     68.3321	  14.000	   9.864	-133.614	   7.981
     68.3655	   9.000	   9.850	-138.600	   7.974
     68.3989	   7.000	   9.837	-140.587	   7.968
     68.4324	   6.000	   9.655	-141.405	   7.961
     68.4658	  10.000	   9.646	-137.396	   7.954
     68.4992	  14.000	   9.636	-133.386	   7.947
     68.5326	   4.000	   9.627	-143.377	   7.940
     68.5661	  19.000	   9.618	-128.368	   7.934
     68.5995	   7.000	   9.524	-140.274	   7.927
     68.6329	  13.000	   9.517	-134.267	   7.920
     68.6663	   8.000	   9.509	-139.259	   7.913
     68.6997	   6.000	   9.502	-141.252	   7.907
     68.7332	   5.000	   9.495	-142.245	   7.900
     68.7666	   6.000	   9.488	-141.238	   7.893
     68.8000	   4.000	   9.481	-143.231	   7.886
     68.8334	  13.000	   9.474	-134.224	   7.880
     68.8669	   9.000	   9.468	-138.218	   7.873
     68.9003	   9.000	   9.461	-138.211	   7.866
     68.9337	  14.000	   9.454	-133.204	   7.859
     68.9671	   9.000	   9.447	-138.197	   7.853
     69.0005	  10.000	   9.441	-137.191	   7.846
     69.0340	   6.000	   9.434	-141.184	   7.839
     69.0674	  10.000	   9.427	-137.177	   7.832
     69.1008	  14.000	   9.421	-133.171	   7.826
     69.1342	  12.000	   9.415	-135.165	   7.819
     69.1677	   4.000	   9.408	-143.158	   7.812
     69.2011	   5.000	   9.402	-142.152	   7.806
     69.2345	  10.000	   9.396	-137.146	   7.799
     69.2679	   5.000	   9.390	-142.140	   7.792
     69.3014	   8.000	   9.383	-139.133	   7.786
     69.3348	  16.000	   9.377	-131.127	   7.779
     69.3682	   9.000	   9.372	-138.122	   7.772
     69.4016	   7.000	   9.366	-140.116	   7.766
     69.4350	   9.000	   9.360	-138.110	   7.759
     69.4685	  12.000	   9.429	-135.179	   7.752
     69.5019	   9.000	   9.425	-138.175	   7.746
     69.5353	  10.000	   9.421	-137.171	   7.739
     69.5687	   5.000	   9.417	-142.167	   7.733
     69.6022	   8.000	   9.414	-139.164	   7.726
     69.6356	  12.000	   9.410	-135.160	   7.719
     69.6690	  15.000	   9.444	-132.194	   7.713
     69.7024	   6.000	   9.442	-141.192	   7.706
     69.7358	  14.000	   9.441	-133.191	   7.699
     69.7693	   7.000	   9.440	-140.190	   7.693
     69.8027	  13.000	   9.439	-134.189	   7.686
     69.8361	   6.000	   9.438	-141.188	   7.680
     69.8695	  15.000	   9.452	-132.202	   7.673
     69.9030	  15.000	   9.453	-132.203	   7.667
     69.9364	   8.000	   9.455	-139.205	   7.660
     69.9698	  10.000	   9.458	-137.208	   7.653
     70.0032	   8.000	   9.462	-139.212	   7.647
     70.0367	   8.000	   9.466	-139.216	   7.640
     70.0701	   2.000	   9.480	-145.230	   7.634
     70.1035	   5.000	   9.488	-142.238	   7.627
     70.1369	   8.000	   9.499	-139.249	   7.621
     70.1703	   8.000	   9.512	-139.262	   7.614
     70.2038	  12.000	   9.530	-135.280	   7.608
     70.2372	   8.000	   9.552	-139.302	   7.601
     70.2706	   7.000	   9.581	-140.331	   7.594
     70.3040	   9.000	   9.618	-138.368	   7.588
     70.3374	   7.000	   9.665	-140.415	   7.581
     70.3709	   9.000	   9.726	-138.476	   7.575
     70.4043	  12.000	   9.802	-135.552	   7.568
     70.4377	  14.000	   9.892	-133.642	   7.562
     70.4711	   6.000	  10.001	-141.751	   7.555
     70.5046	  12.000	  10.120	-135.870	   7.549
     70.5380	  12.000	  10.235	-135.985	   7.542
     70.5714	  13.000	  10.324	-135.074	   7.536
     70.6048	  13.000	  10.368	-135.118	   7.529
     70.6383	  12.000	  10.362	-136.112	   7.523
     70.6717	   7.000	  10.324	-141.074	   7.516
     70.7051	   7.000	  10.275	-141.025	   7.510
     70.7385	  12.000	  10.224	-135.974	   7.503
     70.7719	  14.000	  10.170	-133.920	   7.497
     70.8054	  10.000	  10.104	-137.854	   7.491
     70.8388	  17.000	  10.025	-130.775	   7.484
     70.8722	   6.000	   9.940	-141.690	   7.478
     70.9056	  15.000	   9.858	-132.608	   7.471
     70.9391	   5.000	   9.785	-142.535	   7.465
     70.9725	   8.000	   9.725	-139.475	   7.458
     71.0059	   9.000	   9.678	-138.428	   7.452
     71.0393	   9.000	   9.642	-138.392	   7.445
     71.0727	   6.000	   9.615	-141.365	   7.439
     71.1062	  10.000	   9.595	-137.345	   7.433
     71.1396	   7.000	   9.582	-140.332	   7.426
     71.1730	  10.000	   9.574	-137.324	   7.420
     71.2064	   9.000	   9.571	-138.321	   7.413
     71.2399	   7.000	   9.570	-140.320	   7.407
     71.2733	  18.000	   9.573	-129.323	   7.400
     71.3067	  13.000	   9.579	-134.329	   7.394
     71.3401	   8.000	   9.587	-139.337	   7.388
     71.3736	   8.000	   9.598	-139.348	   7.381
     71.4070	  12.000	   9.611	-135.361	   7.375
     71.4404	  14.000	   9.626	-133.376	   7.368
     71.4738	  10.000	   9.644	-137.394	   7.362
     71.5072	  13.000	   9.663	-134.413	   7.356
     71.5407	  14.000	   9.686	-133.436	   7.349
     71.5741	   8.000	   9.711	-139.461	   7.343
     71.6075	  12.000	   9.739	-135.489	   7.337
     71.6409	  10.000	   9.770	-137.520	   7.330
     71.6744	  10.000	   9.805	-137.555	   7.324
     71.7078	  10.000	   9.842	-137.592	   7.317
     71.7412	   7.000	   9.884	-140.634	   7.311
     71.7746	  12.000	   9.931	-135.681	   7.305
     71.8080	   7.000	   9.982	-140.732	   7.298
     71.8415	  12.000	  10.038	-135.788	   7.292
     71.8749	   9.000	  10.101	-138.851	   7.286
     71.9083	  18.000	  10.170	-129.920	   7.279
     71.9417	  13.000	  10.247	-134.997	   7.273
     71.9752	  10.000	  10.332	-138.082	   7.267
     72.0086	   5.000	  10.427	-143.177	   7.260
     72.0420	  16.000	  10.533	-132.283	   7.254
     72.0754	   8.000	  10.652	-140.402	   7.248
     72.1088	   6.000	  10.785	-142.535	   7.241
     72.1423	  14.000	  10.935	-134.685	   7.235
     72.1757	  13.000	  11.106	-135.856	   7.229
     72.2091	  10.000	  11.299	-139.049	   7.222
     72.2425	  16.000	  11.520	-133.270	   7.216
     72.2760	  22.000	  11.774	-127.524	   7.210
     72.3094	  15.000	  12.068	-134.818	   7.204
     72.3428	  12.000	  12.410	-138.160	   7.197
     72.3762	  18.000	  12.812	-132.562	   7.191
     72.4097	  21.000	  13.290	-130.040	   7.185
     72.4431	  10.000	  13.864	-141.614	   7.178
     72.4765	  22.000	  14.563	-130.313	   7.172
     72.5099	  12.000	  15.422	-141.172	   7.166
     72.5433	  10.000	  16.490	-144.240	   7.160
     72.5768	  16.000	  17.825	-139.575	   7.153
     72.6102	  16.000	  19.501	-141.251	   7.147
     72.6436	  19.000	  21.599	-140.349	   7.141
     72.6770	  24.000	  24.202	-137.952	   7.134
     72.7104	  21.000	  27.383	-144.133	   7.128
     72.7439	  38.000	  31.163	-130.913	   7.122
     72.7773	  40.000	  35.439	-133.189	   7.116
     72.8107	  41.000	  39.871	-136.621	   7.109
     72.8441	  48.000	  43.822	-133.572	   7.103
     72.8776	  52.000	  46.514	-132.264	   7.097
     72.9110	  55.000	  47.470	-130.220	   7.091
     72.9444	  52.000	  46.886	-132.636	   7.084
     72.9778	  50.000	  45.464	-133.214	   7.078
     73.0113	  46.000	  43.852	-135.602	   7.072
     73.0447	  40.000	  42.293	-140.043	   7.066
     73.0781	  48.000	  40.636	-130.386	   7.059
     73.1115	  29.000	  38.637	-147.387	   7.053
     73.1449	  46.000	  36.269	-128.019	   7.047
     73.1784	  25.000	  33.769	-146.519	   7.041
     73.2118	  28.000	  31.409	-141.159	   7.035
     73.2452	  25.000	  29.307	-142.057	   7.028
     73.2786	  28.000	  27.412	-137.162	   7.022
     73.3121	  29.000	  25.662	-134.412	   7.016
     73.3455	  16.000	  23.948	-145.698	   7.010
     73.3789	  33.000	  22.367	-127.117	   7.004
     73.4123	  14.000	  20.981	-144.731	   6.997
     73.4457	  16.000	  19.791	-141.541	   6.991
     73.4792	  13.000	  18.733	-143.483	   6.985
     73.5126	  29.000	  17.725	-126.475	   6.979
     73.5460	  15.000	  16.746	-139.496	   6.973
     73.5794	  13.000	  15.771	-140.521	   6.966
     73.6129	  15.000	  14.865	-137.615	   6.960
     73.6463	   9.000	  14.059	-142.809	   6.954
     73.6797	   8.000	  13.366	-143.116	   6.948
     73.7131	   9.000	  12.780	-141.530	   6.942
     73.7466	   8.000	  12.288	-142.038	   6.936
     73.7800	  16.000	  11.875	-133.625	   6.929
     73.8134	   8.000	  11.529	-141.279	   6.923
     73.8468	  16.000	  11.236	-132.986	   6.917
     73.8802	   6.000	  10.986	-142.736	   6.911
     73.9137	  17.000	  10.772	-131.522	   6.905
     73.9471	  15.000	  10.587	-133.337	   6.899
     73.9805	  24.000	  10.424	-124.174	   6.892
     74.0139	   8.000	  10.280	-140.030	   6.886
     74.0474	  12.000	  10.153	-135.903	   6.880
     74.0808	  12.000	  10.039	-135.789	   6.874
     74.1142	  13.000	   9.937	-134.687	   6.868
     74.1476	   9.000	   9.845	-138.595	   6.862
     74.1810	  16.000	   9.762	-131.512	   6.856
     74.2145	  13.000	   9.685	-134.435	   6.849
     74.2479	  19.000	   9.616	-128.366	   6.843
     74.2813	   6.000	   9.552	-141.302	   6.837
     74.3147	  13.000	   9.494	-134.244	   6.831
     74.3482	  18.000	   9.440	-129.190	   6.825
     74.3816	   7.000	   9.391	-140.141	   6.819
     74.4150	  18.000	   9.345	-129.095	   6.813
     74.4484	  13.000	   9.302	-134.052	   6.807
     74.4818	  10.000	   9.263	-137.013	   6.800
     74.5153	  12.000	   9.226	-134.976	   6.794
     74.5487	  14.000	   9.192	-132.942	   6.788
     74.5821	  12.000	   9.160	-134.910	   6.782
     74.6155	  15.000	   9.130	-131.880	   6.776
     74.6490	  13.000	   9.103	-133.853	   6.770
     74.6824	   6.000	   9.077	-140.827	   6.764
     74.7158	   8.000	   9.053	-138.803	   6.758
     74.7492	  14.000	   9.031	-132.781	   6.752
     74.7826	   7.000	   9.010	-139.760	   6.746
     74.8161	  16.000	   8.991	-130.741	   6.740
     74.8495	   7.000	   8.973	-139.723	   6.733
     74.8829	   7.000	   8.956	-139.706	   6.727
     74.9163	   6.000	   8.941	-140.691	   6.721
     74.9498	  10.000	   8.927	-136.677	   6.715
     74.9832	  15.000	   8.914	-131.664	   6.709
     75.0166	   9.000	   8.902	-137.652	   6.703
     75.0500	  16.000	   8.891	-130.641	   6.697
     75.0835	  12.000	   8.882	-134.632	   6.691
     75.1169	   8.000	   8.874	-138.624	   6.685
     75.1503	  12.000	   8.867	-134.617	   6.679
     75.1837	   9.000	   8.861	-137.611	   6.673
     75.2171	   7.000	   8.856	-139.606	   6.667
     75.2506	   7.000	   8.852	-139.602	   6.661
     75.2840	  16.000	   8.850	-130.600	   6.655
     75.3174	   9.000	   8.849	-137.599	   6.649
     75.3508	   6.000	   8.849	-140.599	   6.643
     75.3843	   4.000	   8.851	-142.601	   6.637
     75.4177	   8.000	   8.854	-138.604	   6.631
     75.4511	  13.000	   8.859	-133.609	   6.625
     75.4845	   9.000	   8.865	-137.615	   6.619
     75.5179	   7.000	   8.904	-139.654	   6.613
     75.5514	   9.000	   8.915	-137.665	   6.606
     75.5848	  10.000	   8.928	-136.678	   6.600
     75.6182	  17.000	   8.943	-129.693	   6.594
     75.6516	   7.000	   8.961	-139.711	   6.588
     75.6851	   8.000	   8.981	-138.731	   6.582
     75.7185	   7.000	   9.005	-139.755	   6.576
     75.7519	   7.000	   9.047	-139.797	   6.570
     75.7853	  10.000	   9.079	-136.829	   6.564
     75.8187	  10.000	   9.115	-136.865	   6.558
     75.8522	   5.000	   9.155	-141.905	   6.552
     75.8856	   5.000	   9.202	-141.952	   6.546
     75.9190	   4.000	   9.256	-143.006	   6.540
     75.9524	  13.000	   9.317	-134.067	   6.535
     75.9859	   7.000	   9.387	-140.137	   6.529
     76.0193	   8.000	   9.469	-139.219	   6.523
     76.0527	  10.000	   9.563	-137.313	   6.517
     76.0861	  14.000	   9.673	-133.423	   6.511
     76.1196	   5.000	   9.801	-142.551	   6.505
     76.1530	   7.000	   9.951	-140.701	   6.499
     76.1864	   5.000	  10.126	-142.876	   6.493
     76.2198	  12.000	  10.332	-136.082	   6.487
     76.2532	  13.000	  10.570	-135.320	   6.481
     76.2867	  14.000	  10.844	-134.594	   6.475
     76.3201	  13.000	  11.154	-135.904	   6.469
     76.3535	  10.000	  11.426	-139.176	   6.463
     76.3869	  15.000	  11.807	-134.557	   6.457
     76.4204	  17.000	  12.238	-132.988	   6.451
     76.4538	  12.000	  12.747	-138.497	   6.445
     76.4872	  12.000	  13.372	-139.122	   6.439
     76.5206	   1.000	  14.152	-150.902	   6.433
     76.5540	  12.000	  15.088	-140.838	   6.427
     76.5875	  19.000	  16.288	-135.038	   6.421
     76.6209	  20.000	  17.742	-135.492	   6.415
     76.6543	  20.000	  19.472	-137.222	   6.410
     76.6877	  17.000	  21.431	-142.181	   6.404
     76.7212	  22.000	  23.509	-139.259	   6.398
     76.7546	  36.000	  25.451	-127.201	   6.392
     76.7880	  25.000	  26.944	-139.694	   6.386
     76.8214	  34.000	  27.680	-131.430	   6.380
     76.8548	  24.000	  27.607	-141.357	   6.374
     76.8883	  19.000	  26.953	-145.703	   6.368
     76.9217	  19.000	  26.041	-144.791	   6.362
     76.9551	  17.000	  25.093	-145.843	   6.356
     76.9885	  27.000	  24.154	-134.904	   6.351
     77.0220	  28.000	  23.115	-132.865	   6.345
     77.0554	  22.000	  21.861	-137.611	   6.339
     77.0888	  17.000	  20.389	-141.139	   6.333
     77.1222	  17.000	  18.810	-139.560	   6.327
     77.1556	  19.000	  17.272	-136.022	   6.321
     77.1891	  12.000	  15.876	-141.626	   6.315
     77.2225	   8.000	  14.672	-144.422	   6.309
     77.2559	   5.000	  13.662	-146.412	   6.304
     77.2893	  10.000	  12.828	-140.578	   6.298
     77.3228	   7.000	  12.146	-142.896	   6.292
     77.3562	  16.000	  11.589	-133.339	   6.286
     77.3896	   9.000	  11.134	-139.884	   6.280
     77.4230	  10.000	  10.761	-138.511	   6.274
     77.4565	   5.000	  10.454	-143.204	   6.269
     77.4899	  14.000	  10.198	-133.948	   6.263
     77.5233	   9.000	   9.984	-138.734	   6.257
     77.5567	  13.000	   9.803	-134.553	   6.251
     77.5901	  10.000	   9.649	-137.399	   6.245
     77.6236	   5.000	   9.517	-142.267	   6.239
     77.6570	  13.000	   9.404	-134.154	   6.234
     77.6904	  12.000	   9.306	-135.056	   6.228
     77.7238	  10.000	   9.221	-136.971	   6.222
     77.7573	  17.000	   9.148	-129.898	   6.216
     77.7907	   6.000	   9.084	-140.834	   6.210
     77.8241	  13.000	   9.030	-133.780	   6.205
     77.8575	   9.000	   8.984	-137.734	   6.199
     77.8909	  12.000	   8.945	-134.695	   6.193
     77.9244	  10.000	   8.913	-136.663	   6.187
     77.9578	   6.000	   8.887	-140.637	   6.181
     77.9912	   9.000	   8.867	-137.617	   6.176
     78.0246	   6.000	   8.853	-140.603	   6.170
     78.0581	   6.000	   8.845	-140.595	   6.164
     78.0915	  10.000	   8.843	-136.593	   6.158
     78.1249	   8.000	   8.846	-138.596	   6.153
     78.1583	   4.000	   8.856	-142.606	   6.147
     78.1917	   9.000	   8.872	-137.622	   6.141
     78.2252	  14.000	   8.895	-132.645	   6.135
     78.2586	  13.000	   8.925	-133.675	   6.130
     78.2920	  16.000	   8.964	-130.714	   6.124
     78.3254	  13.000	   9.012	-133.762	   6.118
     78.3589	   7.000	   9.071	-139.821	   6.112
     78.3923	  12.000	   9.141	-134.891	   6.107
     78.4257	  16.000	   9.230	-130.980	   6.101
     78.4591	   9.000	   9.332	-138.082	   6.095
     78.4926	   9.000	   9.472	-138.222	   6.089
     78.5260	   6.000	   9.620	-141.370	   6.084
     78.5594	   8.000	   9.798	-139.548	   6.078
     78.5928	  12.000	  10.015	-135.765	   6.072
     78.6262	   8.000	  10.281	-140.031	   6.067
     78.6597	   8.000	  10.610	-140.360	   6.061
     78.6931	  15.000	  11.015	-133.765	   6.055
     78.7265	  19.000	  11.524	-130.274	   6.050
     78.7599	  17.000	  12.141	-132.891	   6.044
     78.7934	  10.000	  12.899	-140.649	   6.038
     78.8268	  10.000	  13.820	-141.570	   6.032
     78.8602	  17.000	  14.919	-135.669	   6.027
     78.8936	  21.000	  16.190	-132.940	   6.021
     78.9270	  14.000	  17.588	-141.338	   6.015
     78.9605	  27.000	  18.997	-129.747	   6.010
     78.9939	  21.000	  20.230	-136.980	   6.004
     79.0273	  30.000	  21.067	-128.817	   5.999
     79.0607	  16.000	  21.370	-143.120	   5.993
     79.0942	  30.000	  21.177	-128.927	   5.987
     79.1276	  22.000	  20.671	-136.421	   5.982
     79.1610	  28.000	  20.053	-129.803	   5.976
     79.1944	  19.000	  19.438	-138.188	   5.970
     79.2278	  19.000	  18.822	-137.572	   5.965
     79.2613	  19.000	  18.128	-136.878	   5.959
     79.2947	  17.000	  17.289	-138.039	   5.954
     79.3281	  19.000	  16.310	-135.060	   5.948
     79.3615	  15.000	  15.266	-138.016	   5.942
     79.3950	  13.000	  14.248	-138.998	   5.937
     79.4284	  14.000	  13.323	-137.073	   5.931
     79.4618	   9.000	  12.522	-141.272	   5.926
     79.4952	  12.000	  11.849	-137.599	   5.920
     79.5286	  12.000	  11.294	-137.044	   5.914
     79.5621	  10.000	  10.842	-138.592	   5.909
     79.5955	   6.000	  10.477	-142.227	   5.903
     79.6289	  16.000	  10.186	-131.936	   5.898
     79.6623	   9.000	   9.956	-138.706	   5.892
     79.6958	  16.000	   9.777	-131.527	   5.887
     79.7292	  16.000	   9.643	-131.393	   5.881
     79.7626	   5.000	   9.549	-142.299	   5.876
     79.7960	   8.000	   9.491	-139.241	   5.870
     79.8295	   8.000	   9.469	-139.219	   5.865
     79.8629	   6.000	   9.485	-141.235	   5.859
     79.8963	  12.000	   9.538	-135.288	   5.853
     79.9297	   4.000	   9.635	-143.385	   5.848
     79.9631	   7.000	   9.779	-140.529	   5.842
     79.9966	  13.000	   9.972	-134.722	   5.837
     80.0300	  12.000	  10.215	-135.965	   5.832
     80.0634	  12.000	  10.500	-136.250	   5.826
     80.0968	  14.000	  10.806	-134.556	   5.821
     80.1303	  15.000	  11.097	-133.847	   5.815
     80.1637	  16.000	  11.318	-133.068	   5.810
     80.1971	  22.000	  11.424	-127.174	   5.804
     80.2305	  12.000	  11.402	-137.152	   5.799
     80.2639	  10.000	  11.283	-139.033	   5.793
     80.2974	  24.000	  11.073	-124.823	   5.788
     80.3308	   7.000	  10.898	-141.648	   5.782
     80.3642	  10.000	  10.729	-138.479	   5.777
     80.3976	   7.000	  10.556	-141.306	   5.772
     80.4311	  10.000	  10.358	-138.108	   5.766
     80.4645	  24.000	  10.124	-123.874	   5.761
     80.4979	  19.000	   9.864	-128.614	   5.755
     80.5313	   7.000	   9.575	-140.325	   5.750
     80.5648	  16.000	   9.323	-131.073	   5.744
     80.5982	  21.000	   9.140	-125.890	   5.739
     80.6316	  13.000	   8.949	-133.699	   5.734
     80.6650	   7.000	   8.791	-139.541	   5.728
     80.6984	  13.000	   8.664	-133.414	   5.723
     80.7319	   9.000	   8.563	-137.313	   5.718
     80.7653	   8.000	   8.486	-138.236	   5.712
     80.7987	   4.000	   8.429	-142.179	   5.707
     80.8321	   6.000	   8.408	-140.158	   5.702
     80.8656	  10.000	   8.379	-136.129	   5.696
     80.8990	   8.000	   8.357	-138.107	   5.691
     80.9324	  18.000	   8.338	-128.088	   5.686
     80.9658	  17.000	   8.318	-129.068	   5.680
     80.9992	   5.000	   8.297	-141.047	   5.675
     81.0327	   9.000	   8.276	-137.026	   5.670
     81.0661	  12.000	   8.259	-134.009	   5.664
     81.0995	   9.000	   8.246	-136.996	   5.659
     81.1329	   5.000	   8.238	-140.988	   5.654
     81.1664	   7.000	   8.234	-138.984	   5.649
     81.1998	  12.000	   8.234	-133.984	   5.643
     81.2332	   7.000	   8.236	-138.986	   5.638
     81.2666	  10.000	   8.242	-135.992	   5.633
     81.3000	   6.000	   8.254	-140.004	   5.628
     81.3335	  15.000	   8.273	-131.023	   5.622
     81.3669	  16.000	   8.302	-130.052	   5.617
     81.4003	  12.000	   8.341	-134.091	   5.612
     81.4337	   9.000	   8.392	-137.142	   5.607
     81.4672	   9.000	   8.457	-137.207	   5.601
     81.5006	  17.000	   8.537	-129.287	   5.596
     81.5340	  16.000	   8.635	-130.385	   5.591
     81.5674	  16.000	   8.756	-130.506	   5.586
     81.6008	  13.000	   8.905	-133.655	   5.581
     81.6343	   5.000	   9.086	-141.836	   5.576
     81.6677	  13.000	   9.309	-134.059	   5.570
     81.7011	   7.000	   9.583	-140.333	   5.565
     81.7345	  17.000	   9.920	-130.670	   5.560
     81.7680	  16.000	  10.330	-132.080	   5.555
     81.8014	  12.000	  10.829	-136.579	   5.550
     81.8348	  16.000	  11.426	-133.176	   5.545
     81.8682	  15.000	  12.128	-134.878	   5.540
     81.9016	  10.000	  12.927	-140.677	   5.535
     81.9351	   8.000	  13.792	-143.542	   5.529
     81.9685	  17.000	  14.658	-135.408	   5.524
     82.0019	  12.000	  15.432	-141.182	   5.519
     82.0353	  26.000	  15.983	-127.733	   5.514
     82.0688	  20.000	  16.239	-133.989	   5.509
     82.1022	  18.000	  16.198	-135.948	   5.504
     82.1356	  17.000	  15.937	-136.687	   5.499
     82.1690	  20.000	  15.567	-133.317	   5.494
     82.2025	  10.000	  15.172	-142.922	   5.489
     82.2359	  15.000	  14.779	-137.529	   5.484
     82.2693	  13.000	  14.370	-139.120	   5.479
     82.3027	  21.000	  13.894	-130.644	   5.474
     82.3361	  22.000	  13.334	-129.084	   5.469
     82.3696	  15.000	  12.706	-135.456	   5.464
     82.4030	  20.000	  12.056	-129.806	   5.459
     82.4364	  14.000	  11.430	-135.180	   5.454
     82.4698	   9.000	  10.862	-139.612	   5.449
     82.5033	  14.000	  10.368	-134.118	   5.444
     82.5367	  19.000	   9.948	-128.698	   5.439
     82.5701	  10.000	   9.567	-137.317	   5.434
     82.6035	   6.000	   9.277	-141.027	   5.430
     82.6369	  24.000	   9.037	-122.787	   5.425
     82.6704	  14.000	   8.840	-132.590	   5.420
     82.7038	   9.000	   8.678	-137.428	   5.415
     82.7372	  16.000	   8.544	-130.294	   5.410
     82.7706	  19.000	   8.433	-127.183	   5.405
     82.8041	   8.000	   8.327	-138.077	   5.400
     82.8375	  12.000	   8.295	-134.045	   5.395
     82.8709	  16.000	   8.234	-129.984	   5.391
     82.9043	  17.000	   8.184	-128.934	   5.386
     82.9378	  17.000	   8.144	-128.894	   5.381
     82.9712	   8.000	   8.112	-137.862	   5.376
     83.0046	   5.000	   8.088	-140.838	   5.371
     83.0380	   6.000	   8.071	-139.821	   5.367
     83.0714	   9.000	   8.061	-136.811	   5.362
     83.1049	  14.000	   8.079	-131.829	   5.357
     83.1383	  16.000	   8.081	-129.831	   5.352
     83.1717	  12.000	   8.089	-133.839	   5.348
     83.2051	   8.000	   8.103	-137.853	   5.343
     83.2385	   8.000	   8.124	-137.874	   5.338
     83.2720	  10.000	   8.150	-135.900	   5.333
     83.3054	  12.000	   8.184	-133.934	   5.329
     83.3388	  16.000	   8.225	-129.975	   5.324
     83.3722	  10.000	   8.274	-136.024	   5.319
     83.4057	  15.000	   8.332	-131.082	   5.315
     83.4391	  10.000	   8.400	-136.150	   5.310
     83.4725	  18.000	   8.479	-128.229	   5.305
     83.5059	  14.000	   8.571	-132.321	   5.301
     83.5394	   6.000	   8.679	-140.429	   5.296
     83.5728	  14.000	   8.804	-132.554	   5.292
     83.6062	  13.000	   8.950	-133.700	   5.287
     83.6396	  13.000	   9.121	-133.871	   5.282
     83.6730	  19.000	   9.324	-128.074	   5.278
     83.7065	  13.000	   9.565	-134.315	   5.273
     83.7399	  17.000	   9.845	-130.595	   5.269
     83.7733	   9.000	  10.191	-138.941	   5.264
     83.8067	  12.000	  10.609	-136.359	   5.260
     83.8402	   8.000	  11.115	-140.865	   5.255
     83.8736	  18.000	  11.730	-131.480	   5.251
     83.9070	  19.000	  12.473	-131.223	   5.246
     83.9404	  13.000	  13.367	-138.117	   5.242
     83.9738	  15.000	  14.430	-137.180	   5.237
     84.0073	  17.000	  15.681	-136.431	   5.233
     84.0407	  26.000	  17.109	-128.859	   5.228
     84.0741	  21.000	  18.668	-135.418	   5.224
     84.1075	  27.000	  20.248	-130.998	   5.220
     84.1410	  28.000	  21.674	-131.424	   5.215
     84.1744	  42.000	  22.731	-118.481	   5.211
     84.2078	  28.000	  23.256	-133.006	   5.206
     84.2412	  20.000	  23.228	-140.978	   5.202
     84.2747	  24.000	  22.786	-136.536	   5.198
     84.3081	  28.000	  22.136	-131.886	   5.193
     84.3415	  24.000	  21.447	-135.197	   5.189
     84.3749	  20.000	  20.784	-138.534	   5.185
     84.4083	  16.000	  20.116	-141.866	   5.180
     84.4418	  26.000	  19.360	-131.110	   5.176
     84.4752	  20.000	  18.450	-136.200	   5.172
     84.5086	  18.000	  17.388	-137.138	   5.168
     84.5420	   9.000	  16.244	-144.994	   5.163
     84.5755	  17.000	  15.108	-135.858	   5.159
     84.6089	  14.000	  14.051	-137.801	   5.155
     84.6423	  12.000	  13.114	-138.864	   5.151
     84.6757	  17.000	  12.307	-133.057	   5.147
     84.7091	  17.000	  11.626	-132.376	   5.142
     84.7426	  21.000	  11.057	-127.807	   5.138
     84.7760	  16.000	  10.586	-132.336	   5.134
     84.8094	  10.000	  10.198	-137.948	   5.130
     84.8428	  13.000	   9.878	-134.628	   5.126
     84.8763	  16.000	   9.617	-131.367	   5.122
     84.9097	  14.000	   9.403	-133.153	   5.118
     84.9431	  16.000	   9.229	-130.979	   5.114
     84.9765	   3.000	   9.089	-143.839	   5.110
     85.0099	  14.000	   8.978	-132.728	   5.105
     85.0434	  13.000	   8.892	-133.642	   5.101
     85.0768	   9.000	   8.830	-137.580	   5.097
     85.1102	  12.000	   8.790	-134.540	   5.093
     85.1436	  14.000	   8.771	-132.521	   5.089
     85.1771	  16.000	   8.774	-130.524	   5.086
     85.2105	  14.000	   8.800	-132.550	   5.082
     85.2439	   9.000	   8.851	-137.601	   5.078
     85.2773	  13.000	   8.929	-133.679	   5.074
     85.3108	  12.000	   9.039	-134.789	   5.070
     85.3442	   7.000	   9.184	-139.934	   5.066
     85.3776	  16.000	   9.369	-131.119	   5.062
     85.4110	  21.000	   9.597	-126.347	   5.058
     85.4444	  10.000	   9.870	-137.620	   5.054
     85.4779	  18.000	  10.187	-129.937	   5.051
     85.5113	  13.000	  10.537	-135.287	   5.047
     85.5447	   9.000	  10.896	-139.646	   5.043
     85.5781	  12.000	  11.227	-136.977	   5.039
     85.6116	  15.000	  11.482	-134.232	   5.035
     85.6450	  14.000	  11.618	-135.368	   5.032
     85.6784	  12.000	  11.662	-137.412	   5.028
     85.7118	   7.000	  11.626	-142.376	   5.024
     85.7452	   5.000	  11.553	-144.303	   5.021
     85.7787	  16.000	  11.483	-133.233	   5.017
     85.8121	  10.000	  11.432	-139.182	   5.013
     85.8455	   7.000	  11.397	-142.147	   5.010
     85.8789	   9.000	  11.368	-140.118	   5.006
     85.9124	  22.000	  11.321	-127.071	   5.002
     85.9458	  15.000	  11.276	-134.026	   4.999
     85.9792	  12.000	  11.243	-136.993	   4.995
     86.0126	   9.000	  11.246	-139.996	   4.992
     86.0460	  20.000	  11.312	-129.062	   4.988
     86.0795	  14.000	  11.462	-135.212	   4.985
     86.1129	  16.000	  11.714	-133.464	   4.981
     86.1463	   8.000	  12.083	-141.833	   4.978
     86.1797	  10.000	  12.586	-140.336	   4.974
     86.2132	  10.000	  13.240	-140.990	   4.971
     86.2466	  20.000	  14.063	-131.813	   4.967
     86.2800	  10.000	  15.068	-142.818	   4.964
     86.3134	  18.000	  16.260	-136.010	   4.960
     86.3468	  14.000	  17.624	-141.374	   4.957
     86.3803	  13.000	  19.106	-143.856	   4.954
     86.4137	  26.000	  20.594	-132.344	   4.950
     86.4471	  24.000	  22.001	-135.751	   4.947
     86.4805	  27.000	  22.961	-133.711	   4.944
     86.5140	  15.000	  23.415	-146.165	   4.940
     86.5474	  29.000	  23.349	-132.099	   4.937
     86.5808	  22.000	  22.891	-138.641	   4.934
     86.6142	  29.000	  22.231	-130.981	   4.931
     86.6477	  16.000	  21.528	-143.278	   4.928
     86.6811	  26.000	  20.857	-132.607	   4.924
     86.7145	  21.000	  20.238	-136.988	   4.921
     86.7479	  20.000	  19.515	-137.265	   4.918
     86.7813	  18.000	  18.656	-138.406	   4.915
     86.8148	  20.000	  17.644	-135.394	   4.912
     86.8482	  24.000	  16.528	-130.278	   4.909
     86.8816	  21.000	  15.387	-132.137	   4.906
     86.9150	  12.000	  14.298	-140.048	   4.903
     86.9485	   9.000	  13.308	-142.058	   4.900
     86.9819	  17.000	  12.438	-133.188	   4.897
     87.0153	  12.000	  11.689	-137.439	   4.894
     87.0487	   9.000	  11.053	-139.803	   4.891
     87.0821	  12.000	  10.516	-136.266	   4.888
     87.1156	   7.000	  10.064	-140.814	   4.885
     87.1490	   7.000	   9.684	-140.434	   4.882
     87.1824	   7.000	   9.362	-140.112	   4.879
     87.2158	  13.000	   9.090	-133.840	   4.876
     87.2493	   6.000	   8.858	-140.608	   4.873
     87.2827	  16.000	   8.659	-130.409	   4.870
     87.3161	  10.000	   8.488	-136.238	   4.868
     87.3495	  14.000	   8.339	-132.089	   4.865
     87.3829	  14.000	   8.210	-131.960	   4.862
     87.4164	   7.000	   8.096	-138.846	   4.859
     87.4498	  24.000	   7.995	-121.745	   4.857
     87.4832	   8.000	   7.906	-137.656	   4.854
     87.5166	  13.000	   7.826	-132.576	   4.851
     87.5501	  16.000	   7.755	-129.505	   4.849
     87.5835	  13.000	   7.691	-132.441	   4.846
     87.6169	   5.000	   7.634	-140.384	   4.844
     87.6503	   7.000	   7.583	-138.333	   4.841
     87.6838	   9.000	   7.536	-136.286	   4.838
     87.7172	   7.000	   7.494	-138.244	   4.836
     87.7506	   7.000	   7.457	-138.207	   4.833
     87.7840	   4.000	   7.423	-141.173	   4.831
     87.8174	   4.000	   7.392	-141.142	   4.828
     87.8509	   8.000	   7.324	-137.074	   4.826
     87.8843	  12.000	   7.300	-133.050	   4.824
     87.9177	   6.000	   7.279	-139.029	   4.821
     87.9511	  12.000	   7.260	-133.010	   4.819
     87.9846	   5.000	   7.243	-139.993	   4.817
     88.0180	   7.000	   7.228	-137.978	   4.814
     88.0514	   6.000	   7.215	-138.965	   4.812
     88.0848	   5.000	   7.184	-139.934	   4.810
     88.1182	  13.000	   7.176	-131.926	   4.807
     88.1517	  13.000	   7.169	-131.919	   4.805
     88.1851	   3.000	   7.163	-141.913	   4.803
     88.2185	   6.000	   7.159	-138.909	   4.801
     88.2519	  14.000	   7.157	-130.907	   4.799
     88.2854	  16.000	   7.157	-128.907	   4.797
     88.3188	  12.000	   7.158	-132.908	   4.794
     88.3522	  10.000	   7.160	-134.910	   4.792
     88.3856	  10.000	   7.164	-134.914	   4.790
     88.4190	   8.000	   7.170	-136.920	   4.788
     88.4525	   5.000	   7.177	-139.927	   4.786
     88.4859	  10.000	   7.186	-134.936	   4.784
     88.5193	   9.000	   7.196	-135.946	   4.782
     88.5527	   7.000	   7.209	-137.959	   4.781
     88.5862	   2.000	   7.223	-142.973	   4.779
     88.6196	  14.000	   7.239	-130.989	   4.777
     88.6530	   8.000	   7.257	-137.007	   4.775
     88.6864	  13.000	   7.277	-132.027	   4.773
     88.7198	  10.000	   7.299	-135.049	   4.771
     88.7533	   9.000	   7.324	-136.074	   4.770
     88.7867	  14.000	   7.351	-131.101	   4.768
     88.8201	   7.000	   7.381	-138.131	   4.766
     88.8535	  15.000	   7.414	-130.164	   4.764
     88.8870	  10.000	   7.450	-135.200	   4.763
     88.9204	   8.000	   7.490	-137.240	   4.761
     88.9538	  12.000	   7.533	-133.283	   4.760
     88.9872	  13.000	   7.581	-132.331	   4.758
     89.0207	  10.000	   7.633	-135.383	   4.757
     89.0541	  10.000	   7.691	-135.441	   4.755
     89.0875	   7.000	   7.754	-138.504	   4.754
     89.1209	  10.000	   7.823	-135.573	   4.752
     89.1543	   9.000	   7.899	-136.649	   4.751
     89.1878	  16.000	   7.983	-129.733	   4.749
     89.2212	   5.000	   8.075	-140.825	   4.748
     89.2546	   6.000	   8.178	-139.928	   4.747
     89.2880	   7.000	   8.291	-139.041	   4.745
     89.3215	  13.000	   8.408	-133.158	   4.744
     89.3549	   8.000	   8.559	-138.309	   4.743
     89.3883	  12.000	   8.717	-134.467	   4.741
     89.4217	   5.000	   8.894	-141.644	   4.740
     89.4551	   9.000	   9.094	-137.844	   4.739
     89.4886	  14.000	   9.320	-133.070	   4.738
     89.5220	  13.000	   9.577	-134.327	   4.737
     89.5554	  24.000	   9.871	-123.621	   4.736
     89.5888	  18.000	  10.206	-129.956	   4.735
     89.6223	  14.000	  10.603	-134.353	   4.734
     89.6557	  18.000	  11.060	-130.810	   4.733
     89.6891	  14.000	  11.594	-135.344	   4.732
     89.7225	  15.000	  12.222	-134.972	   4.731
     89.7560	  13.000	  12.962	-137.712	   4.730
     89.7894	  15.000	  13.836	-136.586	   4.729
     89.8228	  17.000	  14.870	-135.620	   4.728
     89.8562	  16.000	  16.093	-137.843	   4.727
     89.8896	  22.000	  17.537	-133.287	   4.727
     89.9231	  13.000	  19.232	-143.982	   4.726
     89.9565	  18.000	  21.199	-140.949	   4.725
     89.9899	  27.000	  23.438	-134.188	   4.724
     90.0233	  29.000	  25.905	-134.655	   4.724
     90.0567	  37.000	  28.491	-129.241	   4.723
     90.0902	  25.000	  30.996	-143.746	   4.723
     90.1236	  49.000	  33.143	-121.893	   4.722
     90.1570	  43.000	  34.642	-129.392	   4.722
     90.1904	  39.000	  35.264	-134.014	   4.721
     90.2239	  38.000	  35.114	-134.864	   4.721
     90.2573	  37.000	  34.357	-135.107	   4.720
     90.2907	  27.000	  33.283	-144.033	   4.720
     90.3241	  30.000	  32.139	-139.889	   4.719
     90.3576	  29.000	  31.046	-139.796	   4.719
     90.3910	  36.000	  29.995	-131.745	   4.719
     90.4244	  29.000	  28.882	-137.632	   4.719
     90.4578	  29.000	  27.562	-136.312	   4.718
     90.4912	  29.000	  26.016	-134.766	   4.718
     90.5247	  20.000	  24.255	-142.005	   4.718
     90.5581	  29.000	  22.385	-131.135	   4.718
     90.5915	  21.000	  20.532	-137.282	   4.718
     90.6249	  17.000	  18.793	-139.543	   4.718
     90.6584	  20.000	  17.225	-134.975	   4.718
     90.6918	  10.000	  15.847	-143.596	   4.718
     90.7252	  12.000	  14.656	-140.406	   4.718
     90.7586	  16.000	  13.638	-135.388	   4.718
     90.7920	  18.000	  12.772	-132.522	   4.718
     90.8255	   9.000	  12.036	-140.786	   4.718
     90.8589	   9.000	  11.412	-140.162	   4.718
     90.8923	   8.000	  10.880	-140.630	   4.719
     90.9257	  10.000	  10.426	-138.176	   4.719
     90.9592	   8.000	  10.037	-139.787	   4.719
     90.9926	  17.000	   9.701	-130.451	   4.720
     91.0260	  12.000	   9.410	-135.160	   4.720
     91.0594	   4.000	   9.156	-142.906	   4.720
     91.0928	   9.000	   8.933	-137.683	   4.721
     91.1263	  14.000	   8.737	-132.487	   4.721
     91.1597	  16.000	   8.562	-130.312	   4.722
     91.1931	  12.000	   8.407	-134.157	   4.722
     91.2265	  19.000	   8.268	-127.018	   4.723
     91.2600	  12.000	   8.144	-133.894	   4.724
     91.2934	  10.000	   8.031	-135.781	   4.724
     91.3268	  15.000	   7.930	-130.680	   4.725
     91.3602	  10.000	   7.838	-135.588	   4.726
     91.3937	  13.000	   7.754	-132.504	   4.726
     91.4271	   9.000	   7.749	-136.499	   4.727
     91.4605	   8.000	   7.681	-137.431	   4.728
     91.4939	  14.000	   7.619	-131.369	   4.729
     91.5273	  10.000	   7.562	-135.312	   4.730
     91.5608	  10.000	   7.511	-135.261	   4.731
     91.5942	   9.000	   7.463	-136.213	   4.732
     91.6276	   9.000	   7.420	-136.170	   4.733
     91.6610	   8.000	   7.381	-137.131	   4.734
     91.6945	   6.000	   7.345	-139.095	   4.735
     91.7279	  12.000	   7.348	-133.098	   4.736
     91.7613	   6.000	   7.319	-139.069	   4.738
     91.7947	   8.000	   7.292	-137.042	   4.739
     91.8281	   9.000	   7.269	-136.019	   4.740
     91.8616	  10.000	   7.247	-134.997	   4.741
     91.8950	  10.000	   7.228	-134.978	   4.743
     91.9284	  19.000	   7.211	-125.961	   4.744
     91.9618	  13.000	   7.197	-131.947	   4.746
     91.9953	   7.000	   7.184	-137.934	   4.747
     92.0287	   3.000	   7.173	-141.923	   4.749
     92.0621	   7.000	   7.165	-137.915	   4.750
     92.0955	   7.000	   7.158	-137.908	   4.752
     92.1289	   7.000	   7.153	-137.903	   4.754
     92.1624	   9.000	   7.151	-135.901	   4.755
     92.1958	   9.000	   7.150	-135.900	   4.757
     92.2292	   7.000	   7.151	-137.901	   4.759
     92.2626	   8.000	   7.155	-136.905	   4.761
     92.2961	   7.000	   7.161	-137.911	   4.762
     92.3295	   6.000	   7.169	-138.919	   4.764
     92.3629	  13.000	   7.180	-131.930	   4.766
     92.3963	  13.000	   7.194	-131.944	   4.768
     92.4297	   9.000	   7.211	-135.961	   4.770
     92.4632	   3.000	   7.231	-141.981	   4.772
     92.4966	  13.000	   7.256	-132.006	   4.775
     92.5300	  12.000	   7.285	-133.035	   4.777
     92.5634	   8.000	   7.320	-137.070	   4.779
     92.5969	   9.000	   7.362	-136.112	   4.781
     92.6303	   9.000	   7.410	-136.160	   4.783
     92.6637	  12.000	   7.468	-133.218	   4.786
     92.6971	   5.000	   7.537	-140.287	   4.788
     92.7306	   6.000	   7.618	-139.368	   4.791
     92.7640	   4.000	   7.714	-141.464	   4.793
     92.7974	  10.000	   7.827	-135.577	   4.796
     92.8308	   4.000	   7.967	-141.717	   4.798
     92.8642	  12.000	   8.125	-133.875	   4.801
     92.8977	  17.000	   8.309	-129.059	   4.804
     92.9311	   8.000	   8.521	-138.271	   4.806
     92.9645	  14.000	   8.761	-132.511	   4.809
     92.9979	   8.000	   9.026	-138.776	   4.812
     93.0314	   8.000	   9.304	-139.054	   4.815
     93.0648	  10.000	   9.579	-137.329	   4.818
     93.0982	  12.000	   9.824	-135.574	   4.820
     93.1316	  10.000	  10.013	-137.763	   4.823
     93.1650	  10.000	  10.119	-137.869	   4.826
     93.1985	  14.000	  10.140	-133.890	   4.830
     93.2319	  10.000	  10.091	-137.841	   4.833
     93.2653	  19.000	   9.998	-128.748	   4.836
     93.2987	   8.000	   9.888	-139.638	   4.839
     93.3322	  15.000	   9.781	-132.531	   4.842
     93.3656	  10.000	   9.682	-137.432	   4.846
     93.3990	  16.000	   9.585	-131.335	   4.849
     93.4324	  18.000	   9.479	-129.229	   4.852
     93.4659	  10.000	   9.352	-137.102	   4.856
     93.4993	  13.000	   9.201	-133.951	   4.859
     93.5327	   6.000	   9.030	-140.780	   4.863
     93.5661	  10.000	   8.850	-136.600	   4.867
     93.5995	  10.000	   8.674	-136.424	   4.870
     93.6330	  15.000	   8.511	-131.261	   4.874
     93.6664	   8.000	   8.380	-138.130	   4.878
     93.6998	   7.000	   8.256	-139.006	   4.882
     93.7332	   8.000	   8.153	-137.903	   4.885
     93.7667	   5.000	   8.068	-140.818	   4.889
     93.8001	   7.000	   8.001	-138.751	   4.893
     93.8335	   9.000	   7.949	-136.699	   4.897
     93.8669	  10.000	   7.911	-135.661	   4.901
     93.9003	  10.000	   7.885	-135.635	   4.905
     93.9338	  12.000	   7.787	-133.537	   4.910
     93.9672	   8.000	   7.790	-137.540	   4.914
     94.0006	   7.000	   7.794	-138.544	   4.918
     94.0340	  15.000	   7.806	-130.556	   4.922
     94.0675	   9.000	   7.826	-136.576	   4.927
     94.1009	   8.000	   7.852	-137.602	   4.931
     94.1343	  13.000	   7.885	-132.635	   4.936
     94.1677	   9.000	   7.926	-136.676	   4.940
     94.2011	  12.000	   7.973	-133.723	   4.945
     94.2346	  10.000	   7.986	-135.736	   4.949
     94.2680	  14.000	   8.048	-131.798	   4.954
     94.3014	  16.000	   8.119	-129.869	   4.959
     94.3348	  24.000	   8.198	-121.948	   4.964
     94.3683	  10.000	   8.287	-136.037	   4.969
     94.4017	   4.000	   8.386	-142.136	   4.973
     94.4351	   7.000	   8.497	-139.247	   4.978
     94.4685	  14.000	   8.622	-132.372	   4.983
     94.5019	  13.000	   8.761	-133.511	   4.989
     94.5354	  13.000	   8.917	-133.667	   4.994
     94.5688	  18.000	   9.093	-128.843	   4.999
     94.6022	  18.000	   9.292	-129.042	   5.004
     94.6356	   9.000	   9.519	-138.269	   5.009
     94.6691	  14.000	   9.777	-133.527	   5.015
     94.7025	   5.000	  10.073	-142.823	   5.020
     94.7359	  14.000	  10.415	-134.165	   5.026
     94.7693	  14.000	  10.810	-134.560	   5.031
     94.8027	   9.000	  11.270	-140.020	   5.037
     94.8362	  13.000	  11.807	-136.557	   5.042
     94.8696	  14.000	  12.435	-136.185	   5.048
     94.9030	  17.000	  13.171	-133.921	   5.054
     94.9364	  20.000	  14.033	-131.783	   5.060
     94.9699	  24.000	  15.039	-128.789	   5.065
     95.0033	  15.000	  16.207	-138.957	   5.071
     95.0367	  28.000	  17.551	-127.301	   5.077
     95.0701	  24.000	  19.077	-132.827	   5.083
     95.1036	  19.000	  20.768	-139.518	   5.089
     95.1370	  28.000	  22.578	-132.328	   5.096
     95.1704	  25.000	  24.415	-137.165	   5.102
     95.2038	  27.000	  26.135	-136.885	   5.108
     95.2372	  30.000	  27.560	-135.310	   5.114
     95.2707	  25.000	  28.523	-141.273	   5.121
     95.3041	  54.000	  28.929	-112.679	   5.127
     95.3375	  40.000	  28.805	-126.555	   5.134
     95.3709	  29.000	  28.284	-137.034	   5.140
     95.4044	  33.000	  27.545	-132.295	   5.147
     95.4378	  21.000	  26.745	-143.495	   5.154
     95.4712	  22.000	  25.977	-141.727	   5.160
     95.5046	  17.000	  25.257	-146.007	   5.167
     95.5380	  26.000	  24.537	-136.287	   5.174
     95.5715	  24.000	  23.737	-137.487	   5.181
     95.6049	  31.000	  22.793	-129.543	   5.188
     95.6383	  17.000	  21.682	-142.432	   5.195
     95.6717	  20.000	  20.442	-138.191	   5.202
     95.7052	  27.000	  19.141	-129.891	   5.209
     95.7386	  10.000	  17.855	-145.605	   5.217
     95.7720	  16.000	  16.644	-138.394	   5.224
     95.8054	  12.000	  15.542	-141.292	   5.231
     95.8389	  22.000	  14.565	-130.315	   5.239
     95.8723	  14.000	  13.712	-137.462	   5.246
     95.9057	  17.000	  12.975	-133.725	   5.254
     95.9391	  20.000	  12.343	-130.093	   5.261
     95.9725	  12.000	  11.803	-137.553	   5.269
     96.0060	   6.000	  11.344	-143.094	   5.277
     96.0394	  12.000	  10.954	-136.704	   5.285
     96.0728	  13.000	  10.623	-135.373	   5.292
     96.1062	   9.000	  10.343	-139.093	   5.300
     96.1397	   3.000	  10.106	-144.856	   5.308
     96.1731	  16.000	   9.907	-131.657	   5.317
     96.2065	  10.000	   9.742	-137.492	   5.325
     96.2399	  13.000	   9.606	-134.356	   5.333
     96.2733	  10.000	   9.497	-137.247	   5.341
     96.3068	  20.000	   9.413	-127.163	   5.349
     96.3402	   6.000	   9.352	-141.102	   5.358
     96.3736	  17.000	   9.313	-130.063	   5.366
     96.4070	  13.000	   9.297	-134.047	   5.375
     96.4405	  10.000	   9.303	-137.053	   5.384
     96.4739	   9.000	   9.330	-138.080	   5.392
     96.5073	  12.000	   9.379	-135.129	   5.401
     96.5407	  10.000	   9.446	-137.196	   5.410
     96.5741	   8.000	   9.529	-139.279	   5.419
     96.6076	   7.000	   9.620	-140.370	   5.428
     96.6410	  13.000	   9.710	-134.460	   5.437
     96.6744	   5.000	   9.786	-142.536	   5.446
     96.7078	  13.000	   9.837	-134.587	   5.455
     96.7413	  10.000	   9.855	-137.605	   5.464
     96.7747	   6.000	   9.842	-141.592	   5.473
     96.8081	  19.000	   9.806	-128.556	   5.483
     96.8415	  13.000	   9.760	-134.510	   5.492
     96.8749	   8.000	   9.713	-139.463	   5.502
     96.9084	  16.000	   9.676	-131.426	   5.511
     96.9418	  13.000	   9.648	-134.398	   5.521
     96.9752	  15.000	   9.621	-132.371	   5.531
     97.0086	  12.000	   9.608	-135.358	   5.540
     97.0421	  15.000	   9.597	-132.347	   5.550
     97.0755	  12.000	   9.586	-135.336	   5.560
     97.1089	   8.000	   9.578	-139.328	   5.570
     97.1423	   8.000	   9.580	-139.330	   5.580
     97.1758	   7.000	   9.598	-140.348	   5.590
     97.2092	  16.000	   9.642	-131.392	   5.601
     97.2426	  16.000	   9.715	-131.465	   5.611
     97.2760	  12.000	   9.819	-135.569	   5.621
     97.3094	   8.000	   9.967	-139.717	   5.632
     97.3429	   7.000	  10.155	-140.905	   5.642
     97.3763	  15.000	  10.383	-133.133	   5.653
     97.4097	  10.000	  10.648	-138.398	   5.664
     97.4431	  15.000	  10.940	-133.690	   5.674
     97.4766	  13.000	  11.243	-135.993	   5.685
     97.5100	  15.000	  11.533	-134.283	   5.696
     97.5434	  15.000	  11.777	-134.527	   5.707
     97.5768	  12.000	  11.946	-137.696	   5.718
     97.6102	  26.000	  12.020	-123.770	   5.729
     97.6437	   9.000	  12.001	-140.751	   5.740
     97.6771	  14.000	  11.906	-135.656	   5.752
     97.7105	  14.000	  11.767	-135.517	   5.763
     97.7439	   8.000	  11.611	-141.361	   5.774
     97.7774	  13.000	  11.459	-136.209	   5.786
     97.8108	  12.000	  11.318	-137.068	   5.798
     97.8442	  12.000	  11.184	-136.934	   5.809
     97.8776	   9.000	  11.043	-139.793	   5.821
     97.9110	   6.000	  10.884	-142.634	   5.833
     97.9445	   9.000	  10.697	-139.447	   5.845
     97.9779	  13.000	  10.482	-135.232	   5.857
     98.0113	  13.000	  10.249	-134.999	   5.869
     98.0447	   9.000	  10.010	-138.760	   5.881
     98.0782	  10.000	   9.778	-137.528	   5.893
     98.1116	   4.000	   9.562	-143.312	   5.905
     98.1450	  10.000	   9.367	-137.117	   5.918
     98.1784	   5.000	   9.195	-141.945	   5.930
     98.2119	  12.000	   9.044	-134.794	   5.943
     98.2453	   9.000	   8.915	-137.665	   5.955
     98.2787	  12.000	   8.805	-134.555	   5.968
     98.3121	   7.000	   8.712	-139.462	   5.981
     98.3455	   6.000	   8.633	-140.383	   5.993
     98.3790	   6.000	   8.567	-140.317	   6.006
     98.4124	   5.000	   8.513	-141.263	   6.019
     98.4458	   7.000	   8.468	-139.218	   6.033
     98.4792	   4.000	   8.431	-142.181	   6.046
     98.5126	   7.000	   8.401	-139.151	   6.059
     98.5461	  10.000	   8.378	-136.128	   6.072
     98.5795	   7.000	   8.358	-139.108	   6.086
     98.6129	  17.000	   8.343	-129.093	   6.099
     98.6463	   8.000	   8.329	-138.079	   6.113
     98.6798	  15.000	   8.316	-131.066	   6.126
     98.7132	  12.000	   8.304	-134.054	   6.140
     98.7466	  12.000	   8.293	-134.043	   6.154
     98.7800	   8.000	   8.282	-138.032	   6.168
     98.8135	   6.000	   8.272	-140.022	   6.182
     98.8469	  16.000	   8.264	-130.014	   6.196
     98.8803	   7.000	   8.258	-139.008	   6.210
     98.9137	  12.000	   8.253	-134.003	   6.225
     98.9471	   9.000	   8.250	-136.999	   6.239
     98.9806	   5.000	   8.247	-140.997	   6.253
     99.0140	  10.000	   8.245	-135.995	   6.268
     99.0474	  10.000	   8.243	-135.993	   6.283
     99.0808	  13.000	   8.242	-132.992	   6.297
     99.1143	   3.000	   8.241	-142.991	   6.312
     99.1477	  10.000	   8.241	-135.991	   6.327
     99.1811	  14.000	   8.172	-131.922	   6.342
     99.2145	   8.000	   8.174	-137.924	   6.357
     99.2479	   4.000	   8.178	-141.928	   6.372
     99.2814	   4.000	   8.182	-141.932	   6.387
     99.3148	  12.000	   8.188	-133.938	   6.403
     99.3482	  15.000	   8.194	-130.944	   6.418
     99.3816	  18.000	   8.201	-127.951	   6.434
     99.4151	  12.000	   8.209	-133.959	   6.449
     99.4485	   7.000	   8.218	-138.968	   6.465
     99.4819	  18.000	   8.192	-127.942	   6.481
     99.5153	  12.000	   8.203	-133.953	   6.497
     99.5488	  10.000	   8.214	-135.964	   6.512
     99.5822	  10.000	   8.225	-135.975	   6.529
     99.6156	   4.000	   8.236	-141.986	   6.545
     99.6490	  10.000	   8.248	-135.998	   6.561
     99.6824	  15.000	   8.261	-131.011	   6.577
     99.7159	   6.000	   8.274	-140.024	   6.594
     99.7493	   7.000	   8.287	-139.037	   6.610
     99.7827	   4.000	   8.300	-142.050	   6.627
     99.8161	  10.000	   8.313	-136.063	   6.643
     99.8496	   9.000	   8.327	-137.077	   6.660
     99.8830	   8.000	   8.341	-138.091	   6.677
     99.9164	   7.000	   8.356	-139.106	   6.694
     99.9498	   5.000	   8.370	-141.120	   6.711
     99.9832	   7.000	   8.438	-139.188	   6.728
     24.4540	        	        	        	        	       0	(  0  1  2)	  0  1 :  1
     24.5152	        	        	        	        	       0	(  0  1  2)	  0  2 :  1
     33.5546	        	        	        	        	       0	(  1  0  4)	  0  1 :  1
     33.6397	        	        	        	        	       0	(  1  0  4)	  0  2 :  1
     36.1613	        	        	        	        	       0	(  1  1  0)	  0  1 :  1
     36.2535	        	        	        	        	       0	(  1  1  0)	  0  2 :  1
     39.7005	        	        	        	        	       0	(  0  0  6)	  0  1 :  1
     39.8025	        	        	        	        	       0	(  0  0  6)	  0  2 :  1
     41.4418	        	        	        	        	       0	(  1  1  3)	  0  1 :  1
     41.5486	        	        	        	        	       0	(  1  1  3)	  0  2 :  1
     44.1617	        	        	        	        	       0	(  2  0  2)	  0  1 :  1
     44.2762	        	        	        	        	       0	(  2  0  2)	  0  2 :  1
     50.1800	        	        	        	        	       0	(  0  2  4)	  0  1 :  1
     50.3122	        	        	        	        	       0	(  0  2  4)	  0  2 :  1
     54.8039	        	        	        	        	       0	(  1  1  6)	  0  1 :  1
     54.9503	        	        	        	        	       0	(  1  1  6)	  0  2 :  1
     57.0716	        	        	        	        	       0	(  2  1  1)	  0  1 :  1
     57.2251	        	        	        	        	       0	(  2  1  1)	  0  2 :  1
     58.3063	        	        	        	        	       0	(  0  1  8)	  0  1 :  1
     58.3765	        	        	        	        	       0	(  1  2  2)	  0  1 :  1
     58.4638	        	        	        	        	       0	(  0  1  8)	  0  2 :  1
     58.5342	        	        	        	        	       0	(  1  2  2)	  0  2 :  1
     63.4288	        	        	        	        	       0	(  2  1  4)	  0  1 :  1
     63.6033	        	        	        	        	       0	(  2  1  4)	  0  2 :  1
     65.0843	        	        	        	        	       0	(  3  0  0)	  0  1 :  1
     65.2645	        	        	        	        	       0	(  3  0  0)	  0  2 :  1
     67.0745	        	        	        	        	       0	(  1  2  5)	  0  1 :  1
     67.2617	        	        	        	        	       0	(  1  2  5)	  0  2 :  1
     70.5931	        	        	        	        	       0	(  2  0  8)	  0  1 :  1
     70.7930	        	        	        	        	       0	(  2  0  8)	  0  2 :  1
     72.8860	        	        	        	        	       0	(  1  0 10)	  0  1 :  1
     73.0945	        	        	        	        	       0	(  1  0 10)	  0  2 :  1
     73.2913	        	        	        	        	       0	(  1  1  9)	  0  1 :  1
     73.5013	        	        	        	        	       0	(  1  1  9)	  0  2 :  1
     76.3820	        	        	        	        	       0	(  2  1  7)	  0  1 :  1
     76.6042	        	        	        	        	       0	(  2  1  7)	  0  2 :  1
     76.8114	        	        	        	        	       0	(  2  2  0)	  0  1 :  1
     77.0353	        	        	        	        	       0	(  2  2  0)	  0  2 :  1
     79.0383	        	        	        	        	       0	(  0  3  6)	  0  1 :  1
     79.0383	        	        	        	        	       0	(  3  0  6)	  0  1 :  1
     79.2713	        	        	        	        	       0	(  0  3  6)	  0  2 :  1
     79.2713	        	        	        	        	       0	(  3  0  6)	  0  2 :  1
     80.1908	        	        	        	        	       0	(  2  2  3)	  0  1 :  1
     80.4285	        	        	        	        	       0	(  2  2  3)	  0  2 :  1
     80.9468	        	        	        	        	       0	(  1  3  1)	  0  1 :  1
     81.1878	        	        	        	        	       0	(  1  3  1)	  0  2 :  1
     82.0025	        	        	        	        	       0	(  1  2  8)	  0  1 :  1
     82.0628	        	        	        	        	       0	(  3  1  2)	  0  1 :  1
     82.2480	        	        	        	        	       0	(  1  2  8)	  0  2 :  1
     82.3086	        	        	        	        	       0	(  3  1  2)	  0  2 :  1
     84.1962	        	        	        	        	       0	(  0  2 10)	  0  1 :  1
     84.4514	        	        	        	        	       0	(  0  2 10)	  0  2 :  1
     85.6338	        	        	        	        	       0	(  0  0 12)	  0  1 :  1
     85.8955	        	        	        	        	       0	(  0  0 12)	  0  2 :  1
     86.5011	        	        	        	        	       0	(  1  3  4)	  0  1 :  1
     86.7669	        	        	        	        	       0	(  1  3  4)	  0  2 :  1
     89.8148	        	        	        	        	       0	(  3  1  5)	  0  1 :  1
     90.0964	        	        	        	        	       0	(  3  1  5)	  0  2 :  1
     90.1728	        	        	        	        	       0	(  2  2  6)	  0  1 :  1
     90.4562	        	        	        	        	       0	(  2  2  6)	  0  2 :  1
     93.1580	        	        	        	        	       0	(  0  4  2)	  0  1 :  1
     93.4566	        	        	        	        	       0	(  0  4  2)	  0  2 :  1
     95.2822	        	        	        	        	       0	(  2  1 10)	  0  1 :  1
     95.5921	        	        	        	        	       0	(  2  1 10)	  0  2 :  1
     96.7222	        	        	        	        	       0	(  1  1 12)	  0  1 :  1
     97.0401	        	        	        	        	       0	(  1  1 12)	  0  2 :  1
     97.5944	        	        	        	        	       0	(  4  0  4)	  0  1 :  1
     97.9172	        	        	        	        	       0	(  4  0  4)	  0  2 :  1
     98.6795	        	        	        	        	       0	(  1  3  7)	  0  1 :  1
     99.0086	        	        	        	        	       0	(  1  3  7)	  0  2 :  1
    103.1170	        	        	        	        	       0	(  1  2 11)	  0  1 :  1
    103.2397	        	        	        	        	       0	(  3  2  1)	  0  1 :  1
    103.4731	        	        	        	        	       0	(  1  2 11)	  0  2 :  1
    103.5966	        	        	        	        	       0	(  3  2  1)	  0  2 :  1
    104.3150	        	        	        	        	       0	(  3  1  8)	  0  1 :  1
    104.3766	        	        	        	        	       0	(  2  3  2)	  0  1 :  1
    104.6789	        	        	        	        	       0	(  3  1  8)	  0  2 :  1
    104.7410	        	        	        	        	       0	(  2  3  2)	  0  2 :  1
    106.9802	        	        	        	        	       0	(  2  2  9)	  0  1 :  1
    107.3622	        	        	        	        	       0	(  2  2  9)	  0  2 :  1
    108.7989	        	        	        	        	       0	(  0  1 14)	  0  1 :  1
    108.9883	        	        	        	        	       0	(  3  2  4)	  0  1 :  1
    109.1939	        	        	        	        	       0	(  0  1 14)	  0  2 :  1
    109.3847	        	        	        	        	       0	(  3  2  4)	  0  2 :  1
    110.5740	        	        	        	        	       0	(  4  1  0)	  0  1 :  1
    110.9823	        	        	        	        	       0	(  4  1  0)	  0  2 :  1
    112.5312	        	        	        	        	       0	(  2  3  5)	  0  1 :  1
    112.9550	        	        	        	        	       0	(  2  3  5)	  0  2 :  1
    114.1565	        	        	        	        	       0	(  1  4  3)	  0  1 :  1
    114.1565	        	        	        	        	       0	(  4  1  3)	  0  1 :  1
    114.5935	        	        	        	        	       0	(  1  4  3)	  0  2 :  1
    114.5935	        	        	        	        	       0	(  4  1  3)	  0  2 :  1
    116.1345	        	        	        	        	       0	(  0  4  8)	  0  1 :  1
