 Cr2O3   Chi2:  1.6576  CELL:    4.95856   4.95856  13.59383   90.0000   90.0000  120.0000   SPGR: R -3 c                 TEMP:      0.00
  1   2394     1.54060     1.54439     0.00000    -0.04253     0.00000    0
    88     0     1
       0.00000      20.00000
 2Theta	Yobs	Ycal	Yobs-Ycal	Backg	Posr	(hkl)	K
     20.0031	  33.000	  34.068	-225.068	  33.298
     20.0365	  30.000	  34.005	-228.005	  33.235
     20.0700	  28.000	  33.941	-229.941	  33.171
     20.1034	  28.000	  33.878	-229.878	  33.108
     20.1368	  30.000	  33.815	-227.815	  33.045
     20.1702	  38.000	  33.752	-219.752	  32.982
     20.2036	  40.000	  33.689	-217.689	  32.919
     20.2371	  30.000	  33.626	-227.626	  32.856
     20.2705	  31.000	  33.563	-226.563	  32.793
     20.3039	  29.000	  33.501	-228.501	  32.731
     20.3373	  25.000	  33.438	-232.438	  32.668
     20.3708	  27.000	  33.376	-230.376	  32.606
     20.4042	  27.000	  33.313	-230.313	  32.543
     20.4376	  39.000	  33.251	-218.251	  32.481
     20.4710	  24.000	  33.189	-233.189	  32.419
     20.5044	  28.000	  33.127	-229.127	  32.357
     20.5379	  28.000	  33.065	-229.065	  32.295
     20.5713	  37.000	  33.003	-220.003	  32.233
     20.6047	  27.000	  32.941	-229.941	  32.171
     20.6381	  29.000	  32.880	-227.880	  32.109
     20.6716	  30.000	  32.818	-226.818	  32.048
     20.7050	  33.000	  32.756	-223.756	  31.986
     20.7384	  42.000	  32.695	-214.695	  31.925
     20.7718	  28.000	  32.634	-228.634	  31.863
     20.8053	  29.000	  32.573	-227.573	  31.802
     20.8387	  22.000	  32.511	-234.511	  31.741
     20.8721	  22.000	  32.450	-234.450	  31.680
     20.9055	  27.000	  32.389	-229.389	  31.619
     20.9389	  26.000	  32.329	-230.329	  31.558
     20.9724	  26.000	  32.268	-230.268	  31.498
     21.0058	  32.000	  32.207	-224.207	  31.437
     21.0392	  28.000	  32.147	-228.147	  31.377
     21.0726	  17.000	  32.086	-239.086	  31.316
     21.1061	  19.000	  32.026	-237.026	  31.256
     21.1395	  21.000	  31.966	-234.966	  31.196
     21.1729	  19.000	  31.906	-236.906	  31.135
     21.2063	  28.000	  31.846	-227.846	  31.075
     21.2397	  28.000	  31.786	-227.786	  31.015
     21.2732	  34.000	  31.726	-221.726	  30.955
     21.3066	  28.000	  31.666	-227.666	  30.896
     21.3400	  30.000	  31.606	-225.606	  30.836
     21.3734	  18.000	  31.547	-237.547	  30.776
     21.4069	  18.000	  31.487	-237.487	  30.717
     21.4403	  26.000	  31.428	-229.428	  30.658
     21.4737	  24.000	  31.369	-231.369	  30.598
     21.5071	  38.000	  31.309	-217.309	  30.539
     21.5405	  18.000	  31.250	-237.250	  30.480
     21.5740	  26.000	  31.191	-229.191	  30.421
     21.6074	  28.000	  31.264	-227.264	  30.362
     21.6408	  25.000	  31.208	-230.208	  30.303
     21.6742	  29.000	  31.219	-226.219	  30.245
     21.7077	  27.000	  31.165	-228.165	  30.186
     21.7411	  28.000	  31.112	-227.112	  30.127
     21.7745	  20.000	  31.059	-235.059	  30.069
     21.8079	  30.000	  31.006	-225.006	  30.011
     21.8414	  20.000	  30.953	-234.953	  29.952
     21.8748	  28.000	  30.901	-226.901	  29.894
     21.9082	  29.000	  30.849	-225.849	  29.836
     21.9416	  16.000	  30.798	-238.798	  29.778
     21.9750	  27.000	  30.747	-227.747	  29.720
     22.0085	  40.000	  30.696	-214.696	  29.662
     22.0419	  22.000	  30.645	-232.645	  29.605
     22.0753	  29.000	  30.595	-225.595	  29.547
     22.1087	  25.000	  30.546	-229.546	  29.490
     22.1422	  34.000	  30.497	-220.497	  29.432
     22.1756	  25.000	  30.448	-229.448	  29.375
     22.2090	  16.000	  30.400	-238.400	  29.318
     22.2424	  24.000	  30.352	-230.352	  29.261
     22.2758	  24.000	  30.305	-230.305	  29.203
     22.3093	  24.000	  30.258	-230.258	  29.147
     22.3427	  27.000	  30.212	-227.212	  29.090
     22.3761	  26.000	  30.166	-228.166	  29.033
     22.4095	  21.000	  30.122	-233.122	  28.976
     22.4430	  16.000	  30.077	-238.077	  28.920
     22.4764	  24.000	  30.034	-230.034	  28.863
     22.5098	  30.000	  29.991	-223.991	  28.807
     22.5432	  26.000	  29.949	-227.949	  28.750
     22.5766	  24.000	  29.908	-229.908	  28.694
     22.6101	  19.000	  29.868	-234.868	  28.638
     22.6435	  26.000	  29.829	-227.829	  28.582
     22.6769	  22.000	  29.791	-231.791	  28.526
     22.7103	  24.000	  29.754	-229.754	  28.470
     22.7438	  22.000	  29.718	-231.718	  28.415
     22.7772	  28.000	  29.684	-225.684	  28.359
     22.8106	  26.000	  29.650	-227.650	  28.303
     22.8440	  21.000	  29.619	-232.619	  28.248
     22.8774	  30.000	  29.589	-223.589	  28.193
     22.9109	  32.000	  29.560	-221.560	  28.137
     22.9443	  32.000	  29.534	-221.534	  28.082
     22.9777	  25.000	  29.509	-228.509	  28.027
     23.0111	  30.000	  29.487	-223.487	  27.972
     23.0446	  27.000	  29.467	-226.467	  27.917
     23.0780	  16.000	  29.450	-237.450	  27.862
     23.1114	  20.000	  29.436	-233.436	  27.807
     23.1448	  16.000	  29.425	-237.424	  27.753
     23.1783	  28.000	  29.417	-225.417	  27.698
     23.2117	   8.000	  29.413	-245.413	  27.644
     23.2451	  30.000	  29.413	-223.413	  27.589
     23.2785	  16.000	  29.418	-237.418	  27.535
     23.3119	  30.000	  29.429	-223.429	  27.481
     23.3454	  19.000	  29.445	-234.445	  27.427
     23.3788	  20.000	  29.468	-233.468	  27.373
     23.4122	  27.000	  29.498	-226.498	  27.319
     23.4456	  22.000	  29.536	-231.536	  27.265
     23.4791	  25.000	  29.584	-228.584	  27.211
     23.5125	  25.000	  29.643	-228.643	  27.157
     23.5459	  18.000	  29.714	-235.714	  27.104
     23.5793	  33.000	  29.800	-220.800	  27.050
     23.6127	  34.000	  29.902	-219.902	  26.997
     23.6462	  31.000	  30.022	-223.022	  26.944
     23.6796	  41.000	  30.165	-213.165	  26.891
     23.7130	  31.000	  30.335	-223.335	  26.837
     23.7464	  26.000	  30.535	-228.535	  26.784
     23.7799	  25.000	  30.772	-229.772	  26.731
     23.8133	  31.000	  31.054	-224.054	  26.679
     23.8467	  19.000	  31.390	-236.390	  26.626
     23.8801	  30.000	  31.792	-225.792	  26.573
     23.9135	  28.000	  32.276	-228.276	  26.521
     23.9470	  41.000	  32.864	-215.864	  26.468
     23.9804	  21.000	  33.583	-236.583	  26.416
     24.0138	  29.000	  34.471	-229.471	  26.363
     24.0472	  42.000	  35.581	-217.581	  26.311
     24.0807	  38.000	  36.990	-222.990	  26.259
     24.1141	  39.000	  38.807	-223.807	  26.207
     24.1475	  33.000	  41.198	-232.198	  26.155
     24.1809	  41.000	  44.424	-227.424	  26.103
     24.2144	  51.000	  48.934	-221.934	  26.051
     24.2478	  64.000	  55.726	-215.726	  26.000
     24.2812	  68.000	  67.751	-223.751	  25.948
     24.3146	  91.000	  93.867	-226.867	  25.896
     24.3480	 144.000	 154.164	-234.164	  25.845
     24.3815	 273.000	 275.545	-226.545	  25.794
     24.4149	 469.000	 463.025	-218.025	  25.742
     24.4483	 662.000	 647.438	-209.438	  25.691
     24.4817	 691.000	 693.170	-226.170	  25.640
     24.5152	 585.000	 593.398	-232.398	  25.589
     24.5486	 434.000	 419.286	-209.286	  25.538
     24.5820	 247.000	 254.036	-231.036	  25.487
     24.6154	 136.000	 146.823	-234.823	  25.437
     24.6488	  75.000	  91.477	-240.477	  25.386
     24.6823	  67.000	  66.176	-223.176	  25.335
     24.7157	  53.000	  54.209	-225.209	  25.285
     24.7491	  44.000	  47.476	-227.476	  25.235
     24.7825	  51.000	  43.020	-216.020	  25.184
     24.8160	  31.000	  39.810	-232.810	  25.134
     24.8494	  34.000	  37.401	-227.401	  25.084
     24.8828	  45.000	  35.542	-214.542	  25.034
     24.9162	  36.000	  34.076	-222.076	  24.984
     24.9496	  33.000	  32.897	-223.897	  24.934
     24.9831	  29.000	  31.933	-226.933	  24.884
     25.0165	  19.000	  31.132	-236.132	  24.834
     25.0499	  22.000	  30.458	-232.458	  24.785
     25.0833	  16.000	  29.884	-237.884	  24.735
     25.1168	  29.000	  29.390	-224.390	  24.686
     25.1502	  28.000	  28.960	-224.960	  24.637
     25.1836	  18.000	  28.583	-234.583	  24.587
     25.2170	  30.000	  28.249	-222.249	  24.538
     25.2505	  22.000	  27.952	-229.952	  24.489
     25.2839	  18.000	  27.685	-233.685	  24.440
     25.3173	  30.000	  27.443	-221.443	  24.391
     25.3507	  18.000	  27.223	-233.223	  24.342
     25.3841	  16.000	  27.021	-235.021	  24.293
     25.4176	  31.000	  26.836	-219.836	  24.245
     25.4510	  22.000	  26.665	-228.665	  24.196
     25.4844	  24.000	  26.505	-226.505	  24.148
     25.5178	  21.000	  26.357	-229.357	  24.099
     25.5513	  22.000	  26.217	-228.217	  24.051
     25.5847	  32.000	  26.086	-218.086	  24.003
     25.6181	  24.000	  25.962	-225.962	  23.955
     25.6515	  20.000	  25.844	-229.844	  23.906
     25.6849	  21.000	  25.733	-228.733	  23.858
     25.7184	  14.000	  25.626	-235.626	  23.811
     25.7518	  28.000	  25.524	-221.524	  23.763
     25.7852	  22.000	  25.426	-227.426	  23.715
     25.8186	  16.000	  25.332	-233.332	  23.667
     25.8521	  17.000	  25.242	-232.242	  23.620
     25.8855	  21.000	  25.154	-228.154	  23.572
     25.9189	  18.000	  25.070	-231.070	  23.525
     25.9523	  18.000	  24.988	-230.988	  23.478
     25.9857	  28.000	  24.908	-220.908	  23.430
     26.0192	  17.000	  24.831	-231.831	  23.383
     26.0526	  18.000	  24.755	-230.755	  23.336
     26.0860	  25.000	  24.681	-223.681	  23.289
     26.1194	  19.000	  24.609	-229.609	  23.242
     26.1529	  22.000	  24.539	-226.539	  23.195
     26.1863	  34.000	  24.470	-214.470	  23.149
     26.2197	  18.000	  24.402	-230.402	  23.102
     26.2531	  24.000	  24.336	-224.336	  23.055
     26.2865	  25.000	  24.271	-223.271	  23.009
     26.3200	  28.000	  24.207	-220.207	  22.963
     26.3534	  22.000	  24.144	-226.144	  22.916
     26.3868	  19.000	  24.082	-229.082	  22.870
     26.4202	  18.000	  24.020	-230.020	  22.824
     26.4537	  28.000	  23.960	-219.960	  22.778
     26.4871	  19.000	  23.900	-228.900	  22.732
     26.5205	  20.000	  23.842	-227.842	  22.686
     26.5539	  20.000	  23.784	-227.784	  22.640
     26.5874	  25.000	  23.726	-222.726	  22.594
     26.6208	  20.000	  23.669	-227.669	  22.549
     26.6542	  15.000	  23.613	-232.613	  22.503
     26.6876	  21.000	  23.557	-226.557	  22.458
     26.7210	  17.000	  23.502	-230.502	  22.412
     26.7545	  16.000	  23.447	-231.447	  22.367
     26.7879	  29.000	  23.393	-218.393	  22.322
     26.8213	  18.000	  23.340	-229.340	  22.276
     26.8547	  22.000	  23.286	-225.286	  22.231
     26.8882	  18.000	  23.233	-229.233	  22.186
     26.9216	  24.000	  23.181	-223.181	  22.141
     26.9550	  19.000	  23.129	-228.129	  22.097
     26.9884	  18.000	  23.077	-229.077	  22.052
     27.0218	  16.000	  23.026	-231.026	  22.007
     27.0553	  19.000	  22.975	-227.975	  21.963
     27.0887	  28.000	  22.924	-218.924	  21.918
     27.1221	  18.000	  22.874	-228.874	  21.874
     27.1555	  20.000	  22.824	-226.824	  21.829
     27.1890	  17.000	  22.774	-229.774	  21.785
     27.2224	  14.000	  22.725	-232.725	  21.741
     27.2558	  19.000	  22.675	-227.675	  21.697
     27.2892	  21.000	  22.626	-225.626	  21.653
     27.3226	  21.000	  22.578	-225.578	  21.609
     27.3561	  27.000	  22.529	-219.529	  21.565
     27.3895	  33.000	  22.291	-213.291	  21.521
     27.4229	  16.000	  22.247	-230.247	  21.477
     27.4563	  24.000	  22.204	-222.204	  21.434
     27.4898	  18.000	  22.160	-228.160	  21.390
     27.5232	  19.000	  22.117	-227.117	  21.347
     27.5566	  13.000	  22.073	-233.073	  21.303
     27.5900	  31.000	  22.030	-215.030	  21.260
     27.6234	  20.000	  21.987	-225.987	  21.217
     27.6569	  16.000	  21.944	-229.944	  21.173
     27.6903	  18.000	  21.901	-227.901	  21.130
     27.7237	  28.000	  21.858	-217.858	  21.087
     27.7571	  27.000	  21.815	-218.815	  21.044
     27.7906	  17.000	  21.772	-228.772	  21.002
     27.8240	  30.000	  21.729	-215.729	  20.959
     27.8574	  26.000	  21.686	-219.686	  20.916
     27.8908	  25.000	  21.644	-220.644	  20.874
     27.9243	  13.000	  21.601	-232.601	  20.831
     27.9577	  20.000	  21.559	-225.559	  20.789
     27.9911	  24.000	  21.517	-221.517	  20.746
     28.0245	   9.000	  21.474	-236.474	  20.704
     28.0579	  21.000	  21.432	-224.432	  20.662
     28.0914	  27.000	  21.390	-218.390	  20.620
     28.1248	  21.000	  21.348	-224.348	  20.578
     28.1582	  24.000	  21.306	-221.306	  20.536
     28.1916	  25.000	  21.264	-220.264	  20.494
     28.2251	  21.000	  21.222	-224.222	  20.452
     28.2585	  24.000	  21.180	-221.180	  20.410
     28.2919	  21.000	  21.139	-224.139	  20.369
     28.3253	  20.000	  21.097	-225.097	  20.327
     28.3587	  26.000	  21.056	-219.056	  20.285
     28.3922	  18.000	  21.014	-227.014	  20.244
     28.4256	  20.000	  20.973	-224.973	  20.203
     28.4590	  19.000	  20.932	-225.932	  20.161
     28.4924	  26.000	  20.891	-218.891	  20.120
     28.5259	  22.000	  20.849	-222.849	  20.079
     28.5593	  30.000	  20.808	-214.808	  20.038
     28.5927	  20.000	  20.767	-224.767	  19.997
     28.6261	  19.000	  20.727	-225.727	  19.956
     28.6595	  21.000	  20.686	-223.686	  19.915
     28.6930	  26.000	  20.645	-218.645	  19.875
     28.7264	  21.000	  20.604	-223.604	  19.834
     28.7598	  20.000	  20.564	-224.564	  19.794
     28.7932	  14.000	  20.523	-230.523	  19.753
     28.8267	   5.000	  20.483	-239.483	  19.713
     28.8601	  20.000	  20.442	-224.442	  19.672
     28.8935	  19.000	  20.402	-225.402	  19.632
     28.9269	  17.000	  20.362	-227.362	  19.592
     28.9604	  26.000	  20.322	-218.322	  19.552
     28.9938	  27.000	  20.282	-217.282	  19.512
     29.0272	  19.000	  20.242	-225.242	  19.472
     29.0606	  32.000	  20.202	-212.202	  19.432
     29.0940	  24.000	  20.162	-220.162	  19.392
     29.1275	  22.000	  20.122	-222.122	  19.352
     29.1609	  30.000	  20.083	-214.083	  19.313
     29.1943	  24.000	  20.043	-220.043	  19.273
     29.2277	  32.000	  20.004	-212.004	  19.234
     29.2612	  24.000	  19.964	-219.964	  19.194
     29.2946	  18.000	  19.925	-225.925	  19.155
     29.3280	  27.000	  19.886	-216.886	  19.115
     29.3614	  28.000	  19.846	-215.846	  19.076
     29.3948	  19.000	  19.807	-224.807	  19.037
     29.4283	  31.000	  19.768	-212.768	  18.998
     29.4617	  30.000	  19.729	-213.729	  18.959
     29.4951	  22.000	  19.690	-221.690	  18.920
     29.5285	  29.000	  19.652	-214.652	  18.881
     29.5620	  34.000	  19.613	-209.613	  18.843
     29.5954	  30.000	  19.574	-213.574	  18.804
     29.6288	  24.000	  19.536	-219.536	  18.765
     29.6622	  20.000	  19.497	-223.497	  18.727
     29.6956	  30.000	  19.459	-213.459	  18.688
     29.7291	  20.000	  19.420	-223.420	  18.650
     29.7625	  20.000	  19.382	-223.382	  18.612
     29.7959	  21.000	  19.344	-222.344	  18.573
     29.8293	  31.000	  19.305	-212.305	  18.535
     29.8628	  20.000	  19.267	-223.267	  18.497
     29.8962	  25.000	  19.229	-218.229	  18.459
     29.9296	  31.000	  19.191	-212.191	  18.421
     29.9630	  26.000	  19.154	-217.154	  18.383
     29.9964	  21.000	  19.116	-222.116	  18.346
     30.0299	  24.000	  19.078	-219.078	  18.308
     30.0633	  34.000	  19.040	-209.040	  18.270
     30.0967	  34.000	  19.003	-209.003	  18.233
     30.1301	  28.000	  18.965	-214.965	  18.195
     30.1636	  27.000	  18.928	-215.928	  18.158
     30.1970	  30.000	  18.891	-212.891	  18.120
     30.2304	  21.000	  18.853	-221.853	  18.083
     30.2638	  19.000	  18.816	-223.816	  18.046
     30.2973	  30.000	  18.779	-212.779	  18.009
     30.3307	  42.000	  18.742	-200.742	  17.972
     30.3641	  26.000	  18.705	-216.705	  17.935
     30.3975	  38.000	  18.668	-204.668	  17.898
     30.4309	  38.000	  18.631	-204.631	  17.861
     30.4644	  19.000	  18.594	-223.594	  17.824
     30.4978	  36.000	  18.558	-206.558	  17.787
     30.5312	  33.000	  18.521	-209.521	  17.751
     30.5646	  32.000	  18.485	-210.484	  17.714
     30.5981	  32.000	  18.448	-210.448	  17.678
     30.6315	  20.000	  18.412	-222.412	  17.641
     30.6649	  21.000	  18.375	-221.375	  17.605
     30.6983	  22.000	  18.570	-220.570	  17.569
     30.7317	  20.000	  18.539	-222.539	  17.533
     30.7652	  28.000	  18.623	-214.623	  17.496
     30.7986	  17.000	  18.595	-225.595	  17.460
     30.8320	  21.000	  18.568	-221.568	  17.424
     30.8654	  26.000	  18.541	-216.541	  17.389
     30.8989	  25.000	  18.515	-217.515	  17.353
     30.9323	  30.000	  18.489	-212.489	  17.317
     30.9657	  36.000	  18.464	-206.464	  17.281
     30.9991	  18.000	  18.439	-224.439	  17.246
     31.0325	  15.000	  18.415	-227.415	  17.210
     31.0660	  30.000	  18.391	-212.391	  17.175
     31.0994	  21.000	  18.367	-221.367	  17.139
     31.1328	  17.000	  18.345	-225.345	  17.104
     31.1662	  18.000	  18.322	-224.322	  17.069
     31.1997	  28.000	  18.301	-214.301	  17.033
     31.2331	  20.000	  18.280	-222.280	  16.998
     31.2665	  25.000	  18.260	-217.260	  16.963
     31.2999	  18.000	  18.240	-224.240	  16.928
     31.3334	  30.000	  18.221	-212.221	  16.893
     31.3668	  16.000	  18.203	-226.203	  16.858
     31.4002	  22.000	  18.186	-220.186	  16.824
     31.4336	  31.000	  18.170	-211.170	  16.789
     31.4670	  19.000	  18.155	-223.155	  16.754
     31.5005	  29.000	  18.141	-213.141	  16.720
     31.5339	  25.000	  18.127	-217.127	  16.685
     31.5673	  16.000	  18.115	-226.115	  16.651
     31.6007	  18.000	  18.104	-224.104	  16.617
     31.6342	  21.000	  18.095	-221.095	  16.582
     31.6676	  16.000	  18.087	-226.087	  16.548
     31.7010	  16.000	  18.080	-226.080	  16.514
     31.7344	  10.000	  18.075	-232.075	  16.480
     31.7678	  18.000	  18.071	-224.071	  16.446
     31.8013	  20.000	  18.070	-222.070	  16.412
     31.8347	  25.000	  18.070	-217.070	  16.378
     31.8681	  16.000	  18.072	-226.072	  16.344
     31.9015	  28.000	  18.077	-214.077	  16.310
     31.9350	  14.000	  18.084	-228.084	  16.277
     31.9684	  16.000	  18.093	-226.093	  16.243
     32.0018	  22.000	  18.106	-220.106	  16.210
     32.0352	  16.000	  18.121	-226.121	  16.176
     32.0686	  26.000	  18.140	-216.140	  16.143
     32.1021	  18.000	  18.162	-224.162	  16.110
     32.1355	  19.000	  18.188	-223.188	  16.076
     32.1689	  16.000	  18.219	-226.219	  16.043
     32.2023	  19.000	  18.254	-223.254	  16.010
     32.2358	  26.000	  18.295	-216.295	  15.977
     32.2692	  15.000	  18.341	-227.341	  15.944
     32.3026	  22.000	  18.394	-220.394	  15.911
     32.3360	  18.000	  18.453	-224.453	  15.878
     32.3694	  15.000	  18.521	-227.521	  15.845
     32.4029	  15.000	  18.597	-227.597	  15.813
     32.4363	  20.000	  18.682	-222.682	  15.780
     32.4697	  31.000	  18.779	-211.779	  15.748
     32.5031	  21.000	  18.887	-221.887	  15.715
     32.5366	  21.000	  19.010	-222.010	  15.683
     32.5700	  30.000	  19.147	-213.147	  15.650
     32.6034	  27.000	  19.303	-216.303	  15.618
     32.6368	  20.000	  19.478	-223.478	  15.586
     32.6703	  27.000	  19.676	-216.676	  15.554
     32.7037	  26.000	  19.901	-217.901	  15.521
     32.7371	  28.000	  20.157	-216.157	  15.489
     32.7705	  32.000	  20.449	-212.449	  15.457
     32.8039	  26.000	  20.783	-218.783	  15.425
     32.8374	  26.000	  21.166	-219.166	  15.394
     32.8708	  22.000	  21.609	-223.609	  15.362
     32.9042	  32.000	  22.122	-214.122	  15.330
     32.9376	  20.000	  22.722	-226.722	  15.299
     32.9711	  32.000	  23.425	-215.425	  15.267
     33.0045	  28.000	  24.257	-220.257	  15.235
     33.0379	  27.000	  25.249	-222.249	  15.204
     33.0713	  27.000	  26.444	-223.444	  15.173
     33.1047	  31.000	  27.899	-220.899	  15.141
     33.1382	  22.000	  29.691	-231.691	  15.110
     33.1716	  46.000	  31.931	-209.931	  15.079
     33.2050	  38.000	  34.777	-220.777	  15.048
     33.2384	  43.000	  38.462	-219.462	  15.017
     33.2719	  44.000	  43.571	-223.571	  14.986
     33.3053	  64.000	  50.294	-210.294	  14.955
     33.3387	  79.000	  60.174	-205.174	  14.924
     33.3721	  83.000	  76.852	-217.852	  14.893
     33.4055	 126.000	 109.387	-207.387	  14.863
     33.4390	 184.000	 176.988	-216.988	  14.832
     33.4724	 285.000	 305.155	-244.155	  14.801
     33.5058	 506.000	 504.350	-222.350	  14.771
     33.5392	 735.000	 727.474	-216.474	  14.740
     33.5727	 896.000	 839.166	-167.166	  14.710
     33.6061	 792.000	 787.240	-219.240	  14.680
     33.6395	 654.000	 663.568	-233.568	  14.649
     33.6729	 554.000	 493.490	-163.490	  14.619
     33.7064	 334.000	 320.946	-210.946	  14.589
     33.7398	 161.000	 195.638	-258.638	  14.559
     33.7732	 121.000	 121.272	-224.272	  14.529
     33.8066	  78.000	  82.250	-228.250	  14.499
     33.8400	  61.000	  62.314	-225.314	  14.469
     33.8735	  49.000	  51.137	-226.137	  14.439
     33.9069	  48.000	  43.920	-219.920	  14.410
     33.9403	  46.000	  38.784	-216.784	  14.380
     33.9737	  51.000	  34.937	-207.937	  14.350
     34.0072	  32.000	  31.972	-223.972	  14.321
     34.0406	  37.000	  29.637	-216.637	  14.291
     34.0740	  28.000	  27.767	-223.767	  14.262
     34.1074	  32.000	  26.244	-218.244	  14.232
     34.1408	  26.000	  24.990	-222.990	  14.203
     34.1743	  19.000	  23.943	-228.943	  14.174
     34.2077	  30.000	  23.062	-217.062	  14.145
     34.2411	  18.000	  22.313	-228.313	  14.115
     34.2745	  20.000	  21.671	-225.671	  14.086
     34.3080	  21.000	  21.118	-224.118	  14.057
     34.3414	  24.000	  20.639	-220.639	  14.028
     34.3748	  18.000	  20.220	-226.220	  14.000
     34.4082	  29.000	  19.854	-214.854	  13.971
     34.4416	  24.000	  19.533	-219.533	  13.942
     34.4751	  27.000	  19.249	-216.249	  13.913
     34.5085	  20.000	  18.999	-222.999	  13.885
     34.5419	  24.000	  18.778	-218.778	  13.856
     34.5753	  16.000	  18.583	-226.583	  13.828
     34.6088	  14.000	  18.411	-228.411	  13.799
     34.6422	  26.000	  18.259	-216.259	  13.771
     34.6756	  24.000	  18.127	-218.127	  13.743
     34.7090	  19.000	  18.012	-223.012	  13.714
     34.7425	  19.000	  17.912	-222.912	  13.686
     34.7759	  14.000	  17.828	-227.828	  13.658
     34.8093	  13.000	  17.758	-228.758	  13.630
     34.8427	  14.000	  17.702	-227.702	  13.602
     34.8761	  14.000	  17.659	-227.659	  13.574
     34.9096	  19.000	  17.630	-222.630	  13.546
     34.9430	  24.000	  17.614	-217.614	  13.518
     34.9764	  20.000	  17.611	-221.611	  13.491
     35.0098	  19.000	  17.621	-222.621	  13.463
     35.0433	  21.000	  17.646	-220.646	  13.435
     35.0767	  17.000	  17.686	-224.686	  13.408
     35.1101	  25.000	  17.742	-216.742	  13.380
     35.1435	  12.000	  17.815	-229.815	  13.353
     35.1769	  26.000	  17.907	-215.907	  13.325
     35.2104	  29.000	  18.019	-213.019	  13.298
     35.2438	  19.000	  18.154	-223.154	  13.271
     35.2772	  24.000	  18.315	-218.315	  13.244
     35.3106	  16.000	  18.504	-226.504	  13.216
     35.3441	  18.000	  18.726	-224.726	  13.189
     35.3775	  14.000	  18.986	-228.986	  13.162
     35.4109	  18.000	  19.290	-225.290	  13.135
     35.4443	  26.000	  19.646	-217.646	  13.108
     35.4777	  32.000	  20.062	-212.062	  13.082
     35.5112	  29.000	  20.551	-215.551	  13.055
     35.5446	  22.000	  21.127	-223.127	  13.028
     35.5780	  21.000	  21.810	-224.810	  13.001
     35.6114	  29.000	  22.623	-217.623	  12.975
     35.6449	  28.000	  23.600	-219.600	  12.948
     35.6783	  19.000	  24.783	-229.783	  12.922
     35.7117	  34.000	  26.231	-216.231	  12.895
     35.7451	  25.000	  28.024	-227.024	  12.869
     35.7785	  17.000	  30.275	-237.275	  12.843
     35.8120	  49.000	  33.149	-208.149	  12.816
     35.8454	  33.000	  36.890	-227.890	  12.790
     35.8788	  50.000	  41.886	-215.886	  12.764
     35.9122	  57.000	  48.843	-215.843	  12.738
     35.9457	  61.000	  59.371	-222.371	  12.712
     35.9791	  77.000	  77.704	-224.704	  12.686
     36.0125	 101.000	 114.000	-237.000	  12.660
     36.0459	 161.000	 186.582	-249.582	  12.634
     36.0794	 253.000	 315.322	-286.322	  12.608
     36.1128	 465.000	 500.052	-259.052	  12.583
     36.1462	 672.000	 681.864	-233.864	  12.557
     36.1796	 657.000	 741.529	-308.529	  12.531
     36.2130	 605.000	 677.434	-296.434	  12.506
     36.2465	 519.000	 572.459	-277.459	  12.480
     36.2799	 405.000	 432.179	-251.179	  12.455
     36.3133	 257.000	 286.996	-253.996	  12.430
     36.3467	 173.000	 178.718	-229.718	  12.404
     36.3802	 100.000	 112.438	-236.438	  12.379
     36.4136	  70.000	  76.501	-230.501	  12.354
     36.4470	  51.000	  57.687	-230.687	  12.329
     36.4804	  37.000	  46.835	-233.835	  12.304
     36.5138	  40.000	  39.993	-223.993	  12.278
     36.5473	  29.000	  35.015	-230.015	  12.253
     36.5807	  38.000	  31.366	-217.366	  12.229
     36.6141	  24.000	  28.545	-228.545	  12.204
     36.6475	  24.000	  26.317	-226.317	  12.179
     36.6810	  18.000	  24.526	-230.526	  12.154
     36.7144	  19.000	  23.063	-228.063	  12.129
     36.7478	  17.000	  21.851	-228.851	  12.105
     36.7812	  20.000	  20.836	-224.836	  12.080
     36.8146	  20.000	  19.993	-223.993	  12.056
     36.8481	  10.000	  19.258	-233.258	  12.031
     36.8815	  10.000	  18.625	-232.625	  12.007
     36.9149	  14.000	  18.082	-228.082	  11.983
     36.9483	  20.000	  17.599	-221.599	  11.958
     36.9818	  16.000	  17.174	-225.174	  11.934
     37.0152	  10.000	  16.797	-230.797	  11.910
     37.0486	  24.000	  16.460	-216.460	  11.886
     37.0820	  20.000	  16.159	-220.159	  11.862
     37.1154	  14.000	  15.887	-225.887	  11.838
     37.1489	  18.000	  15.640	-221.640	  11.814
     37.1823	   6.000	  15.416	-233.416	  11.790
     37.2157	  19.000	  15.212	-220.212	  11.766
     37.2491	  14.000	  15.024	-225.024	  11.742
     37.2826	   8.000	  14.852	-230.852	  11.718
     37.3160	   9.000	  14.693	-229.693	  11.695
     37.3494	  16.000	  14.545	-222.545	  11.671
     37.3828	  12.000	  14.408	-226.408	  11.647
     37.4163	  18.000	  14.280	-220.280	  11.624
     37.4497	   8.000	  14.161	-230.161	  11.600
     37.4831	  21.000	  14.049	-217.049	  11.577
     37.5165	  17.000	  13.944	-220.944	  11.554
     37.5499	  10.000	  13.846	-227.846	  11.530
     37.5834	  18.000	  13.752	-219.752	  11.507
     37.6168	  13.000	  13.664	-224.664	  11.484
     37.6502	  10.000	  13.581	-227.581	  11.461
     37.6836	  13.000	  13.501	-224.501	  11.438
     37.7171	  16.000	  13.426	-221.426	  11.415
     37.7505	  19.000	  13.354	-218.354	  11.392
     37.7839	  15.000	  13.286	-222.286	  11.369
     37.8173	  14.000	  13.220	-223.220	  11.346
     37.8507	   5.000	  13.158	-232.158	  11.323
     37.8842	   9.000	  13.097	-228.097	  11.300
     37.9176	  13.000	  13.040	-224.040	  11.278
     37.9510	  12.000	  12.985	-224.985	  11.255
     37.9844	  18.000	  12.931	-218.931	  11.232
     38.0179	   7.000	  12.880	-229.880	  11.210
     38.0513	  12.000	  12.831	-224.831	  11.187
     38.0847	  14.000	  12.783	-222.783	  11.165
     38.1181	   8.000	  12.737	-228.737	  11.143
     38.1516	  14.000	  12.693	-222.693	  11.120
     38.1850	  12.000	  12.650	-224.650	  11.098
     38.2184	   8.000	  12.609	-228.609	  11.076
     38.2518	   9.000	  12.569	-227.569	  11.054
     38.2852	   8.000	  12.531	-228.531	  11.031
     38.3187	   5.000	  12.494	-231.494	  11.009
     38.3521	   7.000	  12.458	-229.458	  10.987
     38.3855	  10.000	  12.423	-226.423	  10.965
     38.4189	   8.000	  12.390	-228.390	  10.943
     38.4524	  13.000	  12.358	-223.358	  10.922
     38.4858	  16.000	  12.327	-220.327	  10.900
     38.5192	   8.000	  12.372	-228.372	  10.878
     38.5526	  15.000	  12.345	-221.345	  10.856
     38.5860	  15.000	  12.320	-221.320	  10.835
     38.6195	  12.000	  12.296	-224.296	  10.813
     38.6529	  14.000	  12.312	-222.312	  10.792
     38.6863	  12.000	  12.292	-224.292	  10.770
     38.7197	  12.000	  12.274	-224.274	  10.749
     38.7532	  10.000	  12.258	-226.258	  10.727
     38.7866	   6.000	  12.244	-230.244	  10.706
     38.8200	  15.000	  12.232	-221.232	  10.685
     38.8534	  14.000	  12.223	-222.223	  10.663
     38.8868	   7.000	  12.216	-229.216	  10.642
     38.9203	   5.000	  12.213	-231.213	  10.621
     38.9537	   9.000	  12.212	-227.212	  10.600
     38.9871	   6.000	  12.217	-230.217	  10.579
     39.0205	  15.000	  12.225	-221.225	  10.558
     39.0540	   9.000	  12.240	-227.240	  10.537
     39.0874	  16.000	  12.045	-220.045	  10.516
     39.1208	   7.000	  12.078	-229.078	  10.495
     39.1542	   9.000	  12.121	-227.121	  10.475
     39.1876	  10.000	  12.069	-226.069	  10.454
     39.2211	  16.000	  12.141	-220.141	  10.433
     39.2545	  12.000	  12.231	-224.231	  10.413
     39.2879	  14.000	  12.345	-222.345	  10.392
     39.3213	  10.000	  12.490	-226.490	  10.372
     39.3548	   7.000	  12.679	-229.679	  10.351
     39.3882	  14.000	  12.926	-222.926	  10.331
     39.4216	  14.000	  13.257	-223.257	  10.310
     39.4550	  22.000	  13.717	-215.717	  10.290
     39.4884	  13.000	  14.405	-225.405	  10.270
     39.5219	  19.000	  15.570	-220.570	  10.249
     39.5553	  10.000	  17.791	-231.791	  10.229
     39.5887	  17.000	  22.122	-229.122	  10.209
     39.6221	  31.000	  29.792	-222.792	  10.189
     39.6556	  32.000	  41.107	-233.107	  10.169
     39.6890	  63.000	  53.355	-214.355	  10.149
     39.7224	  52.000	  59.309	-231.309	  10.129
     39.7558	  60.000	  56.368	-220.368	  10.109
     39.7893	  48.000	  50.535	-226.535	  10.090
     39.8227	  43.000	  43.392	-224.392	  10.070
     39.8561	  43.000	  34.327	-215.327	  10.050
     39.8895	  18.000	  26.093	-232.093	  10.030
     39.9229	  15.000	  20.339	-229.339	  10.011
     39.9564	  20.000	  16.894	-220.894	   9.991
     39.9898	  17.000	  15.010	-222.010	   9.972
     40.0232	  12.000	  13.981	-225.981	   9.952
     40.0566	  10.000	  13.365	-227.365	   9.933
     40.0901	  13.000	  12.952	-223.952	   9.913
     40.1235	   7.000	  12.654	-229.654	   9.894
     40.1569	  15.000	  12.430	-221.430	   9.875
     40.1903	   6.000	  12.258	-230.258	   9.855
     40.2237	   6.000	  12.126	-230.126	   9.836
     40.2572	   8.000	  12.024	-228.024	   9.817
     40.2906	   8.000	  11.946	-227.946	   9.798
     40.3240	   8.000	  11.887	-227.887	   9.779
     40.3574	   6.000	  11.845	-229.845	   9.760
     40.3909	  12.000	  11.817	-223.816	   9.741
     40.4243	  15.000	  11.801	-220.801	   9.722
     40.4577	   8.000	  11.797	-227.797	   9.703
     40.4911	  10.000	  11.805	-225.805	   9.684
     40.5246	  17.000	  11.824	-218.824	   9.666
     40.5580	   3.000	  11.855	-232.855	   9.647
     40.5914	   7.000	  11.898	-228.898	   9.628
     40.6248	   6.000	  11.954	-229.954	   9.610
     40.6582	   9.000	  12.025	-227.025	   9.591
     40.6917	  12.000	  12.111	-224.111	   9.573
     40.7251	   7.000	  12.216	-229.216	   9.554
     40.7585	  16.000	  12.342	-220.342	   9.536
     40.7919	   8.000	  12.494	-228.494	   9.517
     40.8254	  15.000	  12.675	-221.675	   9.499
     40.8588	  17.000	  12.893	-219.893	   9.481
     40.8922	   5.000	  13.154	-232.154	   9.462
     40.9256	  12.000	  13.470	-225.470	   9.444
     40.9590	  10.000	  13.855	-227.855	   9.426
     40.9925	  12.000	  14.328	-226.328	   9.408
     41.0259	  15.000	  14.915	-223.915	   9.390
     41.0593	  15.000	  15.654	-224.654	   9.372
     41.0927	  14.000	  16.596	-226.596	   9.354
     41.1262	  14.000	  17.823	-227.823	   9.336
     41.1596	  26.000	  19.462	-217.462	   9.318
     41.1930	  28.000	  21.753	-217.753	   9.300
     41.2264	  36.000	  25.258	-213.258	   9.283
     41.2598	  31.000	  31.291	-224.291	   9.265
     41.2933	  40.000	  42.799	-226.799	   9.247
     41.3267	  73.000	  64.556	-215.556	   9.229
     41.3601	 102.000	 101.243	-223.243	   9.212
     41.3935	 160.000	 152.174	-216.174	   9.194
     41.4270	 232.000	 201.616	-193.616	   9.177
     41.4604	 254.000	 218.148	-188.148	   9.159
     41.4938	 214.000	 200.725	-210.725	   9.142
     41.5272	 192.000	 176.023	-208.023	   9.125
     41.5606	 154.000	 146.387	-216.387	   9.107
     41.5941	 116.000	 108.559	-216.559	   9.090
     41.6275	  80.000	  74.132	-218.132	   9.073
     41.6609	  42.000	  49.864	-231.864	   9.056
     41.6943	  44.000	  35.139	-215.139	   9.038
     41.7278	  32.000	  26.953	-218.953	   9.021
     41.7612	  15.000	  22.406	-231.406	   9.004
     41.7946	  14.000	  19.652	-229.652	   8.987
     41.8280	  17.000	  17.785	-224.785	   8.970
     41.8615	  16.000	  16.416	-224.416	   8.953
     41.8949	  19.000	  15.369	-220.369	   8.936
     41.9283	   6.000	  14.545	-232.545	   8.920
     41.9617	  13.000	  13.885	-224.885	   8.903
     41.9951	  18.000	  13.346	-219.346	   8.886
     42.0286	  15.000	  12.901	-221.901	   8.869
     42.0620	  10.000	  12.528	-226.528	   8.853
     42.0954	  13.000	  12.212	-223.212	   8.836
     42.1288	  15.000	  11.942	-220.942	   8.819
     42.1623	  13.000	  11.708	-222.708	   8.803
     42.1957	   7.000	  11.504	-228.504	   8.786
     42.2291	  15.000	  11.325	-220.325	   8.770
     42.2625	  10.000	  11.167	-225.167	   8.754
     42.2959	   9.000	  11.026	-226.026	   8.737
     42.3294	  12.000	  10.900	-222.900	   8.721
     42.3628	   8.000	  10.787	-226.787	   8.705
     42.3962	  17.000	  10.684	-217.684	   8.688
     42.4296	  10.000	  10.591	-224.591	   8.672
     42.4631	   6.000	  10.505	-228.505	   8.656
     42.4965	  18.000	  10.427	-216.427	   8.640
     42.5299	   4.000	  10.355	-230.355	   8.624
     42.5633	  14.000	  10.289	-220.289	   8.608
     42.5967	  10.000	  10.227	-224.227	   8.592
     42.6302	  10.000	  10.170	-224.170	   8.576
     42.6636	  10.000	  10.101	-224.101	   8.560
     42.6970	   6.000	  10.052	-228.052	   8.544
     42.7304	   6.000	  10.005	-228.005	   8.528
     42.7639	   8.000	   9.954	-225.954	   8.513
     42.7973	   9.000	   9.914	-224.914	   8.497
     42.8307	   4.000	   9.876	-229.876	   8.481
     42.8641	   6.000	   9.841	-227.841	   8.466
     42.8975	  10.000	   9.808	-223.808	   8.450
     42.9310	  10.000	   9.777	-223.777	   8.434
     42.9644	  10.000	   9.748	-223.748	   8.419
     42.9978	  15.000	   9.720	-218.720	   8.403
     43.0312	  10.000	   9.695	-223.695	   8.388
     43.0647	  12.000	   9.672	-221.672	   8.373
     43.0981	  13.000	   9.650	-220.650	   8.357
     43.1315	   5.000	   9.630	-228.630	   8.342
     43.1649	  10.000	   9.612	-223.612	   8.327
     43.1983	   9.000	   9.596	-224.596	   8.311
     43.2318	   8.000	   9.582	-225.582	   8.296
     43.2652	   5.000	   9.570	-228.570	   8.281
     43.2986	   5.000	   9.561	-228.561	   8.266
     43.3320	   7.000	   9.554	-226.554	   8.251
     43.3655	   7.000	   9.550	-226.550	   8.236
     43.3989	  10.000	   9.550	-223.550	   8.221
     43.4323	   3.000	   9.553	-230.553	   8.206
     43.4657	  10.000	   9.560	-223.560	   8.191
     43.4992	  13.000	   9.572	-220.572	   8.176
     43.5326	   8.000	   9.590	-225.590	   8.161
     43.5660	  16.000	   9.615	-217.615	   8.147
     43.5994	   9.000	   9.648	-224.648	   8.132
     43.6328	   7.000	   9.692	-226.692	   8.117
     43.6663	  10.000	   9.748	-223.748	   8.103
     43.6997	  10.000	   9.821	-223.821	   8.088
     43.7331	   7.000	   9.915	-226.915	   8.073
     43.7665	   7.000	  10.036	-227.036	   8.059
     43.8000	   6.000	  10.195	-228.195	   8.044
     43.8334	   8.000	  10.404	-226.404	   8.030
     43.8668	   8.000	  10.686	-226.686	   8.016
     43.9002	   3.000	  11.080	-232.080	   8.001
     43.9336	  10.000	  11.672	-225.672	   7.987
     43.9671	   6.000	  12.665	-230.665	   7.973
     44.0005	   8.000	  14.505	-230.505	   7.958
     44.0339	  13.000	  17.956	-228.956	   7.944
     44.0673	  16.000	  23.874	-231.874	   7.930
     44.1008	  22.000	  32.480	-234.480	   7.916
     44.1342	  24.000	  41.924	-241.924	   7.902
     44.1676	  46.000	  47.004	-225.004	   7.888
     44.2010	  51.000	  45.054	-218.054	   7.874
     44.2345	  36.000	  40.700	-228.700	   7.860
     44.2679	  37.000	  36.383	-223.383	   7.846
     44.3013	  34.000	  30.578	-220.578	   7.832
     44.3347	  27.000	  23.956	-220.956	   7.818
     44.3681	  20.000	  18.548	-222.548	   7.804
     44.4016	  15.000	  14.843	-223.843	   7.790
     44.4350	  10.000	  12.680	-226.680	   7.776
     44.4684	  12.000	  11.459	-223.459	   7.763
     44.5018	  14.000	  10.711	-220.711	   7.749
     44.5353	   6.000	  10.253	-228.253	   7.735
     44.5687	  14.000	   9.928	-219.928	   7.722
     44.6021	   9.000	   9.682	-224.682	   7.708
     44.6355	  10.000	   9.489	-223.489	   7.695
     44.6689	   7.000	   9.333	-226.333	   7.681
     44.7024	  14.000	   9.205	-219.205	   7.668
     44.7358	  15.000	   9.098	-218.098	   7.654
     44.7692	  10.000	   9.008	-223.008	   7.641
     44.8026	   9.000	   8.929	-223.930	   7.628
     44.8361	   6.000	   8.861	-226.861	   7.614
     44.8695	  10.000	   8.802	-222.801	   7.601
     44.9029	  10.000	   8.748	-222.748	   7.588
     44.9363	   7.000	   8.700	-225.700	   7.575
     44.9697	   9.000	   8.657	-223.657	   7.561
     45.0032	   7.000	   8.617	-225.617	   7.548
     45.0366	  10.000	   8.580	-222.580	   7.535
     45.0700	  14.000	   8.547	-218.547	   7.522
     45.1034	   6.000	   8.515	-226.515	   7.509
     45.1369	  10.000	   8.486	-222.486	   7.496
     45.1703	   5.000	   8.458	-227.458	   7.483
     45.2037	   8.000	   8.431	-224.431	   7.470
     45.2371	  14.000	   8.406	-218.406	   7.457
     45.2705	   8.000	   8.383	-224.383	   7.445
     45.3040	   8.000	   8.360	-224.360	   7.432
     45.3374	  10.000	   8.338	-222.338	   7.419
     45.3708	   7.000	   8.317	-225.317	   7.406
     45.4042	  15.000	   8.296	-217.296	   7.394
     45.4377	   8.000	   8.277	-224.277	   7.381
     45.4711	   9.000	   8.258	-223.258	   7.368
     45.5045	   9.000	   8.239	-223.239	   7.356
     45.5379	   6.000	   8.221	-226.221	   7.343
     45.5714	   6.000	   8.203	-226.203	   7.331
     45.6048	   6.000	   8.186	-226.186	   7.318
     45.6382	   7.000	   8.169	-225.169	   7.306
     45.6716	   9.000	   8.152	-223.152	   7.294
     45.7050	   7.000	   8.136	-225.136	   7.281
     45.7385	  10.000	   8.120	-222.120	   7.269
     45.7719	   8.000	   8.105	-224.105	   7.257
     45.8053	  10.000	   8.089	-222.089	   7.244
     45.8387	   9.000	   8.074	-223.074	   7.232
     45.8722	   7.000	   8.059	-225.059	   7.220
     45.9056	   9.000	   8.044	-223.044	   7.208
     45.9390	   9.000	   8.029	-223.029	   7.196
     45.9724	   8.000	   8.015	-224.015	   7.184
     46.0058	   6.000	   8.001	-226.001	   7.172
     46.0393	   4.000	   7.987	-227.987	   7.160
     46.0727	   6.000	   7.973	-225.973	   7.148
     46.1061	  14.000	   7.959	-217.959	   7.136
     46.1395	   8.000	   7.945	-223.945	   7.124
     46.1730	  10.000	   7.931	-221.931	   7.112
     46.2064	  10.000	   7.918	-221.918	   7.100
     46.2398	  13.000	   7.905	-218.905	   7.088
     46.2732	   5.000	   7.891	-226.891	   7.076
     46.3066	   8.000	   7.878	-223.878	   7.065
     46.3401	   5.000	   7.865	-226.865	   7.053
     46.3735	   9.000	   7.852	-222.852	   7.041
     46.4069	   6.000	   7.839	-225.839	   7.030
     46.4403	   6.000	   7.827	-225.827	   7.018
     46.4738	   7.000	   7.814	-224.814	   7.007
     46.5072	   6.000	   7.801	-225.801	   6.995
     46.5406	   5.000	   7.789	-226.789	   6.983
     46.5740	   3.000	   7.776	-228.776	   6.972
     46.6075	   6.000	   7.764	-225.764	   6.961
     46.6409	  10.000	   7.752	-221.752	   6.949
     46.6743	   6.000	   7.739	-225.739	   6.938
     46.7077	   6.000	   7.727	-225.727	   6.926
     46.7411	   8.000	   7.715	-223.715	   6.915
     46.7746	  10.000	   7.703	-221.703	   6.904
     46.8080	  18.000	   7.691	-213.691	   6.893
     46.8414	   9.000	   7.679	-222.679	   6.881
     46.8748	   4.000	   7.667	-227.667	   6.870
     46.9083	   6.000	   7.656	-225.656	   6.859
     46.9417	  13.000	   7.644	-218.644	   6.848
     46.9751	   9.000	   7.632	-222.632	   6.837
     47.0085	   6.000	   7.621	-225.621	   6.826
     47.0419	   4.000	   7.609	-227.609	   6.815
     47.0754	  18.000	   7.597	-213.597	   6.804
     47.1088	   7.000	   7.571	-224.571	   6.793
     47.1422	   8.000	   7.560	-223.560	   6.782
     47.1756	  12.000	   7.549	-219.549	   6.771
     47.2091	  12.000	   7.649	-219.649	   6.760
     47.2425	   6.000	   7.633	-225.633	   6.750
     47.2759	  16.000	   7.625	-215.625	   6.739
     47.3093	   7.000	   7.617	-224.617	   6.728
     47.3427	   5.000	   7.664	-226.664	   6.717
     47.3762	   7.000	   7.657	-224.657	   6.707
     47.4096	   7.000	   7.651	-224.651	   6.696
     47.4430	   7.000	   7.645	-224.645	   6.685
     47.4764	   5.000	   7.639	-226.639	   6.675
     47.5099	   5.000	   7.633	-226.633	   6.664
     47.5433	   9.000	   7.628	-222.628	   6.654
     47.5767	  14.000	   7.622	-217.622	   6.643
     47.6101	   5.000	   7.617	-226.617	   6.633
     47.6435	   9.000	   7.612	-222.612	   6.622
     47.6770	   9.000	   7.608	-222.608	   6.612
     47.7104	   4.000	   7.603	-227.603	   6.602
     47.7438	   5.000	   7.599	-226.599	   6.591
     47.7772	  10.000	   7.596	-221.596	   6.581
     47.8107	   3.000	   7.592	-228.592	   6.571
     47.8441	  10.000	   7.589	-221.589	   6.560
     47.8775	  16.000	   7.586	-215.586	   6.550
     47.9109	   6.000	   7.584	-225.584	   6.540
     47.9444	  10.000	   7.582	-221.582	   6.530
     47.9778	   6.000	   7.580	-225.580	   6.520
     48.0112	   7.000	   7.579	-224.579	   6.510
     48.0446	  12.000	   7.578	-219.578	   6.500
     48.0780	   8.000	   7.578	-223.578	   6.489
     48.1115	   9.000	   7.578	-222.578	   6.479
     48.1449	   8.000	   7.578	-223.578	   6.470
     48.1783	  10.000	   7.579	-221.579	   6.460
     48.2117	   9.000	   7.581	-222.581	   6.450
     48.2452	   5.000	   7.584	-226.584	   6.440
     48.2786	   8.000	   7.587	-223.587	   6.430
     48.3120	   4.000	   7.591	-227.591	   6.420
     48.3454	   8.000	   7.595	-223.595	   6.410
     48.3788	   7.000	   7.601	-224.601	   6.401
     48.4123	  15.000	   7.607	-216.607	   6.391
     48.4457	  12.000	   7.614	-219.614	   6.381
     48.4791	  10.000	   7.622	-221.622	   6.371
     48.5125	   6.000	   7.632	-225.632	   6.362
     48.5460	   8.000	   7.642	-223.642	   6.352
     48.5794	   7.000	   7.654	-224.654	   6.343
     48.6128	  10.000	   7.667	-221.667	   6.333
     48.6462	  14.000	   7.682	-217.682	   6.323
     48.6796	   7.000	   7.698	-224.698	   6.314
     48.7131	  15.000	   7.716	-216.716	   6.304
     48.7465	   9.000	   7.736	-222.736	   6.295
     48.7799	   9.000	   7.758	-222.758	   6.286
     48.8133	   9.000	   7.782	-222.782	   6.276
     48.8468	   6.000	   7.809	-225.809	   6.267
     48.8802	  10.000	   7.838	-221.838	   6.257
     48.9136	   9.000	   7.871	-222.871	   6.248
     48.9470	  17.000	   7.907	-214.907	   6.239
     48.9804	  14.000	   7.946	-217.946	   6.230
     49.0139	  13.000	   7.990	-218.990	   6.220
     49.0473	  18.000	   8.038	-214.038	   6.211
     49.0807	  10.000	   8.092	-222.092	   6.202
     49.1141	  13.000	   8.151	-219.151	   6.193
     49.1476	  13.000	   8.217	-219.217	   6.184
     49.1810	   3.000	   8.290	-229.290	   6.175
     49.2144	  15.000	   8.372	-217.372	   6.166
     49.2478	  16.000	   8.463	-216.463	   6.157
     49.2813	  15.000	   8.565	-217.565	   6.148
     49.3147	  14.000	   8.680	-218.680	   6.139
     49.3481	   6.000	   8.808	-226.808	   6.130
     49.3815	   9.000	   8.954	-223.954	   6.121
     49.4149	  13.000	   9.119	-220.119	   6.112
     49.4484	  16.000	   9.308	-217.308	   6.103
     49.4818	  12.000	   9.523	-221.523	   6.094
     49.5152	  17.000	   9.772	-216.772	   6.085
     49.5486	  15.000	  10.059	-219.059	   6.077
     49.5821	  15.000	  10.394	-219.394	   6.068
     49.6155	  14.000	  10.787	-220.787	   6.059
     49.6489	  19.000	  11.253	-216.253	   6.051
     49.6823	  17.000	  11.809	-218.809	   6.042
     49.7157	  17.000	  12.480	-219.480	   6.033
     49.7492	  20.000	  13.300	-217.300	   6.025
     49.7826	   9.000	  14.314	-229.314	   6.016
     49.8160	  18.000	  15.589	-221.589	   6.007
     49.8494	  27.000	  17.221	-214.221	   5.999
     49.8829	  25.000	  19.367	-218.367	   5.990
     49.9163	  27.000	  22.311	-219.311	   5.982
     49.9497	  30.000	  26.658	-220.658	   5.973
     49.9831	  31.000	  33.761	-226.761	   5.965
     50.0165	  57.000	  46.312	-213.312	   5.957
     50.0500	  57.000	  68.537	-235.537	   5.948
     50.0834	 102.000	 104.914	-226.914	   5.940
     50.1168	 151.000	 156.418	-229.418	   5.932
     50.1502	 221.000	 213.223	-216.223	   5.923
     50.1837	 265.000	 246.727	-205.727	   5.915
     50.2171	 238.000	 237.383	-223.383	   5.907
     50.2505	 197.000	 209.943	-236.943	   5.899
     50.2839	 204.000	 187.686	-207.686	   5.890
     50.3174	 169.000	 164.817	-219.817	   5.882
     50.3508	 131.000	 130.645	-223.645	   5.874
     50.3842	 104.000	  93.901	-213.901	   5.866
     50.4176	  63.000	  64.638	-225.638	   5.858
     50.4510	  46.000	  44.834	-222.834	   5.850
     50.4845	  39.000	  32.711	-217.711	   5.842
     50.5179	  29.000	  25.591	-220.591	   5.834
     50.5513	  21.000	  21.280	-224.280	   5.826
     50.5847	  15.000	  18.446	-227.446	   5.818
     50.6182	  21.000	  16.418	-219.418	   5.810
     50.6516	  18.000	  14.883	-220.883	   5.802
     50.6850	  19.000	  13.683	-218.683	   5.794
     50.7184	  17.000	  12.723	-219.723	   5.786
     50.7518	  14.000	  11.943	-221.943	   5.778
     50.7853	  24.000	  11.300	-211.300	   5.770
     50.8187	  24.000	  10.763	-210.763	   5.763
     50.8521	  12.000	  10.310	-222.310	   5.755
     50.8855	  17.000	   9.924	-216.924	   5.747
     50.9190	  16.000	   9.592	-217.592	   5.739
     50.9524	  13.000	   9.305	-220.305	   5.732
     50.9858	  10.000	   9.054	-223.054	   5.724
     51.0192	  18.000	   8.834	-214.834	   5.716
     51.0527	  14.000	   8.639	-218.639	   5.709
     51.0861	   5.000	   8.465	-227.465	   5.701
     51.1195	  18.000	   8.310	-214.310	   5.694
     51.1529	   9.000	   8.171	-223.171	   5.686
     51.1863	  15.000	   8.046	-217.046	   5.678
     51.2198	   7.000	   7.932	-224.932	   5.671
     51.2532	  14.000	   7.829	-217.829	   5.663
     51.2866	  10.000	   7.734	-221.734	   5.656
     51.3200	  13.000	   7.648	-218.648	   5.649
     51.3535	   8.000	   7.568	-223.568	   5.641
     51.3869	   9.000	   7.495	-222.495	   5.634
     51.4203	  17.000	   7.427	-214.427	   5.626
     51.4537	  14.000	   7.364	-217.365	   5.619
     51.4871	  17.000	   7.306	-214.306	   5.612
     51.5206	   9.000	   7.251	-222.251	   5.604
     51.5540	  10.000	   7.201	-221.201	   5.597
     51.5874	  14.000	   7.153	-217.153	   5.590
     51.6208	   8.000	   7.108	-223.108	   5.583
     51.6543	  12.000	   7.066	-219.066	   5.575
     51.6877	  12.000	   7.026	-219.026	   5.568
     51.7211	   5.000	   6.988	-225.988	   5.561
     51.7545	   7.000	   6.953	-223.953	   5.554
     51.7879	  10.000	   6.919	-220.919	   5.547
     51.8214	   7.000	   7.157	-224.157	   5.540
     51.8548	   2.000	   7.132	-229.132	   5.533
     51.8882	   9.000	   7.110	-222.110	   5.526
     51.9216	   6.000	   7.088	-225.088	   5.519
     51.9551	  15.000	   7.202	-216.202	   5.512
     51.9885	   4.000	   7.187	-227.187	   5.505
     52.0219	  12.000	   7.173	-219.173	   5.498
     52.0553	   7.000	   7.160	-224.160	   5.491
     52.0887	   7.000	   7.149	-224.149	   5.484
     52.1222	   6.000	   7.139	-225.139	   5.477
     52.1556	   6.000	   7.130	-225.130	   5.470
     52.1890	   9.000	   7.122	-222.122	   5.463
     52.2224	   8.000	   7.116	-223.116	   5.456
     52.2559	   9.000	   7.110	-222.110	   5.450
     52.2893	   8.000	   7.106	-223.106	   5.443
     52.3227	  12.000	   7.103	-219.103	   5.436
     52.3561	   8.000	   7.101	-223.101	   5.429
     52.3895	   7.000	   7.100	-224.100	   5.423
     52.4230	  10.000	   7.100	-221.100	   5.416
     52.4564	   8.000	   7.102	-223.102	   5.409
     52.4898	  16.000	   7.104	-215.104	   5.403
     52.5232	   9.000	   7.108	-222.108	   5.396
     52.5567	   9.000	   7.113	-222.113	   5.389
     52.5901	   8.000	   7.119	-223.119	   5.383
     52.6235	   7.000	   7.126	-224.126	   5.376
     52.6569	   5.000	   7.135	-226.135	   5.370
     52.6904	   8.000	   7.145	-223.145	   5.363
     52.7238	  13.000	   7.156	-218.156	   5.357
     52.7572	   8.000	   7.169	-223.169	   5.350
     52.7906	   7.000	   7.184	-224.184	   5.344
     52.8240	  12.000	   7.200	-219.199	   5.337
     52.8575	  12.000	   7.217	-219.217	   5.331
     52.8909	   8.000	   7.236	-223.236	   5.324
     52.9243	  12.000	   7.258	-219.258	   5.318
     52.9577	   6.000	   7.281	-225.281	   5.312
     52.9912	   5.000	   7.306	-226.306	   5.305
     53.0246	  21.000	   7.333	-210.333	   5.299
     53.0580	  10.000	   7.363	-221.363	   5.293
     53.0914	  10.000	   7.395	-221.395	   5.286
     53.1248	  10.000	   7.430	-221.430	   5.280
     53.1583	   9.000	   7.357	-222.357	   5.274
     53.1917	  17.000	   7.401	-214.401	   5.268
     53.2251	   5.000	   7.447	-226.447	   5.261
     53.2585	   6.000	   7.497	-225.497	   5.255
     53.2920	  14.000	   7.496	-217.496	   5.249
     53.3254	   9.000	   7.555	-222.555	   5.243
     53.3588	   9.000	   7.618	-222.618	   5.237
     53.3922	  13.000	   7.687	-218.687	   5.231
     53.4257	   8.000	   7.760	-223.760	   5.225
     53.4591	  15.000	   7.840	-216.840	   5.219
     53.4925	   7.000	   7.926	-224.926	   5.213
     53.5259	  19.000	   8.019	-213.019	   5.207
     53.5593	  22.000	   8.119	-210.119	   5.201
     53.5928	  16.000	   8.229	-216.229	   5.195
     53.6262	  12.000	   8.347	-220.348	   5.189
     53.6596	   8.000	   8.477	-224.477	   5.183
     53.6930	  10.000	   8.618	-222.618	   5.177
     53.7264	   6.000	   8.773	-226.773	   5.171
     53.7599	  15.000	   8.943	-217.943	   5.165
     53.7933	  12.000	   9.129	-221.129	   5.159
     53.8267	  10.000	   9.335	-223.335	   5.153
     53.8601	  10.000	   9.562	-223.562	   5.147
     53.8936	  14.000	   9.814	-219.814	   5.142
     53.9270	  21.000	  10.095	-213.095	   5.136
     53.9604	   7.000	  10.408	-227.408	   5.130
     53.9938	  20.000	  10.759	-214.759	   5.124
     54.0273	  10.000	  11.155	-225.155	   5.118
     54.0607	  12.000	  11.604	-223.604	   5.113
     54.0941	  18.000	  12.113	-218.113	   5.107
     54.1275	  10.000	  12.694	-226.694	   5.101
     54.1609	  15.000	  13.362	-222.362	   5.096
     54.1944	  25.000	  14.135	-213.135	   5.090
     54.2278	  25.000	  15.038	-214.038	   5.084
     54.2612	  30.000	  16.097	-210.097	   5.079
     54.2946	  26.000	  17.352	-215.352	   5.073
     54.3281	  25.000	  18.855	-217.855	   5.068
     54.3615	  20.000	  20.676	-224.676	   5.062
     54.3949	  30.000	  22.908	-216.908	   5.057
     54.4283	  37.000	  25.684	-212.684	   5.051
     54.4617	  37.000	  29.200	-216.200	   5.045
     54.4952	  41.000	  33.756	-216.756	   5.040
     54.5286	  56.000	  39.883	-207.883	   5.035
     54.5620	  69.000	  48.640	-203.640	   5.029
     54.5954	  79.000	  62.292	-207.292	   5.024
     54.6289	  98.000	  85.322	-211.322	   5.018
     54.6623	 124.000	 125.004	-225.004	   5.013
     54.6957	 187.000	 190.058	-227.058	   5.007
     54.7291	 267.000	 285.705	-242.705	   5.002
     54.7626	 442.000	 403.053	-185.053	   4.997
     54.7960	 616.000	 500.955	-108.955	   4.991
     54.8294	 616.000	 518.904	-126.904	   4.986
     54.8628	 495.000	 467.543	-196.543	   4.981
     54.8962	 429.000	 411.597	-206.597	   4.975
     54.9297	 410.000	 374.950	-188.950	   4.970
     54.9631	 344.000	 332.835	-212.835	   4.965
     54.9965	 279.000	 265.376	-210.376	   4.960
     55.0299	 198.000	 192.113	-218.113	   4.955
     55.0634	 144.000	 132.753	-212.753	   4.949
     55.0968	  88.000	  91.547	-227.547	   4.944
     55.1302	  67.000	  65.464	-222.464	   4.939
     55.1636	  53.000	  49.641	-220.641	   4.934
     55.1970	  41.000	  39.854	-222.854	   4.929
     55.2305	  37.000	  33.368	-220.368	   4.924
     55.2639	  24.000	  28.726	-228.726	   4.918
     55.2973	  25.000	  25.216	-224.216	   4.913
     55.3307	  24.000	  22.461	-222.461	   4.908
     55.3642	  25.000	  20.273	-219.273	   4.903
     55.3976	  16.000	  18.476	-226.476	   4.898
     55.4310	  25.000	  16.992	-215.992	   4.893
     55.4644	  18.000	  15.756	-221.756	   4.888
     55.4978	  21.000	  14.719	-217.719	   4.883
     55.5313	  12.000	  13.828	-225.828	   4.878
     55.5647	  14.000	  13.062	-223.062	   4.873
     55.5981	   9.000	  12.400	-227.400	   4.868
     55.6315	  21.000	  11.822	-214.822	   4.863
     55.6650	   7.000	  11.316	-228.316	   4.859
     55.6984	  12.000	  10.869	-222.869	   4.854
     55.7318	   8.000	  10.473	-226.473	   4.849
     55.7652	  16.000	  10.121	-218.121	   4.844
     55.7986	  16.000	   9.805	-217.805	   4.839
     55.8321	   8.000	   9.522	-225.522	   4.834
     55.8655	  14.000	   9.267	-219.267	   4.829
     55.8989	   7.000	   9.036	-226.036	   4.825
     55.9323	  10.000	   8.826	-222.826	   4.820
     55.9658	   8.000	   8.635	-224.635	   4.815
     55.9992	  12.000	   8.461	-220.461	   4.810
     56.0326	   8.000	   8.302	-224.302	   4.806
     56.0660	  12.000	   8.156	-220.156	   4.801
     56.0994	   7.000	   8.022	-225.022	   4.796
     56.1329	  16.000	   7.899	-215.899	   4.791
     56.1663	  17.000	   7.785	-214.785	   4.787
     56.1997	   6.000	   7.680	-225.680	   4.782
     56.2331	   9.000	   7.583	-222.583	   4.777
     56.2666	  12.000	   7.494	-219.494	   4.773
     56.3000	  10.000	   7.411	-221.411	   4.768
     56.3334	   5.000	   7.335	-226.335	   4.764
     56.3668	   8.000	   7.264	-223.264	   4.759
     56.4003	   8.000	   7.200	-223.200	   4.754
     56.4337	   7.000	   7.140	-224.140	   4.750
     56.4671	   9.000	   7.086	-222.086	   4.745
     56.5005	  10.000	   7.037	-221.037	   4.741
     56.5339	   9.000	   6.993	-221.993	   4.736
     56.5674	   8.000	   6.955	-222.955	   4.732
     56.6008	   6.000	   6.922	-224.922	   4.727
     56.6342	   6.000	   6.895	-224.895	   4.723
     56.6676	   1.000	   6.875	-229.875	   4.718
     56.7011	  17.000	   6.864	-213.864	   4.714
     56.7345	   9.000	   6.863	-221.863	   4.709
     56.7679	  12.000	   6.876	-218.876	   4.705
     56.8013	   6.000	   6.909	-224.909	   4.700
     56.8347	   9.000	   6.977	-221.977	   4.696
     56.8682	   5.000	   7.108	-226.108	   4.692
     56.9016	   4.000	   7.352	-227.352	   4.687
     56.9350	  13.000	   7.778	-218.778	   4.683
     56.9684	  12.000	   8.450	-220.450	   4.679
     57.0019	  12.000	   9.366	-221.366	   4.674
     57.0353	  17.000	  10.339	-217.339	   4.670
     57.0687	  10.000	  10.883	-224.883	   4.666
     57.1021	  14.000	  10.677	-220.677	   4.661
     57.1356	  14.000	  10.128	-220.128	   4.657
     57.1690	   8.000	   9.702	-225.702	   4.653
     57.2024	  17.000	   9.426	-216.426	   4.649
     57.2358	   7.000	   9.028	-226.028	   4.644
     57.2692	   6.000	   8.422	-226.422	   4.640
     57.3027	   7.000	   7.809	-224.809	   4.636
     57.3361	   4.000	   7.327	-227.327	   4.632
     57.3695	   6.000	   6.996	-224.996	   4.628
     57.4029	   4.000	   6.788	-226.788	   4.623
     57.4364	  14.000	   6.664	-216.664	   4.619
     57.4698	  10.000	   6.590	-220.590	   4.615
     57.5032	  10.000	   6.546	-220.546	   4.611
     57.5366	   6.000	   6.521	-224.521	   4.607
     57.5700	   7.000	   6.510	-223.510	   4.603
     57.6035	  10.000	   6.510	-220.510	   4.599
     57.6369	   9.000	   6.521	-221.521	   4.594
     57.6703	   3.000	   6.541	-227.541	   4.590
     57.7037	   8.000	   6.573	-222.573	   4.586
     57.7372	   9.000	   6.616	-221.616	   4.582
     57.7706	   9.000	   6.673	-221.673	   4.578
     57.8040	  10.000	   6.745	-220.745	   4.574
     57.8374	   8.000	   6.572	-222.572	   4.570
     57.8708	   4.000	   6.691	-226.691	   4.566
     57.9043	   9.000	   6.838	-221.838	   4.562
     57.9377	   3.000	   7.021	-228.021	   4.558
     57.9711	  15.000	   7.121	-216.121	   4.554
     58.0045	  10.000	   7.419	-221.419	   4.550
     58.0380	  12.000	   7.810	-219.810	   4.546
     58.0714	  17.000	   8.343	-215.343	   4.542
     58.1048	  14.000	   9.114	-219.114	   4.539
     58.1382	  20.000	  10.312	-214.312	   4.535
     58.1716	  12.000	  12.272	-224.272	   4.531
     58.2051	   9.000	  15.493	-230.493	   4.527
     58.2385	  27.000	  20.528	-217.528	   4.523
     58.2719	  40.000	  27.624	-211.624	   4.519
     58.3053	  37.000	  36.011	-223.011	   4.515
     58.3388	  57.000	  43.386	-210.386	   4.511
     58.3722	  62.000	  46.623	-208.623	   4.508
     58.4056	  44.000	  44.412	-224.412	   4.504
     58.4390	  38.000	  39.901	-225.901	   4.500
     58.4725	  42.000	  36.217	-218.217	   4.496
     58.5059	  27.000	  33.344	-230.344	   4.492
     58.5393	  39.000	  29.627	-214.627	   4.489
     58.5727	  24.000	  24.415	-224.415	   4.485
     58.6061	  27.000	  19.107	-216.107	   4.481
     58.6396	  15.000	  14.875	-223.875	   4.477
     58.6730	  10.000	  11.920	-225.920	   4.474
     58.7064	  14.000	  10.012	-220.012	   4.470
     58.7398	  13.000	   8.817	-219.817	   4.466
     58.7733	   7.000	   8.055	-225.055	   4.462
     58.8067	  13.000	   7.537	-218.537	   4.459
     58.8401	   6.000	   7.161	-225.161	   4.455
     58.8735	   6.000	   6.873	-224.873	   4.451
     58.9069	   8.000	   6.645	-222.645	   4.448
     58.9404	   9.000	   6.461	-221.461	   4.444
     58.9738	  13.000	   6.309	-217.309	   4.441
     59.0072	  12.000	   6.183	-218.183	   4.437
     59.0406	   5.000	   6.076	-225.076	   4.433
     59.0741	   5.000	   5.985	-224.985	   4.430
     59.1075	   8.000	   5.906	-221.906	   4.426
     59.1409	  10.000	   5.838	-219.838	   4.423
     59.1743	   5.000	   5.779	-224.779	   4.419
     59.2077	   7.000	   5.726	-222.726	   4.415
     59.2412	  10.000	   5.680	-219.680	   4.412
     59.2746	  12.000	   5.638	-217.638	   4.408
     59.3080	   8.000	   5.601	-221.601	   4.405
     59.3414	   9.000	   5.567	-220.567	   4.401
     59.3749	  10.000	   5.536	-219.536	   4.398
     59.4083	   6.000	   5.509	-223.509	   4.394
     59.4417	   9.000	   5.483	-220.483	   4.391
     59.4751	   4.000	   5.460	-225.460	   4.387
     59.5086	  14.000	   5.438	-215.438	   4.384
     59.5420	  12.000	   5.418	-217.418	   4.380
     59.5754	   7.000	   5.400	-222.400	   4.377
     59.6088	  10.000	   5.382	-219.382	   4.373
     59.6422	  13.000	   5.366	-216.366	   4.370
     59.6757	   7.000	   5.351	-222.351	   4.367
     59.7091	   9.000	   5.337	-220.337	   4.363
     59.7425	  16.000	   5.323	-213.323	   4.360
     59.7759	   9.000	   5.311	-220.311	   4.356
     59.8093	   7.000	   5.299	-222.299	   4.353
     59.8428	   8.000	   5.287	-221.287	   4.350
     59.8762	   8.000	   5.276	-221.276	   4.346
     59.9096	   4.000	   5.266	-225.266	   4.343
     59.9430	   7.000	   5.256	-222.256	   4.339
     59.9765	   7.000	   5.246	-222.246	   4.336
     60.0099	  10.000	   5.237	-219.237	   4.333
     60.0433	   8.000	   5.229	-221.229	   4.329
     60.0767	  10.000	   5.220	-219.220	   4.326
     60.1102	   7.000	   5.210	-222.210	   4.323
     60.1436	   9.000	   5.202	-220.202	   4.320
     60.1770	   5.000	   5.194	-224.194	   4.316
     60.2104	   6.000	   5.187	-223.187	   4.313
     60.2438	  17.000	   5.180	-212.180	   4.310
     60.2773	   7.000	   5.172	-222.172	   4.306
     60.3107	   4.000	   5.166	-225.166	   4.303
     60.3441	   8.000	   5.159	-221.159	   4.300
     60.3775	   8.000	   5.254	-221.254	   4.297
     60.4110	   6.000	   5.251	-223.251	   4.293
     60.4444	   5.000	   5.247	-224.247	   4.290
     60.4778	   9.000	   5.244	-220.244	   4.287
     60.5112	   3.000	   5.240	-226.240	   4.284
     60.5446	   5.000	   5.288	-224.288	   4.281
     60.5781	  13.000	   5.286	-216.286	   4.277
     60.6115	  14.000	   5.285	-215.285	   4.274
     60.6449	   7.000	   5.284	-222.284	   4.271
     60.6783	   6.000	   5.283	-223.283	   4.268
     60.7118	  15.000	   5.282	-214.282	   4.265
     60.7452	   8.000	   5.282	-221.282	   4.262
     60.7786	   6.000	   5.282	-223.282	   4.258
     60.8120	   9.000	   5.282	-220.282	   4.255
     60.8455	   4.000	   5.282	-225.282	   4.252
     60.8789	   6.000	   5.283	-223.283	   4.249
     60.9123	  13.000	   5.284	-216.284	   4.246
     60.9457	   9.000	   5.285	-220.285	   4.243
     60.9791	   6.000	   5.286	-223.286	   4.240
     61.0126	   7.000	   5.288	-222.288	   4.237
     61.0460	   8.000	   5.290	-221.290	   4.234
     61.0794	  12.000	   5.293	-217.293	   4.230
     61.1128	  10.000	   5.295	-219.295	   4.227
     61.1463	   5.000	   5.298	-224.298	   4.224
     61.1797	  14.000	   5.302	-215.302	   4.221
     61.2131	   9.000	   5.306	-220.306	   4.218
     61.2465	   8.000	   5.310	-221.310	   4.215
     61.2799	   6.000	   5.315	-223.315	   4.212
     61.3134	   4.000	   5.320	-225.320	   4.209
     61.3468	   8.000	   5.325	-221.325	   4.206
     61.3802	   5.000	   5.326	-224.326	   4.203
     61.4136	   4.000	   5.314	-225.314	   4.200
     61.4471	   9.000	   5.322	-220.322	   4.197
     61.4805	   5.000	   5.330	-224.330	   4.194
     61.5139	   8.000	   5.337	-221.337	   4.191
     61.5473	   6.000	   5.346	-223.346	   4.188
     61.5807	   9.000	   5.347	-220.347	   4.185
     61.6142	  10.000	   5.358	-219.358	   4.182
     61.6476	   2.000	   5.370	-227.370	   4.179
     61.6810	   8.000	   5.383	-221.383	   4.176
     61.7144	   9.000	   5.397	-220.397	   4.173
     61.7479	   9.000	   5.412	-220.412	   4.170
     61.7813	   5.000	   5.428	-224.428	   4.168
     61.8147	  15.000	   5.444	-214.444	   4.165
     61.8481	   4.000	   5.463	-225.463	   4.162
     61.8816	   8.000	   5.482	-221.482	   4.159
     61.9150	   9.000	   5.503	-220.503	   4.156
     61.9484	   3.000	   5.526	-226.526	   4.153
     61.9818	   9.000	   5.550	-220.550	   4.150
     62.0152	   4.000	   5.710	-225.710	   4.147
     62.0487	   4.000	   5.741	-225.741	   4.144
     62.0821	   6.000	   5.775	-223.775	   4.142
     62.1155	  10.000	   5.811	-219.811	   4.139
     62.1489	   6.000	   5.850	-223.850	   4.136
     62.1824	   5.000	   5.958	-224.958	   4.133
     62.2158	   5.000	   6.005	-225.005	   4.130
     62.2492	   6.000	   6.056	-224.056	   4.127
     62.2826	   1.000	   6.112	-229.112	   4.124
     62.3160	  12.000	   6.172	-218.172	   4.122
     62.3495	   6.000	   6.237	-224.237	   4.119
     62.3829	   9.000	   6.309	-221.309	   4.116
     62.4163	   8.000	   6.388	-222.388	   4.113
     62.4497	   8.000	   6.474	-222.474	   4.110
     62.4832	   8.000	   6.569	-222.569	   4.108
     62.5166	   6.000	   6.673	-224.673	   4.105
     62.5500	   8.000	   6.790	-222.790	   4.102
     62.5834	   4.000	   6.919	-226.919	   4.099
     62.6168	  13.000	   7.063	-218.063	   4.096
     62.6503	  10.000	   7.225	-221.225	   4.094
     62.6837	  18.000	   7.408	-213.408	   4.091
     62.7171	  18.000	   7.615	-213.615	   4.088
     62.7505	   7.000	   7.851	-224.851	   4.085
     62.7840	  13.000	   8.121	-219.121	   4.083
     62.8174	  15.000	   8.433	-217.433	   4.080
     62.8508	  10.000	   8.795	-222.795	   4.077
     62.8842	  15.000	   9.220	-218.220	   4.074
     62.9176	  13.000	   9.722	-220.722	   4.072
     62.9511	  10.000	  10.322	-224.322	   4.069
     62.9845	   8.000	  11.047	-227.047	   4.066
     63.0179	  12.000	  11.933	-223.933	   4.064
     63.0513	  18.000	  13.036	-219.036	   4.061
     63.0848	  19.000	  14.435	-219.435	   4.058
     63.1182	  25.000	  16.261	-215.261	   4.055
     63.1516	  16.000	  18.762	-226.762	   4.053
     63.1850	  19.000	  22.420	-227.420	   4.050
     63.2185	  33.000	  28.138	-219.138	   4.047
     63.2519	  31.000	  37.417	-230.417	   4.045
     63.2853	  60.000	  52.240	-216.240	   4.042
     63.3187	  73.000	  74.457	-225.457	   4.039
     63.3521	 100.000	 104.330	-228.330	   4.037
     63.3856	 135.000	 137.372	-226.372	   4.034
     63.4190	 151.000	 160.340	-233.340	   4.031
     63.4524	 183.000	 159.631	-200.631	   4.029
     63.4858	 126.000	 142.114	-240.114	   4.026
     63.5193	 121.000	 124.899	-227.899	   4.023
     63.5527	 124.000	 115.374	-215.374	   4.021
     63.5861	 112.000	 109.465	-221.465	   4.018
     63.6195	  99.000	  97.921	-222.921	   4.016
     63.6529	  78.000	  79.195	-225.195	   4.013
     63.6864	  55.000	  59.770	-228.770	   4.010
     63.7198	  39.000	  44.017	-229.017	   4.008
     63.7532	  30.000	  32.777	-226.777	   4.005
     63.7866	  29.000	  25.337	-220.337	   4.003
     63.8201	  18.000	  20.596	-226.596	   4.000
     63.8535	  22.000	  17.548	-219.548	   3.997
     63.8869	  13.000	  15.495	-226.495	   3.995
     63.9203	  15.000	  14.030	-223.030	   3.992
     63.9538	  18.000	  12.933	-218.933	   3.990
     63.9872	  17.000	  12.090	-219.090	   3.987
     64.0206	  15.000	  11.432	-220.432	   3.984
     64.0540	   6.000	  10.914	-228.914	   3.982
     64.0874	  13.000	  10.510	-221.510	   3.979
     64.1209	  17.000	  10.197	-217.197	   3.977
     64.1543	  14.000	   9.961	-219.961	   3.974
     64.1877	   7.000	   9.790	-226.790	   3.972
     64.2211	  17.000	   9.678	-216.678	   3.969
     64.2545	  14.000	   9.620	-219.620	   3.967
     64.2880	  14.000	   9.612	-219.612	   3.964
     64.3214	   8.000	   9.653	-225.653	   3.961
     64.3548	  12.000	   9.745	-221.745	   3.959
     64.3882	   6.000	   9.889	-227.889	   3.956
     64.4217	  10.000	  10.090	-224.090	   3.954
     64.4551	  15.000	  10.354	-219.354	   3.951
     64.4885	  18.000	  10.690	-216.690	   3.949
     64.5219	  10.000	  11.111	-225.111	   3.946
     64.5554	  12.000	  11.634	-223.634	   3.944
     64.5888	  16.000	  12.280	-220.280	   3.941
     64.6222	  29.000	  13.080	-208.080	   3.939
     64.6556	  19.000	  14.078	-219.078	   3.936
     64.6890	  15.000	  15.332	-224.332	   3.934
     64.7225	  20.000	  16.933	-220.933	   3.931
     64.7559	  13.000	  19.020	-230.020	   3.929
     64.7893	  28.000	  21.849	-217.849	   3.926
     64.8227	  16.000	  25.907	-233.907	   3.924
     64.8562	  46.000	  32.122	-210.122	   3.921
     64.8896	  43.000	  42.075	-223.075	   3.919
     64.9230	  46.000	  58.011	-236.011	   3.916
     64.9564	  87.000	  82.347	-219.347	   3.914
     64.9898	 101.000	 116.337	-239.337	   3.911
     65.0233	 151.000	 157.271	-230.271	   3.909
     65.0567	 211.000	 193.178	-206.178	   3.906
     65.0901	 193.000	 204.445	-235.445	   3.904
     65.1235	 144.000	 188.086	-268.086	   3.902
     65.1570	 148.000	 163.883	-239.883	   3.899
     65.1904	 116.000	 147.334	-255.334	   3.897
     65.2238	 131.000	 139.637	-232.637	   3.894
     65.2572	 126.000	 131.052	-229.052	   3.892
     65.2906	 114.000	 112.563	-222.563	   3.889
     65.3241	  86.000	  87.991	-225.991	   3.887
     65.3575	  83.000	  65.277	-206.277	   3.884
     65.3909	  52.000	  47.784	-219.784	   3.882
     65.4243	  31.000	  35.581	-228.581	   3.880
     65.4578	  31.000	  27.553	-220.553	   3.877
     65.4912	  20.000	  22.368	-226.368	   3.875
     65.5246	  21.000	  18.931	-221.931	   3.872
     65.5580	  15.000	  16.524	-225.524	   3.870
     65.5915	  17.000	  14.737	-221.737	   3.867
     65.6249	  13.000	  13.352	-224.352	   3.865
     65.6583	  14.000	  12.244	-222.244	   3.863
     65.6917	   8.000	  11.341	-227.341	   3.860
     65.7251	   8.000	  10.594	-226.594	   3.858
     65.7586	  12.000	   9.968	-221.968	   3.855
     65.7920	   7.000	   9.439	-226.439	   3.853
     65.8254	  10.000	   8.986	-222.986	   3.851
     65.8588	  13.000	   8.597	-219.597	   3.848
     65.8923	   9.000	   8.258	-223.258	   3.846
     65.9257	  15.000	   7.963	-216.963	   3.843
     65.9591	   5.000	   7.703	-226.703	   3.841
     65.9925	   7.000	   7.473	-224.473	   3.839
     66.0259	  13.000	   7.268	-218.268	   3.836
     66.0594	  12.000	   7.086	-219.086	   3.834
     66.0928	  10.000	   6.922	-220.922	   3.831
     66.1262	   6.000	   6.775	-224.775	   3.829
     66.1596	   9.000	   6.641	-221.641	   3.827
     66.1931	   9.000	   6.520	-221.520	   3.824
     66.2265	   9.000	   6.410	-221.410	   3.822
     66.2599	  15.000	   6.310	-215.310	   3.820
     66.2933	   6.000	   6.219	-224.219	   3.817
     66.3267	   9.000	   6.135	-221.135	   3.815
     66.3602	   4.000	   6.058	-226.058	   3.812
     66.3936	  10.000	   5.988	-219.988	   3.810
     66.4270	   6.000	   5.923	-223.923	   3.808
     66.4604	   4.000	   5.864	-225.864	   3.805
     66.4939	  13.000	   5.810	-216.810	   3.803
     66.5273	   4.000	   5.662	-225.662	   3.801
     66.5607	   8.000	   5.619	-221.619	   3.798
     66.5941	   9.000	   5.581	-220.581	   3.796
     66.6275	   6.000	   5.547	-223.547	   3.794
     66.6610	   5.000	   5.518	-224.518	   3.791
     66.6944	  13.000	   5.446	-216.446	   3.789
     66.7278	   5.000	   5.429	-224.429	   3.787
     66.7612	   5.000	   5.421	-224.421	   3.784
     66.7947	   6.000	   5.423	-223.423	   3.782
     66.8281	   9.000	   5.442	-220.442	   3.780
     66.8615	   8.000	   5.489	-221.489	   3.777
     66.8949	   6.000	   5.582	-223.582	   3.775
     66.9284	  12.000	   5.742	-217.742	   3.773
     66.9618	   9.000	   5.991	-220.991	   3.770
     66.9952	   5.000	   6.332	-225.332	   3.768
     67.0286	   7.000	   6.715	-223.715	   3.766
     67.0620	   6.000	   6.991	-224.991	   3.763
     67.0955	  10.000	   6.991	-220.991	   3.761
     67.1289	   3.000	   6.764	-227.764	   3.759
     67.1623	   4.000	   6.514	-226.514	   3.756
     67.1957	   8.000	   6.356	-222.356	   3.754
     67.2292	   6.000	   6.279	-224.279	   3.752
     67.2626	  10.000	   6.180	-220.180	   3.749
     67.2960	   6.000	   5.982	-223.982	   3.747
     67.3294	   7.000	   5.727	-222.727	   3.745
     67.3628	   7.000	   5.493	-222.493	   3.742
     67.3963	   5.000	   5.309	-224.309	   3.740
     67.4297	   4.000	   5.176	-225.176	   3.738
     67.4631	   5.000	   5.085	-224.085	   3.735
     67.4965	   3.000	   5.021	-226.021	   3.733
     67.5300	   5.000	   4.974	-223.974	   3.731
     67.5634	  12.000	   4.939	-216.939	   3.728
     67.5968	   6.000	   4.910	-222.910	   3.726
     67.6302	   8.000	   4.885	-220.885	   3.724
     67.6637	  12.000	   4.864	-216.864	   3.721
     67.6971	   6.000	   4.845	-222.845	   3.719
     67.7305	   6.000	   4.828	-222.828	   3.717
     67.7639	   4.000	   4.812	-224.812	   3.714
     67.7973	   3.000	   4.798	-225.798	   3.712
     67.8308	   4.000	   4.784	-224.784	   3.710
     67.8642	   4.000	   4.772	-224.772	   3.708
     67.8976	   1.000	   4.760	-227.760	   3.705
     67.9310	   2.000	   4.749	-226.749	   3.703
     67.9645	   5.000	   4.738	-223.738	   3.701
     67.9979	   4.000	   4.728	-224.728	   3.698
     68.0313	   4.000	   4.719	-224.719	   3.696
     68.0647	   9.000	   4.709	-219.709	   3.694
     68.0981	   7.000	   4.700	-221.701	   3.691
     68.1316	   6.000	   4.692	-222.692	   3.689
     68.1650	   8.000	   4.684	-220.684	   3.687
     68.1984	   5.000	   4.547	-223.547	   3.684
     68.2318	   4.000	   4.542	-224.542	   3.682
     68.2653	  10.000	   4.537	-218.537	   3.680
     68.2987	   6.000	   4.533	-222.533	   3.678
     68.3321	   6.000	   4.528	-222.528	   3.675
     68.3655	   3.000	   4.459	-225.459	   3.673
     68.3989	   9.000	   4.456	-219.456	   3.671
     68.4324	   5.000	   4.453	-223.453	   3.668
     68.4658	   7.000	   4.451	-221.451	   3.666
     68.4992	   3.000	   4.448	-225.448	   3.664
     68.5326	   5.000	   4.445	-223.445	   3.662
     68.5661	   3.000	   4.442	-225.442	   3.659
     68.5995	   3.000	   4.440	-225.440	   3.657
     68.6329	   9.000	   4.437	-219.437	   3.655
     68.6663	   5.000	   4.435	-223.435	   3.652
     68.6997	   1.000	   4.432	-227.432	   3.650
     68.7332	   7.000	   4.429	-221.430	   3.648
     68.7666	   4.000	   4.427	-224.427	   3.645
     68.8000	   6.000	   4.425	-222.425	   3.643
     68.8334	   9.000	   4.422	-219.422	   3.641
     68.8669	   8.000	   4.420	-220.420	   3.639
     68.9003	   2.000	   4.417	-226.417	   3.636
     68.9337	   5.000	   4.415	-223.415	   3.634
     68.9671	   4.000	   4.413	-224.413	   3.632
     69.0005	   5.000	   4.410	-223.410	   3.629
     69.0340	   6.000	   4.408	-222.408	   3.627
     69.0674	  12.000	   4.406	-216.406	   3.625
     69.1008	   3.000	   4.404	-225.404	   3.623
     69.1342	   8.000	   4.401	-220.401	   3.620
     69.1677	   5.000	   4.399	-223.399	   3.618
     69.2011	   8.000	   4.397	-220.397	   3.616
     69.2345	   7.000	   4.395	-221.395	   3.613
     69.2679	   4.000	   4.393	-224.393	   3.611
     69.3014	   3.000	   4.391	-225.391	   3.609
     69.3348	   6.000	   4.389	-222.389	   3.606
     69.3682	   5.000	   4.387	-223.387	   3.604
     69.4016	   3.000	   4.385	-225.385	   3.602
     69.4350	   4.000	   4.383	-224.383	   3.600
     69.4685	   4.000	   4.381	-224.381	   3.597
     69.5019	   2.000	   4.379	-226.379	   3.595
     69.5353	   2.000	   4.377	-226.377	   3.593
     69.5687	   9.000	   4.375	-219.375	   3.590
     69.6022	   4.000	   4.374	-224.374	   3.588
     69.6356	   4.000	   4.372	-224.372	   3.586
     69.6690	   4.000	   4.371	-224.371	   3.584
     69.7024	   6.000	   4.369	-222.369	   3.581
     69.7358	   4.000	   4.422	-224.422	   3.579
     69.7693	   5.000	   4.422	-223.422	   3.577
     69.8027	  10.000	   4.423	-218.423	   3.574
     69.8361	   6.000	   4.423	-222.423	   3.572
     69.8695	   8.000	   4.424	-220.424	   3.570
     69.9030	   7.000	   4.425	-221.425	   3.568
     69.9364	   4.000	   4.453	-224.453	   3.565
     69.9698	   5.000	   4.455	-223.455	   3.563
     70.0032	   3.000	   4.458	-225.458	   3.561
     70.0367	   3.000	   4.461	-225.461	   3.558
     70.0701	   5.000	   4.465	-223.465	   3.556
     70.1035	   5.000	   4.470	-223.470	   3.554
     70.1369	   3.000	   4.486	-225.486	   3.551
     70.1703	   3.000	   4.494	-225.494	   3.549
     70.2038	   6.000	   4.502	-222.502	   3.547
     70.2372	   5.000	   4.513	-223.513	   3.545
     70.2706	   3.000	   4.528	-225.528	   3.542
     70.3040	   5.000	   4.548	-223.548	   3.540
     70.3374	   5.000	   4.581	-223.581	   3.538
     70.3709	   1.000	   4.622	-227.622	   3.535
     70.4043	   7.000	   4.685	-221.685	   3.533
     70.4377	   2.000	   4.782	-226.782	   3.531
     70.4711	   5.000	   4.926	-223.926	   3.528
     70.5046	   7.000	   5.124	-222.124	   3.526
     70.5380	   8.000	   5.363	-221.363	   3.524
     70.5714	   7.000	   5.588	-222.588	   3.522
     70.6048	   9.000	   5.690	-220.690	   3.519
     70.6383	   2.000	   5.624	-227.624	   3.517
     70.6717	   6.000	   5.477	-223.477	   3.515
     70.7051	   6.000	   5.354	-223.354	   3.512
     70.7385	   6.000	   5.294	-223.294	   3.510
     70.7719	   6.000	   5.273	-223.273	   3.508
     70.8054	   9.000	   5.229	-220.229	   3.505
     70.8388	  10.000	   5.122	-219.122	   3.503
     70.8722	   8.000	   4.985	-220.985	   3.501
     70.9056	   0.000	   4.859	-228.859	   3.498
     70.9391	   3.000	   4.762	-225.762	   3.496
     70.9725	   4.000	   4.694	-224.694	   3.494
     71.0059	   8.000	   4.650	-220.650	   3.492
     71.0393	   5.000	   4.623	-223.623	   3.489
     71.0727	   9.000	   4.608	-219.608	   3.487
     71.1062	   5.000	   4.599	-223.599	   3.485
     71.1396	   4.000	   4.594	-224.594	   3.482
     71.1730	   3.000	   4.593	-225.593	   3.480
     71.2064	   6.000	   4.594	-222.594	   3.478
     71.2399	   3.000	   4.597	-225.597	   3.475
     71.2733	   6.000	   4.602	-222.602	   3.473
     71.3067	   4.000	   4.608	-224.608	   3.471
     71.3401	   6.000	   4.616	-222.616	   3.468
     71.3736	   2.000	   4.625	-226.625	   3.466
     71.4070	   4.000	   4.636	-224.636	   3.464
     71.4404	   5.000	   4.648	-223.648	   3.461
     71.4738	   7.000	   4.661	-221.661	   3.459
     71.5072	   5.000	   4.675	-223.675	   3.457
     71.5407	   7.000	   4.691	-221.691	   3.454
     71.5741	   4.000	   4.709	-224.709	   3.452
     71.6075	   6.000	   4.728	-222.728	   3.450
     71.6409	   5.000	   4.750	-223.750	   3.447
     71.6744	   4.000	   4.773	-224.773	   3.445
     71.7078	  10.000	   4.799	-218.799	   3.443
     71.7412	   7.000	   4.826	-221.826	   3.440
     71.7746	   7.000	   4.857	-221.857	   3.438
     71.8080	   6.000	   4.891	-222.891	   3.436
     71.8415	  15.000	   4.928	-213.928	   3.433
     71.8749	   2.000	   4.968	-226.968	   3.431
     71.9083	   3.000	   5.013	-226.013	   3.429
     71.9417	   5.000	   5.063	-224.063	   3.426
     71.9752	   6.000	   5.118	-223.118	   3.424
     72.0086	   5.000	   5.179	-224.179	   3.422
     72.0420	   7.000	   5.247	-222.247	   3.419
     72.0754	   4.000	   5.323	-225.323	   3.417
     72.1088	   3.000	   5.409	-226.409	   3.415
     72.1423	   6.000	   5.505	-223.505	   3.412
     72.1757	   8.000	   5.615	-221.615	   3.410
     72.2091	   4.000	   5.739	-225.739	   3.408
     72.2425	   7.000	   5.882	-222.882	   3.405
     72.2760	   9.000	   6.046	-221.046	   3.403
     72.3094	  13.000	   6.236	-217.236	   3.401
     72.3428	   9.000	   6.457	-221.457	   3.398
     72.3762	   5.000	   6.719	-225.719	   3.396
     72.4097	   9.000	   7.029	-222.029	   3.394
     72.4431	  12.000	   7.401	-219.401	   3.391
     72.4765	  17.000	   7.853	-214.853	   3.389
     72.5099	  19.000	   8.410	-213.410	   3.387
     72.5433	  12.000	   9.110	-221.110	   3.384
     72.5768	  12.000	  10.015	-222.015	   3.382
     72.6102	  17.000	  11.238	-218.238	   3.379
     72.6436	  15.000	  12.978	-221.978	   3.377
     72.6770	  19.000	  15.575	-220.575	   3.375
     72.7104	  25.000	  19.542	-218.542	   3.372
     72.7439	  27.000	  25.532	-222.532	   3.370
     72.7773	  26.000	  34.165	-232.165	   3.368
     72.8107	  36.000	  45.654	-233.654	   3.365
     72.8441	  51.000	  58.960	-231.960	   3.363
     72.8776	  91.000	  70.405	-203.405	   3.361
     72.9110	  85.000	  74.286	-213.286	   3.358
     72.9444	  63.000	  69.342	-230.342	   3.356
     72.9778	  53.000	  60.993	-231.993	   3.353
     73.0113	  46.000	  54.496	-232.496	   3.351
     73.0447	  55.000	  51.593	-220.593	   3.349
     73.0781	  54.000	  51.043	-221.043	   3.346
     73.1115	  54.000	  49.587	-219.587	   3.344
     73.1449	  57.000	  45.080	-212.080	   3.342
     73.1784	  44.000	  39.026	-219.026	   3.339
     73.2118	  27.000	  33.851	-230.850	   3.337
     73.2452	  36.000	  30.456	-218.456	   3.334
     73.2786	  41.000	  28.273	-211.273	   3.332
     73.3121	  26.000	  25.994	-223.994	   3.330
     73.3455	  28.000	  23.043	-219.043	   3.327
     73.3789	  22.000	  20.098	-222.098	   3.325
     73.4123	  15.000	  17.888	-226.888	   3.323
     73.4457	  10.000	  16.575	-230.575	   3.320
     73.4792	  18.000	  15.842	-221.842	   3.318
     73.5126	  14.000	  15.021	-225.021	   3.315
     73.5460	   9.000	  13.647	-228.647	   3.313
     73.5794	  14.000	  11.968	-221.968	   3.311
     73.6129	  12.000	  10.356	-222.356	   3.308
     73.6463	  14.000	   9.045	-219.045	   3.306
     73.6797	  10.000	   8.058	-222.058	   3.303
     73.7131	   9.000	   7.342	-222.342	   3.301
     73.7466	  14.000	   6.827	-216.827	   3.299
     73.7800	   4.000	   6.450	-226.450	   3.296
     73.8134	  10.000	   6.179	-220.179	   3.294
     73.8468	   7.000	   5.953	-222.953	   3.291
     73.8802	  10.000	   5.768	-219.768	   3.289
     73.9137	   5.000	   5.613	-224.613	   3.287
     73.9471	  13.000	   5.480	-216.480	   3.284
     73.9805	   7.000	   5.365	-222.365	   3.282
     74.0139	   2.000	   5.265	-227.265	   3.279
     74.0474	   5.000	   5.177	-224.177	   3.277
     74.0808	   5.000	   5.100	-224.100	   3.275
     74.1142	   4.000	   5.030	-225.030	   3.272
     74.1476	   6.000	   4.968	-222.968	   3.270
     74.1810	   6.000	   4.913	-222.913	   3.267
     74.2145	   4.000	   4.862	-224.862	   3.265
     74.2479	   5.000	   4.817	-223.817	   3.262
     74.2813	   5.000	   4.775	-223.775	   3.260
     74.3147	  12.000	   4.737	-216.737	   3.258
     74.3482	   6.000	   4.703	-222.703	   3.255
     74.3816	   2.000	   4.671	-226.671	   3.253
     74.4150	   4.000	   4.642	-224.642	   3.250
     74.4484	   5.000	   4.615	-223.615	   3.248
     74.4818	   6.000	   4.590	-222.590	   3.245
     74.5153	   9.000	   4.567	-219.567	   3.243
     74.5487	   5.000	   4.546	-223.546	   3.241
     74.5821	   5.000	   4.527	-223.527	   3.238
     74.6155	   3.000	   4.509	-225.509	   3.236
     74.6490	   4.000	   4.492	-224.492	   3.233
     74.6824	  12.000	   4.476	-216.476	   3.231
     74.7158	   4.000	   4.462	-224.462	   3.228
     74.7492	   3.000	   4.449	-225.449	   3.226
     74.7826	   6.000	   4.436	-222.436	   3.224
     74.8161	   3.000	   4.425	-225.425	   3.221
     74.8495	   6.000	   4.415	-222.415	   3.219
     74.8829	   2.000	   4.405	-226.405	   3.216
     74.9163	   5.000	   4.397	-223.397	   3.214
     74.9498	   5.000	   4.389	-223.389	   3.211
     74.9832	   3.000	   4.382	-225.382	   3.209
     75.0166	   7.000	   4.376	-221.376	   3.207
     75.0500	   5.000	   4.370	-223.370	   3.204
     75.0835	  13.000	   4.365	-215.365	   3.202
     75.1169	   8.000	   4.361	-220.361	   3.199
     75.1503	   4.000	   4.358	-224.358	   3.197
     75.1837	   2.000	   4.356	-226.356	   3.194
     75.2171	   7.000	   4.354	-221.354	   3.192
     75.2506	   2.000	   4.353	-226.353	   3.189
     75.2840	  10.000	   4.353	-218.353	   3.187
     75.3174	   5.000	   4.353	-223.353	   3.184
     75.3508	   4.000	   4.355	-224.355	   3.182
     75.3843	   7.000	   4.357	-221.357	   3.180
     75.4177	   6.000	   4.361	-222.361	   3.177
     75.4511	   8.000	   4.365	-220.365	   3.175
     75.4845	   3.000	   4.371	-225.371	   3.172
     75.5179	   3.000	   4.377	-225.377	   3.170
     75.5514	   5.000	   4.385	-223.385	   3.167
     75.5848	   6.000	   4.395	-222.395	   3.165
     75.6182	   4.000	   4.405	-224.405	   3.162
     75.6516	   2.000	   4.418	-226.418	   3.160
     75.6851	   4.000	   4.432	-224.432	   3.157
     75.7185	   7.000	   4.449	-221.449	   3.155
     75.7519	   2.000	   4.468	-226.468	   3.152
     75.7853	   7.000	   4.512	-221.512	   3.150
     75.8187	   9.000	   4.537	-219.537	   3.148
     75.8522	  10.000	   4.565	-218.565	   3.145
     75.8856	   4.000	   4.597	-224.597	   3.143
     75.9190	   4.000	   4.634	-224.634	   3.140
     75.9524	   8.000	   4.676	-220.676	   3.138
     75.9859	   6.000	   4.724	-222.724	   3.135
     76.0193	   6.000	   4.792	-222.792	   3.133
     76.0527	  14.000	   4.858	-214.858	   3.130
     76.0861	   4.000	   4.882	-224.882	   3.128
     76.1196	   5.000	   4.978	-223.978	   3.125
     76.1530	   6.000	   5.096	-223.096	   3.123
     76.1864	   6.000	   5.247	-223.247	   3.120
     76.2198	   3.000	   5.440	-226.440	   3.118
     76.2532	  12.000	   5.689	-217.689	   3.115
     76.2867	   9.000	   6.001	-221.001	   3.113
     76.3201	  13.000	   6.344	-217.344	   3.110
     76.3535	  10.000	   6.736	-220.736	   3.108
     76.3869	   7.000	   7.083	-224.083	   3.105
     76.4204	   5.000	   7.365	-226.365	   3.103
     76.4538	   6.000	   7.666	-225.666	   3.100
     76.4872	  10.000	   8.110	-222.110	   3.098
     76.5206	  12.000	   8.803	-220.803	   3.095
     76.5540	  15.000	   9.892	-218.892	   3.093
     76.5875	  13.000	  11.534	-222.534	   3.090
     76.6209	   8.000	  13.961	-229.961	   3.088
     76.6543	  19.000	  17.467	-222.467	   3.086
     76.6877	  18.000	  22.315	-228.315	   3.083
     76.7212	  29.000	  28.454	-223.454	   3.081
     76.7546	  42.000	  35.024	-217.024	   3.078
     76.7880	  34.000	  39.759	-229.759	   3.076
     76.8214	  48.000	  40.187	-216.187	   3.073
     76.8548	  41.000	  36.738	-219.738	   3.071
     76.8883	  27.000	  32.293	-229.293	   3.068
     76.9217	  21.000	  29.035	-232.035	   3.066
     76.9551	  29.000	  27.560	-222.560	   3.063
     76.9885	  33.000	  27.241	-218.241	   3.061
     77.0220	  26.000	  26.519	-224.519	   3.058
     77.0554	  21.000	  24.109	-227.109	   3.056
     77.0888	  24.000	  20.407	-220.407	   3.053
     77.1222	   6.000	  16.611	-234.611	   3.051
     77.1556	  18.000	  13.429	-219.429	   3.048
     77.1891	  10.000	  11.014	-225.014	   3.046
     77.2225	   6.000	   9.289	-227.289	   3.043
     77.2559	  10.000	   8.095	-222.095	   3.041
     77.2893	  14.000	   7.273	-217.273	   3.038
     77.3228	   8.000	   6.694	-222.694	   3.036
     77.3562	  12.000	   6.271	-218.271	   3.033
     77.3896	   5.000	   5.948	-224.948	   3.031
     77.4230	   5.000	   5.692	-224.692	   3.028
     77.4565	   4.000	   5.486	-225.486	   3.026
     77.4899	   8.000	   5.316	-221.316	   3.023
     77.5233	   5.000	   5.175	-224.175	   3.021
     77.5567	   5.000	   5.056	-224.056	   3.018
     77.5901	   6.000	   4.955	-222.955	   3.016
     77.6236	   7.000	   4.870	-221.870	   3.013
     77.6570	   5.000	   4.797	-223.797	   3.011
     77.6904	   5.000	   4.735	-223.735	   3.008
     77.7238	   7.000	   4.681	-221.681	   3.005
     77.7573	   4.000	   4.636	-224.636	   3.003
     77.7907	   1.000	   4.597	-227.597	   3.000
     77.8241	   0.000	   4.563	-228.563	   2.998
     77.8575	   6.000	   4.536	-222.536	   2.995
     77.8909	   5.000	   4.513	-223.513	   2.993
     77.9244	   4.000	   4.494	-224.494	   2.990
     77.9578	   8.000	   4.480	-220.480	   2.988
     77.9912	   4.000	   4.470	-224.470	   2.985
     78.0246	   4.000	   4.463	-224.463	   2.983
     78.0581	   6.000	   4.461	-222.461	   2.980
     78.0915	   6.000	   4.462	-222.462	   2.978
     78.1249	   3.000	   4.467	-225.467	   2.975
     78.1583	   2.000	   4.476	-226.476	   2.973
     78.1917	   6.000	   4.490	-222.490	   2.970
     78.2252	   4.000	   4.509	-224.509	   2.968
     78.2586	   2.000	   4.533	-226.533	   2.965
     78.2920	   6.000	   4.563	-222.562	   2.963
     78.3254	   6.000	   4.599	-222.599	   2.960
     78.3589	   6.000	   4.643	-222.643	   2.958
     78.3923	   7.000	   4.696	-221.696	   2.955
     78.4257	   5.000	   4.760	-223.760	   2.953
     78.4591	   6.000	   4.836	-222.836	   2.950
     78.4926	   5.000	   4.928	-223.928	   2.948
     78.5260	   7.000	   5.039	-222.039	   2.945
     78.5594	   5.000	   5.173	-224.173	   2.943
     78.5928	  10.000	   5.337	-219.337	   2.940
     78.6262	   5.000	   5.540	-224.540	   2.938
     78.6597	   7.000	   5.795	-222.795	   2.935
     78.6931	   8.000	   6.124	-222.124	   2.933
     78.7265	   8.000	   6.565	-222.565	   2.930
     78.7599	   8.000	   7.189	-223.189	   2.928
     78.7934	   9.000	   8.076	-223.076	   2.925
     78.8268	  13.000	   9.388	-220.388	   2.923
     78.8602	   6.000	  11.322	-229.322	   2.920
     78.8936	  20.000	  14.079	-218.079	   2.918
     78.9270	  29.000	  17.783	-212.783	   2.915
     78.9605	  21.000	  22.302	-225.302	   2.913
     78.9939	  36.000	  26.877	-214.877	   2.910
     79.0273	  30.000	  29.823	-223.823	   2.908
     79.0607	  29.000	  29.653	-224.653	   2.905
     79.0942	  26.000	  27.003	-225.003	   2.903
     79.1276	  27.000	  23.870	-220.870	   2.900
     79.1610	  30.000	  21.627	-215.627	   2.898
     79.1944	  17.000	  20.634	-227.634	   2.895
     79.2278	  17.000	  20.483	-227.483	   2.893
     79.2613	  20.000	  20.143	-224.143	   2.890
     79.2947	  17.000	  18.666	-225.666	   2.888
     79.3281	  15.000	  16.179	-225.178	   2.885
     79.3615	  14.000	  13.494	-223.494	   2.883
     79.3950	  20.000	  11.168	-215.168	   2.880
     79.4284	   6.000	   9.366	-227.366	   2.878
     79.4618	   2.000	   8.056	-230.056	   2.875
     79.4952	  10.000	   7.140	-221.140	   2.873
     79.5286	   9.000	   6.508	-221.508	   2.870
     79.5621	   8.000	   6.068	-222.068	   2.868
     79.5955	   4.000	   5.755	-225.755	   2.865
     79.6289	   5.000	   5.525	-224.525	   2.863
     79.6623	   9.000	   5.354	-220.354	   2.860
     79.6958	   3.000	   5.226	-226.226	   2.858
     79.7292	  10.000	   5.134	-219.134	   2.855
     79.7626	   5.000	   5.073	-224.073	   2.853
     79.7960	   7.000	   5.042	-222.042	   2.850
     79.8295	   4.000	   5.042	-225.042	   2.848
     79.8629	   7.000	   5.079	-222.079	   2.845
     79.8963	  10.000	   5.166	-219.166	   2.843
     79.9297	  12.000	   5.323	-217.323	   2.840
     79.9631	   4.000	   5.586	-225.586	   2.838
     79.9966	   5.000	   5.999	-224.999	   2.835
     80.0300	   5.000	   6.613	-225.613	   2.833
     80.0634	   6.000	   7.434	-225.434	   2.830
     80.0968	   5.000	   8.514	-227.514	   2.828
     80.1303	  12.000	   9.680	-221.680	   2.825
     80.1637	  12.000	  10.570	-222.570	   2.823
     80.1971	   8.000	  10.742	-226.742	   2.820
     80.2305	   9.000	  10.182	-225.182	   2.818
     80.2639	   7.000	   9.333	-226.333	   2.815
     80.2974	   8.000	   8.646	-224.646	   2.813
     80.3308	  10.000	   8.271	-222.271	   2.810
     80.3642	   5.000	   8.172	-227.172	   2.808
     80.3976	  14.000	   8.142	-218.142	   2.806
     80.4311	   3.000	   7.903	-228.903	   2.803
     80.4645	  13.000	   7.356	-218.356	   2.801
     80.4979	   6.000	   6.665	-224.665	   2.798
     80.5313	   4.000	   6.016	-226.016	   2.796
     80.5648	   7.000	   5.489	-222.489	   2.793
     80.5982	   7.000	   5.095	-222.095	   2.791
     80.6316	   7.000	   4.814	-221.814	   2.788
     80.6650	   5.000	   4.621	-223.621	   2.786
     80.6984	   4.000	   4.493	-224.493	   2.783
     80.7319	   4.000	   4.410	-224.410	   2.781
     80.7653	   7.000	   4.363	-221.363	   2.779
     80.7987	   8.000	   4.346	-220.346	   2.776
     80.8321	   3.000	   4.353	-225.353	   2.774
     80.8656	   5.000	   4.409	-223.409	   2.771
     80.8990	   3.000	   4.441	-225.441	   2.769
     80.9324	   5.000	   4.452	-223.452	   2.766
     80.9658	   7.000	   4.425	-221.425	   2.764
     80.9992	   4.000	   4.372	-224.372	   2.761
     81.0327	   7.000	   4.319	-221.319	   2.759
     81.0661	   4.000	   4.283	-224.283	   2.757
     81.0995	   5.000	   4.267	-223.267	   2.754
     81.1329	   7.000	   4.281	-221.281	   2.752
     81.1664	  10.000	   4.282	-218.282	   2.749
     81.1998	   4.000	   4.271	-224.271	   2.747
     81.2332	   6.000	   4.249	-222.249	   2.744
     81.2666	   5.000	   4.226	-223.226	   2.742
     81.3000	   5.000	   4.212	-223.212	   2.740
     81.3335	   6.000	   4.209	-222.209	   2.737
     81.3669	   2.000	   4.218	-226.218	   2.735
     81.4003	   4.000	   4.239	-224.239	   2.732
     81.4337	   4.000	   4.271	-224.271	   2.730
     81.4672	   5.000	   4.314	-223.314	   2.728
     81.5006	   9.000	   4.369	-219.369	   2.725
     81.5340	   5.000	   4.438	-223.438	   2.723
     81.5674	   4.000	   4.523	-224.523	   2.720
     81.6008	   4.000	   4.628	-224.628	   2.718
     81.6343	   4.000	   4.760	-224.760	   2.716
     81.6677	   3.000	   4.926	-225.926	   2.713
     81.7011	  10.000	   5.143	-219.143	   2.711
     81.7345	   8.000	   5.433	-221.433	   2.708
     81.7680	  10.000	   5.838	-219.838	   2.706
     81.8014	   7.000	   6.420	-223.420	   2.704
     81.8348	   8.000	   7.266	-223.266	   2.701
     81.8682	   7.000	   8.483	-225.483	   2.699
     81.9016	  17.000	  10.175	-217.175	   2.696
     81.9351	  12.000	  12.391	-224.391	   2.694
     81.9685	  10.000	  15.019	-229.019	   2.692
     82.0019	  13.000	  17.616	-228.616	   2.689
     82.0353	  10.000	  19.343	-233.343	   2.687
     82.0688	  26.000	  19.425	-217.425	   2.685
     82.1022	  16.000	  18.034	-226.034	   2.682
     82.1356	  15.000	  16.177	-225.177	   2.680
     82.1690	  17.000	  14.702	-221.702	   2.678
     82.2025	  16.000	  13.918	-221.918	   2.675
     82.2359	  25.000	  13.709	-212.709	   2.673
     82.2693	  16.000	  13.633	-221.633	   2.671
     82.3027	  12.000	  13.108	-225.108	   2.668
     82.3361	  17.000	  11.930	-218.930	   2.666
     82.3696	  12.000	  10.383	-222.383	   2.664
     82.4030	  17.000	   8.880	-215.880	   2.661
     82.4364	   9.000	   7.631	-222.631	   2.659
     82.4698	  18.000	   6.678	-212.678	   2.657
     82.5033	   4.000	   5.984	-225.984	   2.654
     82.5367	   3.000	   5.493	-226.493	   2.652
     82.5701	   5.000	   5.138	-224.138	   2.650
     82.6035	   6.000	   4.890	-222.890	   2.647
     82.6369	   8.000	   4.707	-220.707	   2.645
     82.6704	  10.000	   4.567	-218.567	   2.643
     82.7038	   4.000	   4.457	-224.457	   2.640
     82.7372	   4.000	   4.368	-224.368	   2.638
     82.7706	   5.000	   4.297	-223.297	   2.636
     82.8041	   6.000	   4.238	-222.238	   2.634
     82.8375	   5.000	   4.190	-223.190	   2.631
     82.8709	   7.000	   4.151	-221.151	   2.629
     82.9043	  10.000	   4.119	-218.119	   2.627
     82.9378	   4.000	   4.093	-224.093	   2.625
     82.9712	   1.000	   4.073	-227.073	   2.622
     83.0046	   8.000	   4.058	-220.058	   2.620
     83.0380	   6.000	   4.048	-222.048	   2.618
     83.0714	   8.000	   4.042	-220.042	   2.616
     83.1049	   4.000	   4.039	-224.039	   2.613
     83.1383	   7.000	   4.072	-221.072	   2.611
     83.1717	   7.000	   4.078	-221.078	   2.609
     83.2051	   6.000	   4.087	-222.087	   2.607
     83.2385	   7.000	   4.101	-221.101	   2.604
     83.2720	   9.000	   4.119	-219.119	   2.602
     83.3054	   0.000	   4.141	-228.141	   2.600
     83.3388	  12.000	   4.167	-216.167	   2.598
     83.3722	   3.000	   4.215	-225.215	   2.595
     83.4057	   6.000	   4.253	-222.253	   2.593
     83.4391	   2.000	   4.298	-226.298	   2.591
     83.4725	   8.000	   4.344	-220.344	   2.589
     83.5059	   8.000	   4.405	-220.405	   2.587
     83.5394	   9.000	   4.476	-219.476	   2.585
     83.5728	   5.000	   4.559	-223.559	   2.582
     83.6062	   4.000	   4.656	-224.656	   2.580
     83.6396	  13.000	   4.771	-215.771	   2.578
     83.6730	   9.000	   4.906	-219.906	   2.576
     83.7065	   9.000	   5.065	-220.065	   2.574
     83.7399	   3.000	   5.260	-226.260	   2.571
     83.7733	   8.000	   5.497	-221.497	   2.569
     83.8067	  14.000	   5.789	-215.789	   2.567
     83.8402	  10.000	   6.159	-220.159	   2.565
     83.8736	   3.000	   6.639	-227.639	   2.563
     83.9070	   9.000	   7.289	-222.289	   2.561
     83.9404	   9.000	   8.197	-223.197	   2.559
     83.9738	  10.000	   9.499	-223.499	   2.557
     84.0073	  22.000	  11.372	-213.372	   2.554
     84.0407	  12.000	  14.018	-226.018	   2.552
     84.0741	  16.000	  17.607	-225.607	   2.550
     84.1075	  19.000	  22.162	-227.162	   2.548
     84.1410	  21.000	  27.322	-230.322	   2.546
     84.1744	  30.000	  31.924	-225.924	   2.544
     84.2078	  51.000	  34.108	-207.108	   2.542
     84.2412	  34.000	  32.916	-222.916	   2.540
     84.2747	  22.000	  29.578	-231.578	   2.538
     84.3081	  27.000	  26.091	-223.091	   2.536
     84.3415	  21.000	  23.653	-226.653	   2.534
     84.3749	  26.000	  22.570	-220.570	   2.532
     84.4083	  17.000	  22.498	-229.498	   2.529
     84.4418	  30.000	  22.514	-216.514	   2.527
     84.4752	  27.000	  21.514	-218.514	   2.525
     84.5086	  22.000	  19.203	-221.203	   2.523
     84.5420	  15.000	  16.275	-225.275	   2.521
     84.5755	  16.000	  13.486	-221.486	   2.519
     84.6089	   7.000	  11.181	-228.181	   2.517
     84.6423	  10.000	   9.417	-223.417	   2.515
     84.6757	  10.000	   8.125	-222.125	   2.513
     84.7091	   5.000	   7.205	-226.205	   2.511
     84.7426	   8.000	   6.552	-222.552	   2.509
     84.7760	  16.000	   6.082	-214.082	   2.507
     84.8094	   8.000	   5.734	-221.734	   2.505
     84.8428	   6.000	   5.470	-223.470	   2.503
     84.8763	   6.000	   5.264	-223.264	   2.501
     84.9097	   9.000	   5.101	-220.101	   2.499
     84.9431	   6.000	   4.970	-222.970	   2.498
     84.9765	   8.000	   4.867	-220.867	   2.496
     85.0099	   8.000	   4.786	-220.786	   2.494
     85.0434	   7.000	   4.724	-221.724	   2.492
     85.0768	   5.000	   4.680	-223.680	   2.490
     85.1102	   7.000	   4.652	-221.652	   2.488
     85.1436	   3.000	   4.640	-225.639	   2.486
     85.1771	   4.000	   4.643	-224.643	   2.484
     85.2105	   5.000	   4.664	-223.664	   2.482
     85.2439	   3.000	   4.705	-225.705	   2.480
     85.2773	  14.000	   4.769	-214.769	   2.478
     85.3108	  12.000	   4.865	-216.865	   2.477
     85.3442	   4.000	   5.002	-225.002	   2.475
     85.3776	   9.000	   5.191	-220.191	   2.473
     85.4110	  13.000	   5.488	-216.488	   2.471
     85.4444	   6.000	   5.918	-223.918	   2.469
     85.4779	   9.000	   6.530	-221.530	   2.467
     85.5113	   9.000	   7.367	-222.367	   2.466
     85.5447	   9.000	   8.447	-223.447	   2.464
     85.5781	   8.000	   9.712	-225.712	   2.462
     85.6116	   8.000	  10.943	-226.943	   2.460
     85.6450	  13.000	  11.709	-222.709	   2.458
     85.6784	  15.000	  11.681	-220.681	   2.456
     85.7118	  15.000	  11.002	-220.002	   2.455
     85.7452	   9.000	  10.150	-225.150	   2.453
     85.7787	   4.000	   9.491	-229.491	   2.451
     85.8121	   8.000	   9.165	-225.165	   2.449
     85.8455	  18.000	   9.150	-215.150	   2.448
     85.8789	  18.000	   9.284	-215.284	   2.446
     85.9124	  10.000	   9.302	-223.302	   2.444
     85.9458	  14.000	   9.017	-219.017	   2.442
     85.9792	  16.000	   8.503	-216.503	   2.441
     86.0126	  10.000	   7.968	-221.968	   2.439
     86.0460	  10.000	   7.559	-221.559	   2.437
     86.0795	   6.000	   7.330	-225.330	   2.436
     86.1129	   8.000	   7.300	-223.300	   2.434
     86.1463	   6.000	   7.477	-225.477	   2.432
     86.1797	   8.000	   7.885	-223.885	   2.431
     86.2132	   3.000	   8.580	-229.580	   2.429
     86.2466	  10.000	   9.662	-223.662	   2.427
     86.2800	  14.000	  11.276	-221.276	   2.426
     86.3134	  16.000	  13.596	-221.596	   2.424
     86.3468	  21.000	  16.790	-219.790	   2.422
     86.3803	  21.000	  20.930	-223.930	   2.421
     86.4137	  28.000	  25.815	-221.815	   2.419
     86.4471	  28.000	  30.633	-226.633	   2.418
     86.4805	  39.000	  33.772	-218.772	   2.416
     86.5140	  37.000	  33.786	-220.786	   2.415
     86.5474	  32.000	  31.073	-223.073	   2.413
     86.5808	  20.000	  27.457	-231.457	   2.411
     86.6142	  37.000	  24.454	-211.454	   2.410
     86.6477	  27.000	  22.697	-219.697	   2.408
     86.6811	  27.000	  22.171	-219.171	   2.407
     86.7145	  21.000	  22.388	-225.388	   2.405
     86.7479	  26.000	  22.223	-220.223	   2.404
     86.7813	  24.000	  20.854	-220.854	   2.402
     86.8148	  17.000	  18.345	-225.345	   2.401
     86.8482	  19.000	  15.461	-220.461	   2.399
     86.8816	   5.000	  12.823	-231.823	   2.398
     86.9150	  14.000	  10.673	-220.673	   2.396
     86.9485	   4.000	   9.028	-229.028	   2.395
     86.9819	  10.000	   7.815	-221.815	   2.393
     87.0153	   6.000	   6.969	-224.969	   2.392
     87.0487	   6.000	   6.334	-224.334	   2.391
     87.0821	   7.000	   5.867	-222.867	   2.389
     87.1156	   9.000	   5.513	-220.513	   2.388
     87.1490	   7.000	   5.235	-222.235	   2.386
     87.1824	   8.000	   5.012	-221.012	   2.385
     87.2158	   3.000	   4.827	-225.827	   2.384
     87.2493	   5.000	   4.673	-223.673	   2.382
     87.2827	   1.000	   4.542	-227.542	   2.381
     87.3161	   6.000	   4.431	-222.431	   2.380
     87.3495	   3.000	   4.334	-225.334	   2.378
     87.3829	   6.000	   4.251	-222.251	   2.377
     87.4164	   7.000	   4.178	-221.178	   2.376
     87.4498	   7.000	   4.114	-221.114	   2.374
     87.4832	   5.000	   4.057	-223.057	   2.373
     87.5166	   5.000	   4.007	-223.007	   2.372
     87.5501	   2.000	   3.963	-225.963	   2.371
     87.5835	   5.000	   3.894	-222.894	   2.369
     87.6169	   2.000	   3.859	-225.859	   2.368
     87.6503	   7.000	   3.828	-220.828	   2.367
     87.6838	   5.000	   3.800	-222.800	   2.366
     87.7172	   5.000	   3.775	-222.775	   2.364
     87.7506	   5.000	   3.753	-222.753	   2.363
     87.7840	   7.000	   3.733	-220.733	   2.362
     87.8174	   2.000	   3.700	-225.700	   2.361
     87.8509	   7.000	   3.684	-220.684	   2.360
     87.8843	   4.000	   3.670	-223.670	   2.359
     87.9177	   7.000	   3.658	-220.658	   2.357
     87.9511	   5.000	   3.647	-222.647	   2.356
     87.9846	   7.000	   3.638	-220.638	   2.355
     88.0180	   6.000	   3.629	-221.629	   2.354
     88.0514	   3.000	   3.622	-224.622	   2.353
     88.0848	   4.000	   3.616	-223.616	   2.352
     88.1182	   5.000	   3.612	-222.612	   2.351
     88.1517	   5.000	   3.608	-222.608	   2.350
     88.1851	  12.000	   3.605	-215.605	   2.349
     88.2185	   6.000	   3.604	-221.604	   2.348
     88.2519	   4.000	   3.603	-223.603	   2.347
     88.2854	   6.000	   3.603	-221.603	   2.346
     88.3188	   5.000	   3.605	-222.605	   2.345
     88.3522	   5.000	   3.607	-222.607	   2.344
     88.3856	   2.000	   3.610	-225.610	   2.343
     88.4190	   7.000	   3.614	-220.614	   2.342
     88.4525	   5.000	   3.620	-222.620	   2.341
     88.4859	   7.000	   3.626	-220.626	   2.340
     88.5193	   4.000	   3.633	-223.633	   2.339
     88.5527	   6.000	   3.642	-221.642	   2.338
     88.5862	   2.000	   3.651	-225.651	   2.337
     88.6196	   9.000	   3.662	-218.662	   2.336
     88.6530	   6.000	   3.674	-221.674	   2.336
     88.6864	   3.000	   3.688	-224.688	   2.335
     88.7198	   5.000	   3.703	-222.703	   2.334
     88.7533	   6.000	   3.719	-221.719	   2.333
     88.7867	   6.000	   3.738	-221.738	   2.332
     88.8201	   5.000	   3.758	-222.758	   2.331
     88.8535	   7.000	   3.780	-220.780	   2.331
     88.8870	   6.000	   3.804	-221.804	   2.330
     88.9204	   9.000	   3.830	-218.830	   2.329
     88.9538	   7.000	   3.859	-220.859	   2.328
     88.9872	  10.000	   3.891	-217.891	   2.328
     89.0207	   8.000	   3.926	-219.926	   2.327
     89.0541	   5.000	   3.957	-222.957	   2.326
     89.0875	   8.000	   3.999	-219.999	   2.326
     89.1209	   2.000	   4.046	-226.046	   2.325
     89.1543	   2.000	   4.097	-226.097	   2.324
     89.1878	   7.000	   4.154	-221.154	   2.324
     89.2212	   7.000	   4.217	-221.217	   2.323
     89.2546	   7.000	   4.287	-221.287	   2.322
     89.2880	   6.000	   4.365	-222.365	   2.322
     89.3215	   8.000	   4.448	-220.448	   2.321
     89.3549	   8.000	   4.546	-220.546	   2.321
     89.3883	   4.000	   4.656	-224.656	   2.320
     89.4217	   5.000	   4.781	-223.781	   2.320
     89.4551	   8.000	   4.923	-220.923	   2.319
     89.4886	  12.000	   5.085	-217.085	   2.319
     89.5220	  13.000	   5.272	-216.272	   2.318
     89.5554	   8.000	   5.489	-221.489	   2.318
     89.5888	   6.000	   5.744	-223.744	   2.317
     89.6223	   5.000	   6.044	-225.044	   2.317
     89.6557	   6.000	   6.408	-224.408	   2.316
     89.6891	  10.000	   6.836	-220.836	   2.316
     89.7225	  10.000	   7.351	-221.351	   2.315
     89.7560	   8.000	   7.975	-223.975	   2.315
     89.7894	  13.000	   8.739	-219.739	   2.315
     89.8228	  10.000	   9.696	-223.696	   2.314
     89.8562	  15.000	  10.947	-219.947	   2.314
     89.8896	  10.000	  12.628	-226.628	   2.314
     89.9231	  16.000	  15.029	-223.029	   2.313
     89.9565	  16.000	  18.393	-226.393	   2.313
     89.9899	  14.000	  23.023	-233.023	   2.313
     90.0233	  31.000	  29.172	-222.173	   2.313
     90.0567	  26.000	  36.895	-234.895	   2.312
     90.0902	  45.000	  45.724	-224.724	   2.312
     90.1236	  54.000	  54.112	-224.112	   2.312
     90.1570	  68.000	  59.285	-215.285	   2.312
     90.1904	  55.000	  59.042	-228.042	   2.312
     90.2239	  58.000	  54.161	-220.161	   2.311
     90.2573	  44.000	  47.657	-227.657	   2.311
     90.2907	  24.000	  42.071	-242.071	   2.311
     90.3241	  30.000	  38.561	-232.561	   2.311
     90.3576	  32.000	  37.253	-229.253	   2.311
     90.3910	  38.000	  37.507	-223.507	   2.311
     90.4244	  37.000	  37.908	-224.908	   2.311
     90.4578	  56.000	  36.730	-204.730	   2.311
     90.4912	  33.000	  33.270	-224.270	   2.311
     90.5247	  19.000	  28.404	-233.404	   2.311
     90.5581	  27.000	  23.421	-220.421	   2.311
     90.5915	  22.000	  19.077	-221.077	   2.311
     90.6249	  22.000	  15.595	-217.595	   2.311
     90.6584	  19.000	  12.935	-217.935	   2.311
     90.6918	   6.000	  10.960	-228.960	   2.311
     90.7252	  12.000	   9.513	-221.513	   2.311
     90.7586	  12.000	   8.448	-220.448	   2.311
     90.7920	   9.000	   7.649	-222.649	   2.311
     90.8255	   6.000	   7.035	-225.035	   2.311
     90.8589	   6.000	   6.548	-224.548	   2.312
     90.8923	   9.000	   6.153	-221.153	   2.312
     90.9257	   6.000	   5.826	-223.826	   2.312
     90.9592	   5.000	   5.550	-224.550	   2.312
     90.9926	   5.000	   5.315	-224.315	   2.313
     91.0260	  12.000	   5.114	-217.114	   2.313
     91.0594	   6.000	   4.940	-222.940	   2.313
     91.0928	   4.000	   4.788	-224.788	   2.313
     91.1263	   4.000	   4.655	-224.655	   2.314
     91.1597	   6.000	   4.537	-222.537	   2.314
     91.1931	  10.000	   4.434	-218.434	   2.314
     91.2265	  12.000	   4.341	-216.341	   2.315
     91.2600	   9.000	   4.258	-219.258	   2.315
     91.2934	   7.000	   4.184	-221.184	   2.316
     91.3268	   5.000	   4.118	-223.118	   2.316
     91.3602	   9.000	   4.058	-219.058	   2.316
     91.3937	   8.000	   4.003	-220.003	   2.317
     91.4271	   7.000	   3.954	-220.954	   2.317
     91.4605	   7.000	   3.909	-220.909	   2.318
     91.4939	   3.000	   3.868	-224.868	   2.318
     91.5273	   6.000	   3.831	-221.831	   2.319
     91.5608	   9.000	   3.797	-218.797	   2.320
     91.5942	   4.000	   3.766	-223.766	   2.320
     91.6276	   7.000	   3.737	-220.737	   2.321
     91.6610	   5.000	   3.711	-222.711	   2.321
     91.6945	   1.000	   3.687	-226.687	   2.322
     91.7279	   2.000	   3.714	-225.714	   2.323
     91.7613	   6.000	   3.695	-221.695	   2.323
     91.7947	   6.000	   3.678	-221.678	   2.324
     91.8281	   5.000	   3.662	-222.662	   2.325
     91.8616	   8.000	   3.648	-219.648	   2.326
     91.8950	   7.000	   3.636	-220.635	   2.326
     91.9284	   9.000	   3.624	-218.624	   2.327
     91.9618	   6.000	   3.614	-221.614	   2.328
     91.9953	   6.000	   3.606	-221.606	   2.329
     92.0287	   4.000	   3.623	-223.623	   2.330
     92.0621	   6.000	   3.617	-221.617	   2.331
     92.0955	   7.000	   3.613	-220.613	   2.332
     92.1289	   3.000	   3.610	-224.610	   2.332
     92.1624	   2.000	   3.608	-225.608	   2.333
     92.1958	   3.000	   3.608	-224.608	   2.334
     92.2292	   6.000	   3.609	-221.609	   2.335
     92.2626	   2.000	   3.611	-225.611	   2.336
     92.2961	   3.000	   3.615	-224.615	   2.337
     92.3295	   3.000	   3.620	-224.620	   2.338
     92.3629	   5.000	   3.628	-222.628	   2.339
     92.3963	   7.000	   3.637	-220.637	   2.341
     92.4297	  10.000	   3.649	-217.649	   2.342
     92.4632	   6.000	   3.663	-221.663	   2.343
     92.4966	   3.000	   3.680	-224.680	   2.344
     92.5300	   4.000	   3.701	-223.701	   2.345
     92.5634	   9.000	   3.726	-218.726	   2.346
     92.5969	   7.000	   3.756	-220.756	   2.348
     92.6303	   6.000	   3.791	-221.791	   2.349
     92.6637	   6.000	   3.834	-221.834	   2.350
     92.6971	  10.000	   3.887	-217.887	   2.351
     92.7306	   6.000	   3.952	-221.952	   2.353
     92.7640	   6.000	   4.034	-222.034	   2.354
     92.7974	   6.000	   4.140	-222.140	   2.355
     92.8308	   7.000	   4.280	-221.280	   2.357
     92.8642	   2.000	   4.472	-226.472	   2.358
     92.8977	   6.000	   4.735	-222.735	   2.360
     92.9311	   4.000	   5.096	-225.096	   2.361
     92.9645	   4.000	   5.584	-225.584	   2.363
     92.9979	   6.000	   6.220	-224.220	   2.364
     93.0314	   7.000	   7.008	-224.008	   2.366
     93.0648	   7.000	   7.902	-224.902	   2.367
     93.0982	   5.000	   8.751	-227.751	   2.369
     93.1316	  14.000	   9.296	-219.296	   2.370
     93.1650	  20.000	   9.320	-213.320	   2.372
     93.1985	   8.000	   8.865	-224.865	   2.374
     93.2319	  10.000	   8.212	-222.212	   2.375
     93.2653	   7.000	   7.618	-224.618	   2.377
     93.2987	  12.000	   7.212	-219.212	   2.379
     93.3322	  13.000	   7.028	-218.028	   2.381
     93.3656	   9.000	   7.027	-222.027	   2.382
     93.3990	  13.000	   7.106	-218.106	   2.384
     93.4324	   6.000	   7.104	-225.104	   2.386
     93.4659	   9.000	   6.893	-221.893	   2.388
     93.4993	   7.000	   6.479	-223.479	   2.390
     93.5327	   4.000	   5.983	-225.983	   2.392
     93.5661	   6.000	   5.511	-223.511	   2.394
     93.5995	   4.000	   5.114	-225.114	   2.395
     93.6330	   8.000	   4.741	-220.741	   2.397
     93.6664	   4.000	   4.507	-224.507	   2.399
     93.6998	   4.000	   4.336	-224.336	   2.401
     93.7332	   2.000	   4.214	-226.214	   2.404
     93.7667	   6.000	   4.127	-222.127	   2.406
     93.8001	   6.000	   4.066	-222.066	   2.408
     93.8335	   5.000	   4.023	-223.023	   2.410
     93.8669	   4.000	   3.993	-223.993	   2.412
     93.9003	   4.000	   3.974	-223.974	   2.414
     93.9338	   8.000	   3.932	-219.932	   2.416
     93.9672	   1.000	   3.938	-226.938	   2.419
     94.0006	   7.000	   3.939	-220.939	   2.421
     94.0340	   2.000	   3.946	-225.946	   2.423
     94.0675	   6.000	   3.958	-221.958	   2.425
     94.1009	   0.000	   3.973	-227.973	   2.428
     94.1343	   3.000	   3.994	-224.994	   2.430
     94.1677	   4.000	   4.018	-224.018	   2.433
     94.2011	   8.000	   4.047	-220.047	   2.435
     94.2346	  10.000	   4.081	-218.081	   2.437
     94.2680	   2.000	   4.119	-226.119	   2.440
     94.3014	   9.000	   4.168	-219.168	   2.442
     94.3348	   4.000	   4.217	-224.217	   2.445
     94.3683	   5.000	   4.273	-223.273	   2.448
     94.4017	   4.000	   4.335	-224.335	   2.450
     94.4351	   1.000	   4.405	-227.405	   2.453
     94.4685	   8.000	   4.484	-220.484	   2.455
     94.5019	   5.000	   4.573	-223.573	   2.458
     94.5354	   5.000	   4.673	-223.673	   2.461
     94.5688	   2.000	   4.787	-226.787	   2.463
     94.6022	   5.000	   4.917	-223.917	   2.466
     94.6356	   5.000	   5.066	-224.066	   2.469
     94.6691	   5.000	   5.236	-224.236	   2.472
     94.7025	   5.000	   5.434	-224.434	   2.475
     94.7359	   9.000	   5.664	-220.664	   2.478
     94.7693	   8.000	   5.935	-221.935	   2.480
     94.8027	   2.000	   6.256	-228.256	   2.483
     94.8362	   7.000	   6.642	-223.642	   2.486
     94.8696	   4.000	   7.114	-227.114	   2.489
     94.9030	  12.000	   7.704	-219.704	   2.492
     94.9364	   6.000	   8.461	-226.461	   2.495
     94.9699	  13.000	   9.457	-220.457	   2.498
     95.0033	  14.000	  10.799	-220.799	   2.502
     95.0367	  15.000	  12.626	-221.626	   2.505
     95.0701	  13.000	  15.109	-226.109	   2.508
     95.1036	  13.000	  18.431	-229.431	   2.511
     95.1370	  25.000	  22.741	-221.741	   2.514
     95.1704	  32.000	  28.073	-220.073	   2.518
     95.2038	  32.000	  34.151	-226.151	   2.521
     95.2372	  41.000	  40.088	-223.088	   2.524
     95.2707	  54.000	  44.229	-214.229	   2.527
     95.3041	  56.000	  44.974	-212.974	   2.531
     95.3375	  43.000	  42.306	-223.306	   2.534
     95.3709	  30.000	  37.875	-231.875	   2.538
     95.4044	  32.000	  33.496	-225.496	   2.541
     95.4378	  40.000	  30.228	-214.228	   2.545
     95.4712	  31.000	  28.428	-221.428	   2.548
     95.5046	  34.000	  28.001	-218.001	   2.552
     95.5380	  38.000	  28.454	-214.454	   2.555
     95.5715	  27.000	  28.872	-225.872	   2.559
     95.6049	  30.000	  28.194	-222.194	   2.563
     95.6383	  30.000	  25.979	-219.979	   2.566
     95.6717	  19.000	  22.730	-227.730	   2.570
     95.7052	  22.000	  19.274	-221.274	   2.574
     95.7386	  18.000	  16.157	-222.157	   2.578
     95.7720	  15.000	  13.581	-222.581	   2.581
     95.8054	  12.000	  11.556	-223.556	   2.585
     95.8389	  14.000	  10.013	-220.013	   2.589
     95.8723	   7.000	   8.856	-225.856	   2.593
     95.9057	   6.000	   7.993	-225.993	   2.597
     95.9391	  13.000	   7.344	-218.344	   2.601
     95.9725	  10.000	   6.848	-220.848	   2.605
     96.0060	   3.000	   6.461	-227.461	   2.609
     96.0394	   7.000	   6.153	-223.153	   2.613
     96.0728	  14.000	   5.903	-215.903	   2.617
     96.1062	  10.000	   5.699	-219.699	   2.621
     96.1397	  12.000	   5.532	-217.532	   2.625
     96.1731	  14.000	   5.395	-215.395	   2.630
     96.2065	   5.000	   5.285	-224.285	   2.634
     96.2399	   9.000	   5.198	-220.198	   2.638
     96.2733	   6.000	   5.133	-223.133	   2.642
     96.3068	  10.000	   5.089	-219.089	   2.647
     96.3402	   9.000	   5.067	-220.067	   2.651
     96.3736	   5.000	   5.070	-224.070	   2.656
     96.4070	   7.000	   5.103	-222.103	   2.660
     96.4405	   9.000	   5.175	-220.175	   2.664
     96.4739	   5.000	   5.296	-224.296	   2.669
     96.5073	   7.000	   5.483	-222.483	   2.674
     96.5407	  14.000	   5.750	-215.750	   2.678
     96.5741	  10.000	   6.114	-220.114	   2.683
     96.6076	   7.000	   6.581	-223.581	   2.687
     96.6410	   4.000	   7.137	-227.137	   2.692
     96.6744	  12.000	   7.712	-219.712	   2.697
     96.7078	  14.000	   8.184	-218.184	   2.702
     96.7413	  14.000	   8.378	-218.378	   2.706
     96.7747	  15.000	   8.224	-217.224	   2.711
     96.8081	   7.000	   7.834	-224.834	   2.716
     96.8415	  15.000	   7.388	-216.388	   2.721
     96.8749	  10.000	   7.021	-221.021	   2.726
     96.9084	   4.000	   6.790	-226.790	   2.731
     96.9418	   7.000	   6.705	-223.705	   2.736
     96.9752	   5.000	   6.737	-225.737	   2.741
     97.0086	   6.000	   6.828	-224.828	   2.746
     97.0421	   7.000	   6.879	-223.879	   2.751
     97.0755	   9.000	   6.805	-221.805	   2.756
     97.1089	   9.000	   6.604	-221.604	   2.761
     97.1423	   6.000	   6.349	-224.349	   2.767
     97.1758	   6.000	   6.118	-224.118	   2.772
     97.2092	   4.000	   5.957	-225.957	   2.777
     97.2426	   4.000	   5.889	-225.889	   2.782
     97.2760	  10.000	   5.930	-219.930	   2.788
     97.3094	   3.000	   6.093	-227.093	   2.793
     97.3429	   5.000	   6.399	-225.399	   2.799
     97.3763	  12.000	   6.870	-218.870	   2.804
     97.4097	   9.000	   7.530	-222.530	   2.810
     97.4431	   5.000	   8.392	-227.392	   2.815
     97.4766	  13.000	   9.435	-220.435	   2.821
     97.5100	  20.000	  10.559	-214.559	   2.826
     97.5434	  17.000	  11.537	-218.537	   2.832
     97.5768	   5.000	  12.045	-231.045	   2.838
     97.6102	  15.000	  11.886	-220.886	   2.844
     97.6437	  17.000	  11.195	-218.195	   2.849
     97.6771	  17.000	  10.313	-217.313	   2.855
     97.7105	   7.000	   9.520	-226.520	   2.861
     97.7439	   6.000	   8.962	-226.962	   2.867
     97.7774	   6.000	   8.676	-226.676	   2.873
     97.8108	  15.000	   8.632	-217.632	   2.879
     97.8442	  19.000	   8.733	-213.733	   2.885
     97.8776	  10.000	   8.809	-222.809	   2.891
     97.9110	  12.000	   8.675	-220.675	   2.897
     97.9445	  18.000	   8.258	-214.258	   2.903
     97.9779	   5.000	   7.650	-226.650	   2.909
     98.0113	   7.000	   6.998	-223.998	   2.916
     98.0447	   8.000	   6.405	-222.405	   2.922
     98.0782	  12.000	   5.909	-217.909	   2.928
     98.1116	   4.000	   5.515	-225.515	   2.934
     98.1450	   5.000	   5.210	-224.210	   2.941
     98.1784	   7.000	   4.980	-221.980	   2.947
     98.2119	   6.000	   4.806	-222.806	   2.954
     98.2453	   7.000	   4.676	-221.676	   2.960
     98.2787	   5.000	   4.576	-223.576	   2.967
     98.3121	   8.000	   4.499	-220.499	   2.973
     98.3455	   1.000	   4.438	-227.438	   2.980
     98.3790	   8.000	   4.391	-220.391	   2.987
     98.4124	   4.000	   4.355	-224.355	   2.993
     98.4458	   3.000	   4.328	-225.328	   3.000
     98.4792	   7.000	   4.309	-221.309	   3.007
     98.5126	   2.000	   4.299	-226.299	   3.014
     98.5461	   6.000	   4.296	-222.296	   3.020
     98.5795	   5.000	   4.300	-223.300	   3.027
     98.6129	  13.000	   4.306	-215.306	   3.034
     98.6463	   4.000	   4.310	-224.310	   3.041
     98.6798	   4.000	   4.304	-224.304	   3.048
     98.7132	   4.000	   4.288	-224.288	   3.055
     98.7466	   4.000	   4.264	-224.264	   3.063
     98.7800	   5.000	   4.240	-223.240	   3.070
     98.8135	   5.000	   4.220	-223.220	   3.077
     98.8469	   6.000	   4.206	-222.206	   3.084
     98.8803	   5.000	   4.150	-223.150	   3.091
     98.9137	   3.000	   4.148	-225.148	   3.099
     98.9471	   9.000	   4.149	-219.149	   3.106
     98.9806	   6.000	   4.150	-222.150	   3.114
     99.0140	   2.000	   4.147	-226.147	   3.121
     99.0474	   3.000	   4.139	-225.139	   3.129
     99.0808	   4.000	   4.128	-224.128	   3.136
     99.1143	   9.000	   4.117	-219.117	   3.144
     99.1477	   5.000	   4.107	-223.107	   3.151
     99.1811	   7.000	   4.076	-221.076	   3.159
     99.2145	   5.000	   4.071	-223.071	   3.167
     99.2479	   7.000	   4.069	-221.069	   3.175
     99.2814	   1.000	   4.068	-227.068	   3.182
     99.3148	   7.000	   4.069	-221.069	   3.190
     99.3482	   5.000	   4.071	-223.071	   3.198
     99.3816	   8.000	   4.074	-220.074	   3.206
     99.4151	   5.000	   4.077	-223.077	   3.214
     99.4485	   8.000	   4.082	-220.082	   3.222
     99.4819	   5.000	   4.086	-223.086	   3.230
     99.5153	   7.000	   4.090	-221.090	   3.238
     99.5488	   4.000	   4.095	-224.095	   3.247
     99.5822	   4.000	   4.101	-224.101	   3.255
     99.6156	   6.000	   4.106	-222.106	   3.263
     99.6490	   5.000	   4.112	-223.112	   3.271
     99.6824	   3.000	   4.118	-225.118	   3.280
     99.7159	   3.000	   4.124	-225.124	   3.288
     99.7493	   3.000	   4.130	-225.130	   3.297
     99.7827	   6.000	   4.137	-222.137	   3.305
     99.8161	   2.000	   4.144	-226.144	   3.314
     99.8496	   8.000	   4.151	-220.151	   3.322
     99.8830	   5.000	   4.157	-223.157	   3.331
     99.9164	   2.000	   4.165	-226.165	   3.340
     99.9498	  10.000	   4.172	-218.172	   3.348
     99.9832	   3.000	   4.187	-225.187	   3.357
     24.4589	        	        	        	        	       0	(  0  1  2)	  0  1 :  1
     24.5201	        	        	        	        	       0	(  0  1  2)	  0  2 :  1
     33.5620	        	        	        	        	       0	(  1  0  4)	  0  1 :  1
     33.6472	        	        	        	        	       0	(  1  0  4)	  0  2 :  1
     36.1618	        	        	        	        	       0	(  1  1  0)	  0  1 :  1
     36.2540	        	        	        	        	       0	(  1  1  0)	  0  2 :  1
     39.7128	        	        	        	        	       0	(  0  0  6)	  0  1 :  1
     39.8148	        	        	        	        	       0	(  0  0  6)	  0  2 :  1
     41.4443	        	        	        	        	       0	(  1  1  3)	  0  1 :  1
     41.5511	        	        	        	        	       0	(  1  1  3)	  0  2 :  1
     44.1618	        	        	        	        	       0	(  2  0  2)	  0  1 :  1
     44.2763	        	        	        	        	       0	(  2  0  2)	  0  2 :  1
     50.1822	        	        	        	        	       0	(  0  2  4)	  0  1 :  1
     50.3144	        	        	        	        	       0	(  0  2  4)	  0  2 :  1
     54.8102	        	        	        	        	       0	(  1  1  6)	  0  1 :  1
     54.9566	        	        	        	        	       0	(  1  1  6)	  0  2 :  1
     57.0678	        	        	        	        	       0	(  2  1  1)	  0  1 :  1
     57.2213	        	        	        	        	       0	(  2  1  1)	  0  2 :  1
     58.3187	        	        	        	        	       0	(  0  1  8)	  0  1 :  1
     58.3732	        	        	        	        	       0	(  1  2  2)	  0  1 :  1
     58.4762	        	        	        	        	       0	(  0  1  8)	  0  2 :  1
     58.5308	        	        	        	        	       0	(  1  2  2)	  0  2 :  1
     63.4272	        	        	        	        	       0	(  2  1  4)	  0  1 :  1
     63.6017	        	        	        	        	       0	(  2  1  4)	  0  2 :  1
     65.0783	        	        	        	        	       0	(  3  0  0)	  0  1 :  1
     65.2584	        	        	        	        	       0	(  3  0  0)	  0  2 :  1
     67.0740	        	        	        	        	       0	(  1  2  5)	  0  1 :  1
     67.2611	        	        	        	        	       0	(  1  2  5)	  0  2 :  1
     70.6006	        	        	        	        	       0	(  2  0  8)	  0  1 :  1
     70.8005	        	        	        	        	       0	(  2  0  8)	  0  2 :  1
     72.9011	        	        	        	        	       0	(  1  0 10)	  0  1 :  1
     73.1096	        	        	        	        	       0	(  1  0 10)	  0  2 :  1
     73.3018	        	        	        	        	       0	(  1  1  9)	  0  1 :  1
     73.5118	        	        	        	        	       0	(  1  1  9)	  0  2 :  1
     76.3841	        	        	        	        	       0	(  2  1  7)	  0  1 :  1
     76.6062	        	        	        	        	       0	(  2  1  7)	  0  2 :  1
     76.8020	        	        	        	        	       0	(  2  2  0)	  0  1 :  1
     77.0259	        	        	        	        	       0	(  2  2  0)	  0  2 :  1
     79.0365	        	        	        	        	       0	(  0  3  6)	  0  1 :  1
     79.0365	        	        	        	        	       0	(  3  0  6)	  0  1 :  1
     79.2694	        	        	        	        	       0	(  0  3  6)	  0  2 :  1
     79.2694	        	        	        	        	       0	(  3  0  6)	  0  2 :  1
     80.1824	        	        	        	        	       0	(  2  2  3)	  0  1 :  1
     80.4202	        	        	        	        	       0	(  2  2  3)	  0  2 :  1
     80.9364	        	        	        	        	       0	(  1  3  1)	  0  1 :  1
     81.1773	        	        	        	        	       0	(  1  3  1)	  0  2 :  1
     82.0059	        	        	        	        	       0	(  1  2  8)	  0  1 :  1
     82.0527	        	        	        	        	       0	(  3  1  2)	  0  1 :  1
     82.2514	        	        	        	        	       0	(  1  2  8)	  0  2 :  1
     82.2984	        	        	        	        	       0	(  3  1  2)	  0  2 :  1
     84.2068	        	        	        	        	       0	(  0  2 10)	  0  1 :  1
     84.4621	        	        	        	        	       0	(  0  2 10)	  0  2 :  1
     85.6537	        	        	        	        	       0	(  0  0 12)	  0  1 :  1
     85.9155	        	        	        	        	       0	(  0  0 12)	  0  2 :  1
     86.4922	        	        	        	        	       0	(  1  3  4)	  0  1 :  1
     86.7579	        	        	        	        	       0	(  1  3  4)	  0  2 :  1
     89.8068	        	        	        	        	       0	(  3  1  5)	  0  1 :  1
     90.0883	        	        	        	        	       0	(  3  1  5)	  0  2 :  1
     90.1671	        	        	        	        	       0	(  2  2  6)	  0  1 :  1
     90.4504	        	        	        	        	       0	(  2  2  6)	  0  2 :  1
     93.1440	        	        	        	        	       0	(  0  4  2)	  0  1 :  1
     93.4425	        	        	        	        	       0	(  0  4  2)	  0  2 :  1
     95.2888	        	        	        	        	       0	(  2  1 10)	  0  1 :  1
     95.5987	        	        	        	        	       0	(  2  1 10)	  0  2 :  1
     96.7382	        	        	        	        	       0	(  1  1 12)	  0  1 :  1
     97.0561	        	        	        	        	       0	(  1  1 12)	  0  2 :  1
     97.5813	        	        	        	        	       0	(  4  0  4)	  0  1 :  1
     97.9040	        	        	        	        	       0	(  4  0  4)	  0  2 :  1
     98.6734	        	        	        	        	       0	(  1  3  7)	  0  1 :  1
     99.0024	        	        	        	        	       0	(  1  3  7)	  0  2 :  1
    103.1255	        	        	        	        	       0	(  1  2 11)	  0  1 :  1
    103.2207	        	        	        	        	       0	(  3  2  1)	  0  1 :  1
    103.4817	        	        	        	        	       0	(  1  2 11)	  0  2 :  1
    103.5775	        	        	        	        	       0	(  3  2  1)	  0  2 :  1
    104.3100	        	        	        	        	       0	(  3  1  8)	  0  1 :  1
    104.3578	        	        	        	        	       0	(  2  3  2)	  0  1 :  1
    104.6738	        	        	        	        	       0	(  3  1  8)	  0  2 :  1
    104.7220	        	        	        	        	       0	(  2  3  2)	  0  2 :  1
    106.9780	        	        	        	        	       0	(  2  2  9)	  0  1 :  1
    107.3600	        	        	        	        	       0	(  2  2  9)	  0  2 :  1
    108.8230	        	        	        	        	       0	(  0  1 14)	  0  1 :  1
    108.9700	        	        	        	        	       0	(  3  2  4)	  0  1 :  1
    109.2181	        	        	        	        	       0	(  0  1 14)	  0  2 :  1
    109.3663	        	        	        	        	       0	(  3  2  4)	  0  2 :  1
    110.5511	        	        	        	        	       0	(  4  1  0)	  0  1 :  1
    110.9592	        	        	        	        	       0	(  4  1  0)	  0  2 :  1
    112.5133	        	        	        	        	       0	(  2  3  5)	  0  1 :  1
    112.9368	        	        	        	        	       0	(  2  3  5)	  0  2 :  1
