ZrO2 monoclinic   Chi2:  3.1432  CELL:    5.14707   5.20256   5.31998   90.0000   99.1857   90.0000   SPGR: P 1 21/c 1             TEMP:      0.00
  1   2094     1.54060     1.54439     0.00000     0.09425     0.00000    0
   252     0     1
       0.00000      15.00000
 2Theta	Yobs	Ycal	Yobs-Ycal	Backg	Posr	(hkl)	K
     10.0299	  413.00	  313.30	-2075.75	  243.11
     10.0633	  409.00	  313.25	-2075.75	  243.07
     10.0968	  454.00	  313.21	-2075.75	  243.03
     10.1302	  479.00	  313.16	-2075.75	  242.98
     10.1636	  460.00	  313.12	-2075.75	  242.94
     10.1970	  432.00	  313.07	-2075.75	  242.89
     10.2304	  470.00	  313.03	-2075.75	  242.85
     10.2639	  422.00	  312.99	-2075.75	  242.80
     10.2973	  416.00	  312.94	-2075.75	  242.76
     10.3307	  398.00	  312.90	-2075.75	  242.72
     10.3641	  439.00	  312.86	-2075.75	  242.67
     10.3976	  445.00	  312.81	-2075.75	  242.63
     10.4310	  442.00	  312.77	-2075.75	  242.59
     10.4644	  439.00	  312.72	-2075.75	  242.54
     10.4978	  428.00	  312.68	-2075.75	  242.50
     10.5312	  428.00	  312.64	-2075.75	  242.45
     10.5647	  434.00	  312.59	-2075.75	  242.41
     10.5981	  445.00	  312.55	-2075.75	  242.37
     10.6315	  427.00	  312.51	-2075.75	  242.32
     10.6649	  413.00	  312.46	-2075.75	  242.28
     10.6984	  395.00	  312.42	-2075.75	  242.24
     10.7318	  429.00	  312.38	-2075.75	  242.20
     10.7652	  412.00	  312.33	-2075.75	  242.15
     10.7986	  397.00	  312.29	-2075.75	  242.11
     10.8321	  461.00	  312.25	-2075.75	  242.07
     10.8655	  419.00	  312.21	-2075.75	  242.02
     10.8989	  391.00	  312.16	-2075.75	  241.98
     10.9323	  422.00	  312.12	-2075.75	  241.94
     10.9657	  392.00	  312.08	-2075.75	  241.90
     10.9992	  381.00	  312.04	-2075.75	  241.85
     11.0326	  397.00	  311.99	-2075.75	  241.81
     11.0660	  411.00	  311.95	-2075.75	  241.77
     11.0994	  385.00	  311.91	-2075.75	  241.73
     11.1329	  419.00	  311.87	-2075.75	  241.68
     11.1663	  390.00	  311.82	-2075.75	  241.64
     11.1997	  434.00	  311.78	-2075.75	  241.60
     11.2331	  436.00	  311.74	-2075.75	  241.56
     11.2665	  392.00	  311.70	-2075.75	  241.52
     11.3000	  418.00	  311.66	-2075.75	  241.47
     11.3334	  424.00	  311.61	-2075.75	  241.43
     11.3668	  400.00	  311.57	-2075.75	  241.39
     11.4002	  436.00	  311.53	-2075.75	  241.35
     11.4337	  402.00	  311.49	-2075.75	  241.31
     11.4671	  396.00	  311.45	-2075.75	  241.26
     11.5005	  379.00	  311.41	-2075.75	  241.22
     11.5339	  420.00	  311.36	-2075.75	  241.18
     11.5673	  410.00	  311.32	-2075.75	  241.14
     11.6008	  402.00	  311.28	-2075.75	  241.10
     11.6342	  406.00	  311.24	-2075.75	  241.06
     11.6676	  411.00	  311.20	-2075.75	  241.02
     11.7010	  402.00	  311.16	-2075.75	  240.97
     11.7345	  378.00	  311.12	-2075.75	  240.93
     11.7679	  412.00	  311.07	-2075.75	  240.89
     11.8013	  388.00	  311.03	-2075.75	  240.85
     11.8347	  382.00	  310.99	-2075.75	  240.81
     11.8682	  384.00	  310.95	-2075.75	  240.77
     11.9016	  378.00	  310.91	-2075.75	  240.73
     11.9350	  394.00	  310.87	-2075.75	  240.69
     11.9684	  383.00	  310.83	-2075.75	  240.65
     12.0018	  366.00	  310.79	-2075.75	  240.61
     12.0353	  409.00	  310.75	-2075.75	  240.57
     12.0687	  399.00	  310.71	-2075.75	  240.53
     12.1021	  351.00	  310.67	-2075.75	  240.49
     12.1355	  385.00	  310.63	-2075.75	  240.44
     12.1690	  395.00	  310.59	-2075.75	  240.40
     12.2024	  390.00	  310.55	-2075.75	  240.36
     12.2358	  424.00	  310.51	-2075.75	  240.32
     12.2692	  416.00	  310.47	-2075.75	  240.28
     12.3026	  400.00	  310.43	-2075.75	  240.24
     12.3361	  397.00	  310.39	-2075.75	  240.20
     12.3695	  418.00	  310.35	-2075.75	  240.16
     12.4029	  388.00	  310.31	-2075.75	  240.12
     12.4363	  360.00	  310.27	-2075.75	  240.08
     12.4698	  350.00	  310.23	-2075.75	  240.04
     12.5032	  332.00	  310.19	-2075.75	  240.00
     12.5366	  349.00	  310.15	-2075.75	  239.97
     12.5700	  354.00	  310.11	-2075.75	  239.93
     12.6034	  362.00	  310.07	-2075.75	  239.89
     12.6369	  410.00	  310.03	-2075.75	  239.85
     12.6703	  371.00	  309.99	-2075.75	  239.81
     12.7037	  397.00	  309.95	-2075.75	  239.77
     12.7371	  353.00	  309.91	-2075.75	  239.73
     12.7706	  363.00	  309.87	-2075.75	  239.69
     12.8040	  388.00	  309.83	-2075.75	  239.65
     12.8374	  326.00	  309.79	-2075.75	  239.61
     12.8708	  384.00	  309.75	-2075.75	  239.57
     12.9042	  364.00	  309.72	-2075.75	  239.53
     12.9377	  409.00	  309.68	-2075.75	  239.49
     12.9711	  386.00	  309.64	-2075.75	  239.46
     13.0045	  361.00	  309.60	-2075.75	  239.42
     13.0379	  384.00	  309.56	-2075.75	  239.38
     13.0714	  413.00	  309.52	-2075.75	  239.34
     13.1048	  409.00	  309.48	-2075.75	  239.30
     13.1382	  367.00	  309.45	-2075.75	  239.26
     13.1716	  426.00	  309.41	-2075.75	  239.22
     13.2051	  383.00	  309.37	-2075.75	  239.19
     13.2385	  374.00	  309.33	-2075.75	  239.15
     13.2719	  380.00	  309.29	-2075.75	  239.11
     13.3053	  366.00	  309.25	-2075.75	  239.07
     13.3387	  399.00	  309.22	-2075.75	  239.03
     13.3722	  332.00	  309.18	-2075.75	  239.00
     13.4056	  351.00	  309.14	-2075.75	  238.96
     13.4390	  375.00	  309.10	-2075.75	  238.92
     13.4724	  377.00	  309.06	-2075.75	  238.88
     13.5059	  393.00	  309.03	-2075.75	  238.84
     13.5393	  359.00	  308.99	-2075.75	  238.81
     13.5727	  410.00	  308.95	-2075.75	  238.77
     13.6061	  374.00	  308.91	-2075.75	  238.73
     13.6395	  380.00	  308.87	-2075.75	  238.69
     13.6730	  371.00	  308.84	-2075.75	  238.66
     13.7064	  350.00	  308.80	-2075.75	  238.62
     13.7398	  389.00	  308.76	-2075.75	  238.58
     13.7732	  374.00	  308.73	-2075.75	  238.54
     13.8067	  354.00	  308.69	-2075.75	  238.51
     13.8401	  369.00	  308.65	-2075.75	  238.47
     13.8735	  368.00	  308.61	-2075.75	  238.43
     13.9069	  384.00	  308.58	-2075.75	  238.39
     13.9403	  341.00	  308.54	-2075.75	  238.36
     13.9738	  366.00	  308.50	-2075.75	  238.32
     14.0072	  381.00	  308.47	-2075.75	  238.28
     14.0406	  394.00	  308.43	-2075.75	  238.25
     14.0740	  403.00	  308.39	-2075.75	  238.21
     14.1075	  381.00	  308.36	-2075.75	  238.17
     14.1409	  348.00	  308.32	-2075.75	  238.14
     14.1743	  364.00	  308.28	-2075.75	  238.10
     14.2077	  331.00	  308.25	-2075.75	  238.06
     14.2412	  371.00	  308.21	-2075.75	  238.03
     14.2746	  385.00	  308.17	-2075.75	  237.99
     14.3080	  398.00	  308.14	-2075.75	  237.95
     14.3414	  361.00	  308.10	-2075.75	  237.92
     14.3748	  354.00	  308.06	-2075.75	  237.88
     14.4083	  362.00	  308.03	-2075.75	  237.84
     14.4417	  377.00	  307.99	-2075.75	  237.81
     14.4751	  364.00	  307.95	-2075.75	  237.77
     14.5085	  341.00	  307.92	-2075.75	  237.74
     14.5420	  359.00	  307.88	-2075.75	  237.70
     14.5754	  351.00	  307.85	-2075.75	  237.66
     14.6088	  350.00	  307.81	-2075.75	  237.63
     14.6422	  338.00	  307.78	-2075.75	  237.59
     14.6756	  339.00	  307.74	-2075.75	  237.56
     14.7091	  337.00	  307.70	-2075.75	  237.52
     14.7425	  342.00	  307.67	-2075.75	  237.49
     14.7759	  341.00	  307.63	-2075.75	  237.45
     14.8093	  390.00	  307.60	-2075.75	  237.41
     14.8428	  331.00	  307.56	-2075.75	  237.38
     14.8762	  335.00	  307.53	-2075.75	  237.34
     14.9096	  360.00	  307.49	-2075.75	  237.31
     14.9430	  335.00	  307.46	-2075.75	  237.27
     14.9764	  319.00	  307.42	-2075.75	  237.24
     15.0099	  355.00	  307.39	-2028.14	  237.20
     15.0433	  340.00	  307.81	-2043.56	  237.17
     15.0767	  348.00	  307.79	-2035.54	  237.13
     15.1101	  357.00	  307.76	-2026.51	  237.10
     15.1436	  357.00	  307.74	-2026.49	  237.06
     15.1770	  310.00	  307.72	-2073.47	  237.03
     15.2104	  339.00	  307.70	-2044.45	  236.99
     15.2438	  322.00	  307.68	-2061.43	  236.96
     15.2772	  341.00	  307.66	-2042.41	  236.92
     15.3107	  336.00	  307.65	-2047.40	  236.89
     15.3441	  339.00	  307.63	-2044.38	  236.85
     15.3775	  360.00	  307.61	-2023.36	  236.82
     15.4109	  314.00	  307.60	-2069.35	  236.79
     15.4444	  339.00	  307.58	-2044.33	  236.75
     15.4778	  349.00	  307.57	-2034.32	  236.72
     15.5112	  349.00	  307.56	-2034.31	  236.68
     15.5446	  311.00	  307.55	-2072.30	  236.65
     15.5781	  348.00	  307.54	-2035.29	  236.61
     15.6115	  310.00	  307.53	-2073.28	  236.58
     15.6449	  362.00	  307.52	-2021.27	  236.55
     15.6783	  363.00	  307.52	-2020.27	  236.51
     15.7117	  376.00	  307.51	-2007.26	  236.48
     15.7452	  398.00	  307.51	-1985.26	  236.44
     15.7786	  357.00	  307.51	-2026.26	  236.41
     15.8120	  343.00	  307.51	-2040.26	  236.38
     15.8454	  325.00	  307.52	-2058.27	  236.34
     15.8789	  321.00	  307.52	-2062.27	  236.31
     15.9123	  381.00	  307.53	-2002.28	  236.28
     15.9457	  293.00	  307.55	-2090.30	  236.24
     15.9791	  284.00	  307.56	-2099.31	  236.21
     16.0125	  325.00	  307.58	-2058.33	  236.18
     16.0460	  317.00	  307.60	-2066.35	  236.14
     16.0794	  373.00	  307.62	-2010.37	  236.11
     16.1128	  300.00	  307.65	-2083.40	  236.08
     16.1462	  330.00	  307.69	-2053.44	  236.04
     16.1797	  334.00	  307.73	-2049.48	  236.01
     16.2131	  311.00	  307.77	-2072.52	  235.98
     16.2465	  356.00	  307.82	-2027.57	  235.94
     16.2799	  354.00	  307.88	-2029.63	  235.91
     16.3133	  356.00	  307.94	-2027.69	  235.88
     16.3468	  326.00	  308.02	-2057.77	  235.84
     16.3802	  287.00	  308.10	-2096.85	  235.81
     16.4136	  342.00	  308.19	-2041.94	  235.78
     16.4470	  334.00	  308.30	-2050.05	  235.75
     16.4805	  332.00	  308.41	-2052.16	  235.71
     16.5139	  306.00	  308.55	-2078.30	  235.68
     16.5473	  310.00	  308.70	-2074.45	  235.65
     16.5807	  299.00	  308.86	-2085.61	  235.62
     16.6142	  331.00	  309.05	-2053.80	  235.58
     16.6476	  339.00	  309.27	-2046.02	  235.55
     16.6810	  338.00	  309.51	-2047.26	  235.52
     16.7144	  296.00	  309.79	-2089.54	  235.49
     16.7478	  318.00	  310.10	-2067.85	  235.45
     16.7813	  324.00	  310.46	-2062.21	  235.42
     16.8147	  335.00	  310.88	-2051.63	  235.39
     16.8481	  331.00	  311.36	-2056.11	  235.36
     16.8815	  335.00	  311.92	-2052.67	  235.33
     16.9150	  276.00	  312.57	-2112.32	  235.29
     16.9484	  325.00	  313.34	-2064.09	  235.26
     16.9818	  339.00	  314.25	-2051.00	  235.23
     17.0152	  334.00	  315.34	-2057.09	  235.20
     17.0486	  355.00	  316.65	-2037.40	  235.17
     17.0821	  336.00	  318.25	-2058.00	  235.13
     17.1155	  290.00	  320.23	-2105.98	  235.10
     17.1489	  318.00	  322.70	-2080.45	  235.07
     17.1823	  289.00	  325.86	-2112.61	  235.04
     17.2158	  325.00	  329.96	-2080.71	  235.01
     17.2492	  323.00	  335.46	-2088.21	  234.98
     17.2826	  342.00	  343.24	-2076.99	  234.95
     17.3160	  342.00	  355.17	-2088.92	  234.91
     17.3494	  322.00	  375.18	-2128.93	  234.88
     17.3829	  380.00	  410.40	-2106.15	  234.85
     17.4163	  407.00	  470.80	-2139.55	  234.82
     17.4497	  439.00	  565.08	-2201.83	  234.79
     17.4831	  582.00	  689.92	-2183.67	  234.76
     17.5166	  593.00	  808.74	-2291.49	  234.73
     17.5500	  687.00	  849.87	-2238.62	  234.70
     17.5834	  661.00	  785.97	-2200.72	  234.67
     17.6168	  541.00	  664.34	-2199.09	  234.64
     17.6502	  434.00	  545.60	-2187.35	  234.61
     17.6837	  403.00	  458.26	-2131.01	  234.57
     17.7171	  390.00	  403.06	-2088.81	  234.54
     17.7505	  352.00	  370.92	-2094.67	  234.51
     17.7839	  341.00	  352.46	-2087.21	  234.48
     17.8174	  293.00	  341.27	-2124.02	  234.45
     17.8508	  306.00	  333.86	-2103.61	  234.42
     17.8842	  349.00	  328.56	-2055.31	  234.39
     17.9176	  354.00	  324.58	-2046.33	  234.36
     17.9511	  332.00	  321.49	-2065.24	  234.33
     17.9845	  321.00	  319.05	-2073.80	  234.30
     18.0179	  283.00	  317.08	-2109.83	  234.27
     18.0513	  322.00	  315.48	-2069.23	  234.24
     18.0847	  343.00	  314.14	-2046.89	  234.21
     18.1182	  323.00	  313.03	-2065.78	  234.18
     18.1516	  320.00	  312.08	-2067.83	  234.15
     18.1850	  322.00	  311.27	-2065.02	  234.12
     18.2184	  334.00	  310.58	-2052.33	  234.09
     18.2519	  335.00	  309.97	-2050.72	  234.06
     18.2853	  305.00	  309.44	-2080.19	  234.03
     18.3187	  319.00	  308.97	-2065.72	  234.00
     18.3521	  298.00	  308.56	-2086.31	  233.97
     18.3855	  292.00	  308.19	-2091.94	  233.94
     18.4190	  278.00	  307.85	-2105.60	  233.91
     18.4524	  297.00	  307.56	-2086.31	  233.88
     18.4858	  321.00	  307.28	-2062.03	  233.85
     18.5192	  321.00	  307.04	-2061.79	  233.82
     18.5527	  309.00	  306.81	-2073.56	  233.80
     18.5861	  284.00	  306.60	-2098.35	  233.77
     18.6195	  279.00	  306.41	-2103.16	  233.74
     18.6529	  309.00	  306.23	-2072.98	  233.71
     18.6863	  295.00	  306.07	-2086.82	  233.68
     18.7198	  294.00	  305.92	-2087.67	  233.65
     18.7532	  296.00	  305.78	-2085.53	  233.62
     18.7866	  324.00	  305.64	-2057.39	  233.59
     18.8200	  294.00	  305.52	-2087.27	  233.56
     18.8535	  292.00	  305.40	-2089.15	  233.53
     18.8869	  278.00	  305.29	-2103.04	  233.51
     18.9203	  294.00	  305.18	-2086.93	  233.48
     18.9537	  283.00	  305.08	-2097.83	  233.45
     18.9872	  288.00	  304.99	-2092.74	  233.42
     19.0206	  300.00	  304.90	-2080.65	  233.39
     19.0540	  290.00	  304.81	-2090.56	  233.36
     19.0874	  282.00	  304.73	-2098.48	  233.33
     19.1208	  305.00	  304.65	-2075.40	  233.31
     19.1543	  364.00	  304.57	-2016.32	  233.28
     19.1877	  306.00	  304.50	-2074.25	  233.25
     19.2211	  296.00	  304.43	-2084.18	  233.22
     19.2545	  309.00	  304.36	-2071.11	  233.19
     19.2880	  267.00	  304.30	-2113.05	  233.16
     19.3214	  330.00	  304.23	-2049.98	  233.14
     19.3548	  280.00	  304.17	-2099.92	  233.11
     19.3882	  314.00	  304.11	-2065.86	  233.08
     19.4216	  300.00	  304.05	-2079.80	  233.05
     19.4551	  291.00	  304.00	-2088.75	  233.02
     19.4885	  307.00	  303.94	-2072.69	  233.00
     19.5219	  337.00	  303.89	-2042.64	  232.97
     19.5553	  302.00	  303.84	-2077.59	  232.94
     19.5888	  313.00	  303.79	-2066.54	  232.91
     19.6222	  328.00	  303.74	-2051.49	  232.89
     19.6556	  269.00	  303.69	-2110.44	  232.86
     19.6890	  300.00	  303.64	-2079.39	  232.83
     19.7224	  287.00	  303.59	-2092.34	  232.80
     19.7559	  264.00	  303.55	-2115.30	  232.78
     19.7893	  308.00	  303.50	-2071.25	  232.75
     19.8227	  288.00	  303.46	-2091.21	  232.72
     19.8561	  303.00	  303.42	-2076.17	  232.69
     19.8896	  285.00	  303.37	-2094.12	  232.67
     19.9230	  285.00	  303.33	-2094.08	  232.64
     19.9564	  313.00	  303.29	-2066.04	  232.61
     19.9898	  281.00	  303.25	-2098.00	  232.58
     20.0233	  305.00	  303.21	-2073.96	  232.56
     20.0567	  273.00	  303.17	-2105.92	  232.53
     20.0901	  314.00	  303.13	-2064.88	  232.50
     20.1235	  265.00	  303.09	-2113.84	  232.48
     20.1569	  248.00	  303.37	-2131.12	  232.45
     20.1904	  297.00	  303.34	-2082.09	  232.42
     20.2238	  269.00	  303.47	-2110.22	  232.40
     20.2572	  280.00	  303.44	-2099.19	  232.37
     20.2906	  309.00	  303.41	-2070.16	  232.34
     20.3241	  318.00	  303.38	-2061.13	  232.32
     20.3575	  282.00	  303.36	-2097.11	  232.29
     20.3909	  297.00	  303.33	-2082.08	  232.26
     20.4243	  281.00	  303.31	-2098.06	  232.24
     20.4577	  277.00	  303.28	-2102.03	  232.21
     20.4912	  276.00	  303.26	-2103.01	  232.18
     20.5246	  321.00	  303.24	-2057.99	  232.16
     20.5580	  295.00	  303.42	-2084.17	  232.13
     20.5914	  298.00	  303.40	-2081.15	  232.11
     20.6249	  293.00	  303.49	-2086.24	  232.08
     20.6583	  275.00	  303.47	-2104.22	  232.05
     20.6917	  294.00	  303.46	-2085.21	  232.03
     20.7251	  280.00	  303.44	-2099.19	  232.00
     20.7585	  299.00	  303.43	-2080.18	  231.98
     20.7920	  306.00	  303.42	-2073.17	  231.95
     20.8254	  273.00	  303.40	-2106.15	  231.92
     20.8588	  273.00	  303.39	-2106.14	  231.90
     20.8922	  298.00	  303.38	-2081.13	  231.87
     20.9257	  299.00	  303.37	-2080.12	  231.85
     20.9591	  267.00	  303.37	-2112.12	  231.82
     20.9925	  292.00	  303.36	-2087.11	  231.79
     21.0259	  295.00	  303.35	-2084.10	  231.77
     21.0593	  336.00	  303.34	-2043.09	  231.74
     21.0928	  296.00	  303.34	-2083.09	  231.72
     21.1262	  279.00	  303.34	-2100.09	  231.69
     21.1596	  257.00	  303.33	-2122.08	  231.67
     21.1930	  270.00	  303.33	-2109.08	  231.64
     21.2265	  312.00	  303.33	-2067.08	  231.62
     21.2599	  330.00	  303.33	-2049.08	  231.59
     21.2933	  306.00	  303.33	-2073.08	  231.57
     21.3267	  323.00	  303.33	-2056.08	  231.54
     21.3602	  325.00	  303.34	-2054.09	  231.52
     21.3936	  282.00	  303.34	-2097.09	  231.49
     21.4270	  292.00	  303.35	-2087.10	  231.47
     21.4604	  259.00	  303.36	-2120.11	  231.44
     21.4938	  276.00	  303.36	-2103.11	  231.42
     21.5273	  276.00	  303.37	-2103.12	  231.39
     21.5607	  292.00	  303.21	-2086.96	  231.37
     21.5941	  290.00	  303.22	-2088.97	  231.34
     21.6275	  321.00	  303.24	-2057.99	  231.32
     21.6610	  265.00	  303.26	-2114.01	  231.29
     21.6944	  312.00	  303.28	-2067.03	  231.27
     21.7278	  328.00	  303.31	-2051.06	  231.24
     21.7612	  294.00	  303.33	-2085.08	  231.22
     21.7946	  306.00	  303.36	-2073.11	  231.19
     21.8281	  308.00	  303.39	-2071.14	  231.17
     21.8615	  335.00	  303.42	-2044.17	  231.15
     21.8949	  352.00	  303.46	-2027.21	  231.12
     21.9283	  351.00	  303.49	-2028.24	  231.10
     21.9618	  333.00	  303.53	-2046.28	  231.07
     21.9952	  288.00	  303.58	-2091.33	  231.05
     22.0286	  323.00	  303.62	-2056.37	  231.02
     22.0620	  322.00	  303.67	-2057.42	  231.00
     22.0954	  281.00	  303.72	-2098.47	  230.98
     22.1289	  298.00	  303.78	-2081.53	  230.95
     22.1623	  275.00	  303.84	-2104.59	  230.93
     22.1957	  293.00	  303.90	-2086.65	  230.90
     22.2291	  306.00	  303.97	-2073.72	  230.88
     22.2626	  297.00	  304.05	-2082.80	  230.86
     22.2960	  282.00	  304.12	-2097.87	  230.83
     22.3294	  322.00	  304.21	-2057.96	  230.81
     22.3628	  306.00	  304.30	-2074.05	  230.79
     22.3962	  302.00	  304.39	-2078.14	  230.76
     22.4297	  292.00	  304.49	-2088.24	  230.74
     22.4631	  295.00	  304.60	-2085.35	  230.71
     22.4965	  330.00	  304.72	-2050.47	  230.69
     22.5299	  306.00	  304.85	-2074.60	  230.67
     22.5634	  296.00	  304.98	-2084.73	  230.64
     22.5968	  324.00	  305.12	-2056.87	  230.62
     22.6302	  274.00	  305.28	-2107.03	  230.60
     22.6636	  289.00	  305.44	-2092.19	  230.57
     22.6971	  299.00	  305.62	-2082.37	  230.55
     22.7305	  324.00	  305.81	-2057.56	  230.53
     22.7639	  314.00	  306.02	-2067.77	  230.50
     22.7973	  326.00	  306.24	-2055.99	  230.48
     22.8307	  276.00	  306.48	-2106.23	  230.46
     22.8642	  302.00	  306.73	-2080.48	  230.44
     22.8976	  304.00	  307.01	-2078.76	  230.41
     22.9310	  339.00	  307.32	-2044.07	  230.39
     22.9644	  296.00	  307.64	-2087.39	  230.37
     22.9979	  291.00	  308.00	-2092.75	  230.34
     23.0313	  306.00	  308.39	-2078.14	  230.32
     23.0647	  288.00	  308.81	-2096.56	  230.30
     23.0981	  282.00	  309.28	-2103.03	  230.28
     23.1315	  326.00	  309.79	-2059.54	  230.25
     23.1650	  302.00	  310.35	-2084.10	  230.23
     23.1984	  326.00	  310.96	-2060.71	  230.21
     23.2318	  310.00	  311.64	-2077.39	  230.18
     23.2652	  335.00	  312.40	-2053.15	  230.16
     23.2987	  348.00	  313.24	-2040.99	  230.14
     23.3321	  379.00	  314.18	-2010.93	  230.12
     23.3655	  330.00	  315.23	-2060.98	  230.10
     23.3989	  320.00	  316.41	-2072.16	  230.07
     23.4323	  316.00	  317.75	-2077.50	  230.05
     23.4658	  342.00	  319.28	-2053.03	  230.03
     23.4992	  363.00	  321.02	-2033.77	  230.01
     23.5326	  313.00	  323.03	-2085.78	  229.98
     23.5660	  332.00	  325.35	-2069.10	  229.96
     23.5995	  343.00	  328.07	-2060.82	  229.94
     23.6329	  365.00	  331.27	-2042.02	  229.92
     23.6663	  366.00	  335.08	-2044.83	  229.90
     23.6997	  343.00	  339.67	-2072.42	  229.87
     23.7332	  364.00	  345.25	-2057.00	  229.85
     23.7666	  359.00	  352.15	-2068.90	  229.83
     23.8000	  351.00	  360.81	-2085.56	  229.81
     23.8334	  391.00	  371.94	-2056.69	  229.79
     23.8668	  391.00	  386.70	-2071.45	  229.77
     23.9003	  388.00	  407.37	-2095.12	  229.74
     23.9337	  428.00	  438.56	-2086.31	  229.72
     23.9671	  451.00	  489.20	-2113.95	  229.70
     24.0005	  536.00	  574.19	-2113.94	  229.68
     24.0340	  713.00	  712.87	-2075.62	  229.66
     24.0674	  915.00	  920.84	-2081.59	  229.64
     24.1008	 1169.00	 1189.33	-2096.08	  229.61
     24.1342	 1532.00	 1443.93	-1987.68	  229.59
     24.1676	 1595.00	 1549.02	-2029.77	  229.57
     24.2011	 1555.00	 1459.14	-1979.89	  229.55
     24.2345	 1278.00	 1241.58	-2039.33	  229.53
     24.2679	  947.00	  994.89	-2123.64	  229.51
     24.3013	  793.00	  793.37	-2076.12	  229.49
     24.3348	  627.00	  664.51	-2113.26	  229.47
     24.3682	  605.00	  600.37	-2071.12	  229.45
     24.4016	  575.00	  592.56	-2093.31	  229.42
     24.4350	  661.00	  637.92	-2052.67	  229.40
     24.4684	  753.00	  738.13	-2060.88	  229.38
     24.5019	  958.00	  888.10	-2005.85	  229.36
     24.5353	 1166.00	 1050.62	-1960.37	  229.34
     24.5687	 1345.00	 1140.39	-1871.14	  229.32
     24.6021	 1214.00	 1103.64	-1965.39	  229.30
     24.6356	 1139.00	  970.99	-1907.74	  229.28
     24.6690	  856.00	  799.84	-2019.59	  229.26
     24.7024	  653.00	  646.97	-2069.72	  229.24
     24.7358	  531.00	  536.18	-2080.93	  229.22
     24.7692	  450.00	  464.41	-2090.16	  229.20
     24.8027	  419.00	  420.31	-2077.06	  229.18
     24.8361	  393.00	  393.19	-2075.94	  229.16
     24.8695	  410.00	  375.66	-2041.41	  229.13
     24.9029	  349.00	  363.49	-2090.24	  229.11
     24.9364	  343.00	  354.49	-2087.24	  229.09
     24.9698	  336.00	  347.55	-2087.30	  229.07
     25.0032	  330.00	  342.05	-2087.80	  229.05
     25.0366	  335.00	  337.60	-2078.35	  229.03
     25.0701	  375.00	  333.95	-2034.70	  229.01
     25.1035	  342.00	  330.92	-2064.67	  228.99
     25.1369	  345.00	  328.38	-2059.13	  228.97
     25.1703	  307.00	  326.23	-2094.98	  228.95
     25.2037	  319.00	  324.40	-2081.15	  228.93
     25.2372	  319.00	  322.83	-2079.58	  228.91
     25.2706	  314.00	  321.47	-2083.22	  228.89
     25.3040	  311.00	  320.29	-2085.04	  228.87
     25.3374	  259.00	  319.27	-2136.02	  228.85
     25.3709	  322.00	  318.38	-2072.13	  228.83
     25.4043	  307.00	  317.60	-2086.35	  228.81
     25.4377	  332.00	  316.91	-2060.66	  228.79
     25.4711	  341.00	  316.32	-2051.07	  228.77
     25.5045	  336.00	  315.79	-2055.54	  228.75
     25.5380	  308.00	  315.34	-2083.09	  228.74
     25.5714	  314.00	  314.94	-2076.69	  228.72
     25.6048	  334.00	  314.60	-2056.35	  228.70
     25.6382	  310.00	  314.31	-2080.06	  228.68
     25.6717	  295.00	  314.06	-2094.81	  228.66
     25.7051	  291.00	  313.85	-2098.60	  228.64
     25.7385	  303.00	  313.68	-2086.43	  228.62
     25.7719	  307.00	  313.54	-2082.29	  228.60
     25.8053	  322.00	  313.44	-2067.19	  228.58
     25.8388	  289.00	  313.37	-2100.12	  228.56
     25.8722	  332.00	  313.32	-2057.07	  228.54
     25.9056	  312.00	  313.31	-2077.06	  228.52
     25.9390	  316.00	  313.32	-2073.07	  228.50
     25.9725	  283.00	  313.36	-2106.11	  228.48
     26.0059	  287.00	  313.43	-2102.18	  228.47
     26.0393	  312.00	  313.51	-2077.26	  228.45
     26.0727	  308.00	  313.63	-2081.38	  228.43
     26.1062	  307.00	  313.77	-2082.52	  228.41
     26.1396	  265.00	  313.93	-2124.68	  228.39
     26.1730	  285.00	  314.12	-2104.87	  228.37
     26.2064	  294.00	  314.34	-2096.09	  228.35
     26.2398	  303.00	  314.58	-2087.33	  228.33
     26.2733	  296.00	  314.85	-2094.60	  228.31
     26.3067	  298.00	  315.14	-2092.89	  228.30
     26.3401	  298.00	  315.47	-2093.22	  228.28
     26.3735	  320.00	  315.82	-2071.57	  228.26
     26.4070	  337.00	  316.20	-2054.95	  228.24
     26.4404	  323.00	  316.62	-2069.37	  228.22
     26.4738	  327.00	  317.07	-2065.82	  228.20
     26.5072	  335.00	  317.56	-2058.31	  228.18
     26.5406	  323.00	  318.08	-2070.83	  228.17
     26.5741	  308.00	  318.65	-2086.40	  228.15
     26.6075	  350.00	  319.26	-2045.01	  228.13
     26.6409	  310.00	  319.91	-2085.66	  228.11
     26.6743	  305.00	  320.61	-2091.36	  228.09
     26.7078	  310.00	  321.37	-2087.12	  228.08
     26.7412	  323.00	  322.19	-2074.94	  228.06
     26.7746	  327.00	  323.06	-2071.81	  228.04
     26.8080	  364.00	  324.00	-2035.75	  228.02
     26.8414	  370.00	  325.02	-2030.77	  228.00
     26.8749	  333.00	  326.11	-2068.86	  227.98
     26.9083	  324.00	  327.29	-2079.04	  227.97
     26.9417	  322.00	  328.57	-2082.32	  227.95
     26.9751	  342.00	  329.95	-2063.70	  227.93
     27.0086	  348.00	  331.44	-2059.19	  227.91
     27.0420	  373.00	  333.06	-2035.81	  227.90
     27.0754	  361.00	  334.82	-2049.57	  227.88
     27.1088	  376.00	  336.74	-2036.49	  227.86
     27.1423	  395.00	  338.83	-2019.58	  227.84
     27.1757	  425.00	  341.11	-1991.86	  227.82
     27.2091	  426.00	  343.60	-1993.35	  227.81
     27.2425	  416.00	  346.34	-2006.09	  227.79
     27.2759	  445.00	  349.36	-1980.11	  227.77
     27.3094	  427.00	  352.69	-2001.44	  227.75
     27.3428	  420.00	  356.37	-2012.12	  227.74
     27.3762	  449.00	  360.46	-1987.21	  227.72
     27.4096	  403.00	  365.02	-2037.77	  227.70
     27.4431	  418.00	  370.11	-2027.86	  227.68
     27.4765	  465.00	  375.83	-1986.58	  227.67
     27.5099	  486.00	  383.87	-1973.62	  227.65
     27.5433	  450.00	  391.21	-2016.96	  227.63
     27.5767	  461.00	  399.56	-2014.31	  227.62
     27.6102	  483.00	  409.93	-2002.68	  227.60
     27.6436	  454.00	  420.97	-2042.72	  227.58
     27.6770	  443.00	  433.78	-2066.53	  227.56
     27.7104	  521.00	  448.75	-2003.50	  227.55
     27.7439	  542.00	  466.39	-2000.14	  227.53
     27.7773	  534.00	  487.37	-2029.12	  227.51
     27.8107	  519.00	  512.58	-2069.33	  227.50
     27.8441	  603.00	  543.22	-2015.97	  227.48
     27.8775	  613.00	  580.95	-2043.70	  227.46
     27.9110	  629.00	  628.12	-2074.87	  227.45
     27.9444	  715.00	  688.20	-2048.95	  227.43
     27.9778	  779.00	  766.77	-2063.52	  227.41
     28.0112	  955.00	  873.79	-1994.54	  227.39
     28.0447	 1063.00	 1028.81	-2041.56	  227.38
     28.0781	 1268.00	 1270.13	-2077.88	  227.36
     28.1115	 1675.00	 1665.57	-2066.32	  227.35
     28.1449	 2252.00	 2315.11	-2138.86	  227.33
     28.1783	 3258.00	 3328.81	-2146.56	  227.31
     28.2118	 4556.00	 4761.29	-2281.04	  227.30
     28.2452	 6445.00	 6447.13	-2077.88	  227.28
     28.2786	 7802.00	 7769.00	-2042.75	  227.26
     28.3120	 8303.00	 8018.37	-1791.12	  227.25
     28.3455	 7668.00	 7255.16	-1662.91	  227.23
     28.3789	 6200.00	 5878.79	-1754.54	  227.21
     28.4123	 4566.00	 4341.99	-1851.74	  227.20
     28.4457	 3265.00	 3059.35	-1870.10	  227.18
     28.4792	 2143.00	 2156.08	-2088.83	  227.16
     28.5126	 1610.00	 1575.22	-2040.97	  227.15
     28.5460	 1310.00	 1216.61	-1982.36	  227.13
     28.5794	  956.00	  993.65	-2113.40	  227.12
     28.6128	  854.00	  848.65	-2070.40	  227.10
     28.6463	  756.00	  747.77	-2067.52	  227.08
     28.6797	  643.00	  673.59	-2106.34	  227.07
     28.7131	  628.00	  616.74	-2064.49	  227.05
     28.7465	  570.00	  572.02	-2077.77	  227.04
     28.7800	  495.00	  536.17	-2116.92	  227.02
     28.8134	  472.00	  507.00	-2110.75	  227.00
     28.8468	  506.00	  482.98	-2052.73	  226.99
     28.8802	  440.00	  462.96	-2098.71	  226.97
     28.9136	  443.00	  446.12	-2078.87	  226.96
     28.9471	  480.00	  431.82	-2027.57	  226.94
     28.9805	  469.00	  419.59	-2026.34	  226.93
     29.0139	  373.00	  409.06	-2111.81	  226.91
     29.0473	  419.00	  399.92	-2056.67	  226.89
     29.0808	  446.00	  391.95	-2021.70	  226.88
     29.1142	  360.00	  384.97	-2100.72	  226.86
     29.1476	  381.00	  378.81	-2073.56	  226.85
     29.1810	  398.00	  373.37	-2051.12	  226.83
     29.2144	  362.00	  368.54	-2082.29	  226.82
     29.2479	  350.00	  364.24	-2089.99	  226.80
     29.2813	  424.00	  360.40	-2012.15	  226.79
     29.3147	  411.00	  356.96	-2021.71	  226.77
     29.3481	  379.00	  353.87	-2050.62	  226.75
     29.3816	  434.00	  351.10	-1992.85	  226.74
     29.4150	  379.00	  348.60	-2045.35	  226.72
     29.4484	  385.00	  346.35	-2037.10	  226.71
     29.4818	  340.00	  344.32	-2080.07	  226.69
     29.5152	  322.00	  342.49	-2096.24	  226.68
     29.5487	  327.00	  340.84	-2089.59	  226.66
     29.5821	  365.00	  339.35	-2050.10	  226.65
     29.6155	  359.00	  338.02	-2054.77	  226.63
     29.6489	  348.00	  336.82	-2064.57	  226.62
     29.6824	  362.00	  335.76	-2049.51	  226.60
     29.7158	  353.00	  334.81	-2057.56	  226.59
     29.7492	  345.00	  333.97	-2064.72	  226.57
     29.7826	  337.00	  333.24	-2071.99	  226.56
     29.8161	  388.00	  332.61	-2020.36	  226.54
     29.8495	  347.00	  332.08	-2060.83	  226.53
     29.8829	  339.00	  331.64	-2068.39	  226.51
     29.9163	  345.00	  331.28	-2062.03	  226.50
     29.9497	  367.00	  331.02	-2039.77	  226.49
     29.9832	  352.00	  330.83	-2054.58	  226.47
     30.0166	  364.00	  330.74	-2042.49	  226.46
     30.0500	  346.00	  330.73	-2060.48	  226.44
     30.0834	  342.00	  330.80	-2064.55	  226.43
     30.1169	  353.00	  330.96	-2053.71	  226.41
     30.1503	  320.00	  331.79	-2087.54	  226.40
     30.1837	  342.00	  332.15	-2065.90	  226.38
     30.2171	  379.00	  332.60	-2029.35	  226.37
     30.2505	  392.00	  333.44	-2017.19	  226.35
     30.2840	  361.00	  334.10	-2048.85	  226.34
     30.3174	  392.00	  334.88	-2018.63	  226.33
     30.3508	  394.00	  335.78	-2017.53	  226.31
     30.3842	  420.00	  336.82	-1992.57	  226.30
     30.4177	  393.00	  338.00	-2020.75	  226.28
     30.4511	  400.00	  339.34	-2015.09	  226.27
     30.4845	  434.00	  341.24	-1982.99	  226.25
     30.5179	  421.00	  342.95	-1997.70	  226.24
     30.5513	  426.00	  344.88	-1994.63	  226.23
     30.5848	  383.00	  347.25	-2040.00	  226.21
     30.6182	  395.00	  349.70	-2030.45	  226.20
     30.6516	  407.00	  352.45	-2021.20	  226.18
     30.6850	  380.00	  355.57	-2051.32	  226.17
     30.7185	  396.00	  359.08	-2038.83	  226.16
     30.7519	  390.00	  363.07	-2048.82	  226.14
     30.7853	  413.00	  367.61	-2030.36	  226.13
     30.8187	  438.00	  372.78	-2010.53	  226.11
     30.8522	  408.00	  378.71	-2046.46	  226.10
     30.8856	  433.00	  385.54	-2028.29	  226.09
     30.9190	  470.00	  393.45	-1999.20	  226.07
     30.9524	  471.00	  402.67	-2007.42	  226.06
     30.9858	  459.00	  413.48	-2030.23	  226.05
     31.0193	  463.00	  426.27	-2039.02	  226.03
     31.0527	  490.00	  441.52	-2027.27	  226.02
     31.0861	  497.00	  459.89	-2038.64	  226.00
     31.1195	  521.00	  482.28	-2037.03	  225.99
     31.1530	  553.00	  509.92	-2032.67	  225.98
     31.1864	  541.00	  544.55	-2079.30	  225.96
     31.2198	  565.00	  588.82	-2099.57	  225.95
     31.2532	  685.00	  647.05	-2037.80	  225.94
     31.2866	  772.00	  727.15	-2030.90	  225.92
     31.3201	  937.00	  844.75	-1983.50	  225.91
     31.3535	 1130.00	 1027.71	-1973.46	  225.90
     31.3869	 1435.00	 1324.23	-1964.98	  225.88
     31.4203	 1924.00	 1800.00	-1951.75	  225.87
     31.4538	 2754.00	 2520.12	-1841.87	  225.86
     31.4872	 3747.00	 3501.75	-1830.50	  225.84
     31.5206	 4865.00	 4598.55	-1809.30	  225.83
     31.5540	 5422.00	 5376.17	-2029.92	  225.82
     31.5874	 5591.00	 5447.99	-1932.74	  225.80
     31.6209	 5075.00	 4942.96	-1943.71	  225.79
     31.6543	 4008.00	 4088.36	-2156.11	  225.78
     31.6877	 3142.00	 3106.38	-2040.13	  225.76
     31.7211	 2231.00	 2255.52	-2100.27	  225.75
     31.7546	 1622.00	 1637.49	-2091.24	  225.74
     31.7880	 1237.00	 1228.67	-2067.42	  225.73
     31.8214	 1001.00	  970.10	-2044.85	  225.71
     31.8548	  775.00	  807.17	-2107.92	  225.70
     31.8883	  653.00	  700.91	-2123.66	  225.69
     31.9217	  615.00	  627.38	-2088.13	  225.67
     31.9551	  523.00	  573.56	-2126.31	  225.66
     31.9885	  529.00	  532.48	-2079.23	  225.65
     32.0219	  503.00	  500.18	-2072.93	  225.64
     32.0554	  447.00	  474.31	-2103.06	  225.62
     32.0888	  426.00	  453.26	-2103.01	  225.61
     32.1222	  426.00	  435.92	-2085.67	  225.60
     32.1556	  385.00	  421.48	-2112.23	  225.58
     32.1891	  410.00	  409.33	-2075.08	  225.57
     32.2225	  408.00	  399.03	-2066.78	  225.56
     32.2559	  411.00	  390.22	-2054.97	  225.55
     32.2893	  378.00	  382.65	-2080.40	  225.53
     32.3227	  356.00	  373.90	-2093.65	  225.52
     32.3562	  314.00	  368.23	-2129.98	  225.51
     32.3896	  371.00	  362.18	-2066.93	  225.50
     32.4230	  338.00	  357.85	-2095.60	  225.48
     32.4564	  379.00	  354.04	-2050.79	  225.47
     32.4899	  374.00	  350.68	-2052.43	  225.46
     32.5233	  334.00	  347.72	-2089.47	  225.45
     32.5567	  338.00	  345.09	-2082.84	  225.44
     32.5901	  345.00	  342.76	-2073.51	  225.42
     32.6235	  318.00	  340.70	-2098.45	  225.41
     32.6570	  341.00	  338.88	-2073.63	  225.40
     32.6904	  341.00	  337.27	-2072.02	  225.39
     32.7238	  302.00	  335.86	-2109.61	  225.37
     32.7572	  296.00	  334.62	-2114.37	  225.36
     32.7907	  353.00	  333.54	-2056.29	  225.35
     32.8241	  323.00	  332.62	-2085.37	  225.34
     32.8575	  308.00	  331.83	-2099.58	  225.33
     32.8909	  340.00	  331.18	-2066.93	  225.31
     32.9243	  312.00	  330.66	-2094.41	  225.30
     32.9578	  341.00	  330.25	-2065.00	  225.29
     32.9912	  307.00	  329.97	-2098.72	  225.28
     33.0246	  366.00	  329.80	-2039.55	  225.27
     33.0580	  361.00	  329.76	-2044.51	  225.25
     33.0915	  338.00	  329.83	-2067.58	  225.24
     33.1249	  307.00	  330.02	-2098.77	  225.23
     33.1583	  337.00	  330.34	-2069.08	  225.22
     33.1917	  325.00	  330.78	-2081.53	  225.21
     33.2252	  337.00	  331.37	-2070.12	  225.20
     33.2586	  322.00	  332.11	-2085.86	  225.18
     33.2920	  351.00	  333.01	-2057.76	  225.17
     33.3254	  360.00	  334.08	-2049.83	  225.16
     33.3588	  360.00	  335.35	-2051.10	  225.15
     33.3923	  355.00	  336.84	-2057.59	  225.14
     33.4257	  331.00	  338.58	-2083.33	  225.13
     33.4591	  343.00	  340.60	-2073.35	  225.11
     33.4925	  374.00	  342.95	-2044.70	  225.10
     33.5260	  348.00	  345.67	-2073.42	  225.09
     33.5594	  370.00	  348.84	-2054.59	  225.08
     33.5928	  348.00	  352.54	-2080.29	  225.07
     33.6262	  350.00	  356.87	-2082.62	  225.06
     33.6596	  348.00	  361.97	-2089.72	  225.05
     33.6931	  385.00	  368.01	-2058.76	  225.03
     33.7265	  361.00	  375.22	-2089.97	  225.02
     33.7599	  373.00	  383.92	-2086.67	  225.01
     33.7933	  392.00	  394.52	-2078.27	  225.00
     33.8268	  363.00	  407.62	-2120.37	  224.99
     33.8602	  384.00	  424.06	-2115.81	  224.98
     33.8936	  403.00	  445.24	-2117.99	  224.97
     33.9270	  411.00	  473.52	-2138.27	  224.96
     33.9604	  454.00	  513.44	-2135.19	  224.94
     33.9939	  536.00	  573.32	-2113.07	  224.93
     34.0273	  529.00	  667.36	-2214.11	  224.92
     34.0607	  728.00	  815.91	-2163.66	  224.91
     34.0941	  974.00	 1041.34	-2143.09	  224.90
     34.1276	 1240.00	 1356.68	-2192.43	  224.89
     34.1610	 1524.00	 1736.04	-2287.79	  224.88
     34.1944	 1667.00	 2065.69	-2474.44	  224.87
     34.2278	 1844.00	 2188.79	-2420.54	  224.86
     34.2612	 1783.00	 2101.09	-2393.84	  224.85
     34.2947	 1665.00	 1892.90	-2303.65	  224.84
     34.3281	 1422.00	 1618.57	-2272.32	  224.82
     34.3615	 1275.00	 1365.07	-2165.82	  224.81
     34.3949	 1188.00	 1211.16	-2098.91	  224.80
     34.4284	  997.00	 1183.93	-2262.68	  224.79
     34.4618	 1074.00	 1276.53	-2278.28	  224.78
     34.4952	 1169.00	 1450.48	-2357.23	  224.77
     34.5286	 1314.00	 1610.92	-2372.67	  224.76
     34.5621	 1335.00	 1644.58	-2385.33	  224.75
     34.5955	 1343.00	 1547.85	-2280.60	  224.74
     34.6289	 1225.00	 1374.79	-2225.54	  224.73
     34.6623	  976.00	 1154.28	-2254.03	  224.72
     34.6957	  839.00	  936.33	-2173.08	  224.71
     34.7292	  674.00	  762.72	-2164.47	  224.70
     34.7626	  558.00	  640.68	-2158.43	  224.69
     34.7960	  480.00	  560.39	-2156.14	  224.68
     34.8294	  471.00	  509.26	-2114.01	  224.66
     34.8629	  396.00	  476.85	-2156.60	  224.65
     34.8963	  424.00	  456.10	-2107.85	  224.64
     34.9297	  360.00	  442.89	-2158.64	  224.63
     34.9631	  416.00	  435.03	-2094.78	  224.62
     34.9965	  460.00	  431.54	-2047.29	  224.61
     35.0300	  385.00	  432.13	-2122.88	  224.60
     35.0634	  407.00	  437.05	-2105.80	  224.59
     35.0968	  418.00	  447.27	-2105.02	  224.58
     35.1302	  441.00	  465.01	-2099.76	  224.57
     35.1637	  454.00	  494.70	-2116.45	  224.56
     35.1971	  511.00	  544.30	-2109.05	  224.55
     35.2305	  618.00	  626.07	-2083.82	  224.54
     35.2639	  668.00	  754.99	-2162.74	  224.53
     35.2973	  786.00	  943.36	-2233.11	  224.52
     35.3308	 1129.00	 1186.60	-2133.35	  224.51
     35.3642	 1442.00	 1432.19	-2065.94	  224.50
     35.3976	 1555.00	 1570.33	-2091.08	  224.49
     35.4310	 1587.00	 1547.40	-2036.15	  224.48
     35.4645	 1402.00	 1419.40	-2093.15	  224.47
     35.4979	 1183.00	 1226.02	-2118.77	  224.46
     35.5313	  927.00	 1003.21	-2151.96	  224.45
     35.5647	  706.00	  805.64	-2175.39	  224.44
     35.5982	  588.00	  658.74	-2146.49	  224.43
     35.6316	  532.00	  557.92	-2101.67	  224.42
     35.6650	  451.00	  494.38	-2119.13	  224.41
     35.6984	  410.00	  454.08	-2119.83	  224.40
     35.7318	  367.00	  430.20	-2138.95	  224.39
     35.7653	  414.00	  417.19	-2078.94	  224.38
     35.7987	  395.00	  413.26	-2094.01	  224.37
     35.8321	  442.00	  418.50	-2052.25	  224.36
     35.8655	  451.00	  433.57	-2058.32	  224.35
     35.8990	  454.00	  457.59	-2079.34	  224.34
     35.9324	  499.00	  484.31	-2061.06	  224.33
     35.9658	  529.00	  499.62	-2046.37	  224.32
     35.9992	  514.00	  494.78	-2056.53	  224.31
     36.0326	  518.00	  476.15	-2033.90	  224.30
     36.0661	  507.00	  449.42	-2018.17	  224.30
     36.0995	  449.00	  418.24	-2044.99	  224.29
     36.1329	  414.00	  389.57	-2051.32	  224.28
     36.1663	  359.00	  367.42	-2084.17	  224.27
     36.1998	  327.00	  351.76	-2100.51	  224.26
     36.2332	  319.00	  341.09	-2097.84	  224.25
     36.2666	  347.00	  333.82	-2062.57	  224.24
     36.3000	  348.00	  328.69	-2056.44	  224.23
     36.3335	  347.00	  324.90	-2053.65	  224.22
     36.3669	  357.00	  321.93	-2040.68	  224.21
     36.4003	  308.00	  319.52	-2087.27	  224.20
     36.4337	  285.00	  317.51	-2108.26	  224.19
     36.4671	  317.00	  315.81	-2074.56	  224.18
     36.5006	  335.00	  314.33	-2055.08	  224.17
     36.5340	  324.00	  313.05	-2064.80	  224.16
     36.5674	  307.00	  311.92	-2080.67	  224.15
     36.6008	  287.00	  310.91	-2099.66	  224.15
     36.6343	  303.00	  310.02	-2082.77	  224.14
     36.6677	  327.00	  309.21	-2057.96	  224.13
     36.7011	  318.00	  308.48	-2066.23	  224.12
     36.7345	  310.00	  308.22	-2073.97	  224.11
     36.7679	  359.00	  307.63	-2024.38	  224.10
     36.8014	  290.00	  307.08	-2092.83	  224.09
     36.8348	  267.00	  306.78	-2115.53	  224.08
     36.8682	  294.00	  306.33	-2088.08	  224.07
     36.9016	  308.00	  305.91	-2073.66	  224.06
     36.9351	  299.00	  305.53	-2082.28	  224.05
     36.9685	  313.00	  305.18	-2067.93	  224.05
     37.0019	  311.00	  304.86	-2069.61	  224.04
     37.0353	  314.00	  304.56	-2066.31	  224.03
     37.0687	  295.00	  304.43	-2085.18	  224.02
     37.1022	  304.00	  304.18	-2075.93	  224.01
     37.1356	  296.00	  303.95	-2083.70	  224.00
     37.1690	  324.00	  303.74	-2055.49	  223.99
     37.2024	  317.00	  303.62	-2062.37	  223.98
     37.2359	  292.00	  303.44	-2087.19	  223.97
     37.2693	  255.00	  303.29	-2124.04	  223.97
     37.3027	  308.00	  303.14	-2070.90	  223.96
     37.3361	  267.00	  303.02	-2111.77	  223.95
     37.3695	  296.00	  302.91	-2082.66	  223.94
     37.4030	  292.00	  302.94	-2086.69	  223.93
     37.4364	  331.00	  302.87	-2047.62	  223.92
     37.4698	  312.00	  302.80	-2066.55	  223.91
     37.5032	  282.00	  302.82	-2096.57	  223.91
     37.5367	  291.00	  302.79	-2087.54	  223.90
     37.5701	  277.00	  302.77	-2101.52	  223.89
     37.6035	  296.00	  302.77	-2082.52	  223.88
     37.6369	  314.00	  302.79	-2064.54	  223.87
     37.6703	  309.00	  302.83	-2069.58	  223.86
     37.7038	  288.00	  302.89	-2090.64	  223.85
     37.7372	  303.00	  302.97	-2075.72	  223.85
     37.7706	  290.00	  303.07	-2088.82	  223.84
     37.8040	  300.00	  303.20	-2078.95	  223.83
     37.8375	  279.00	  303.36	-2100.11	  223.82
     37.8709	  294.00	  303.55	-2085.30	  223.81
     37.9043	  295.00	  303.78	-2084.53	  223.80
     37.9377	  299.00	  304.05	-2080.80	  223.79
     37.9712	  318.00	  304.37	-2062.12	  223.79
     38.0046	  304.00	  304.75	-2076.50	  223.78
     38.0380	  342.00	  305.20	-2038.95	  223.77
     38.0714	  332.00	  305.73	-2049.48	  223.76
     38.1048	  328.00	  306.35	-2054.10	  223.75
     38.1383	  349.00	  307.10	-2033.85	  223.75
     38.1717	  294.00	  308.00	-2089.75	  223.74
     38.2051	  303.00	  309.10	-2081.85	  223.73
     38.2385	  302.00	  310.45	-2084.20	  223.72
     38.2720	  323.00	  312.14	-2064.89	  223.71
     38.3054	  311.00	  313.71	-2078.46	  223.70
     38.3388	  324.00	  316.51	-2068.26	  223.70
     38.3722	  364.00	  319.89	-2031.64	  223.69
     38.4056	  279.00	  324.82	-2121.57	  223.68
     38.4391	  335.00	  331.59	-2072.34	  223.67
     38.4725	  366.00	  341.32	-2051.07	  223.66
     38.5059	  351.00	  356.08	-2080.83	  223.66
     38.5393	  379.00	  378.80	-2075.55	  223.65
     38.5728	  433.00	  412.36	-2055.11	  223.64
     38.6062	  534.00	  457.80	-1999.55	  223.63
     38.6396	  639.00	  509.61	-1946.36	  223.62
     38.6730	  695.00	  551.08	-1931.83	  223.62
     38.7064	  747.00	  561.90	-1890.65	  223.61
     38.7399	  698.00	  546.05	-1923.80	  223.60
     38.7733	  725.00	  516.39	-1867.14	  223.59
     38.8067	  561.00	  476.33	-1991.08	  223.58
     38.8401	  508.00	  432.77	-2000.52	  223.58
     38.8736	  460.00	  395.53	-2011.28	  223.57
     38.9070	  407.00	  368.18	-2036.93	  223.56
     38.9404	  402.00	  349.65	-2023.40	  223.55
     38.9738	  369.00	  337.58	-2044.33	  223.55
     39.0072	  325.00	  329.82	-2080.57	  223.54
     39.0407	  284.00	  324.76	-2116.51	  223.53
     39.0741	  292.00	  321.39	-2105.14	  223.52
     39.1075	  348.00	  319.12	-2046.87	  223.51
     39.1409	  291.00	  317.65	-2102.40	  223.51
     39.1744	  287.00	  316.83	-2105.58	  223.50
     39.2078	  314.00	  316.62	-2078.37	  223.49
     39.2412	  295.00	  317.03	-2097.78	  223.48
     39.2746	  350.00	  318.22	-2043.97	  223.48
     39.3081	  277.00	  320.51	-2119.26	  223.47
     39.3415	  326.00	  324.50	-2074.25	  223.46
     39.3749	  310.00	  331.03	-2096.78	  223.45
     39.4083	  340.00	  341.03	-2076.78	  223.45
     39.4417	  320.00	  355.12	-2110.87	  223.44
     39.4752	  359.00	  372.01	-2088.76	  223.43
     39.5086	  434.00	  388.15	-2029.90	  223.42
     39.5420	  417.00	  395.84	-2054.59	  223.42
     39.5754	  405.00	  393.26	-2064.01	  223.41
     39.6089	  391.00	  385.48	-2070.23	  223.40
     39.6423	  376.00	  374.32	-2074.07	  223.39
     39.6757	  375.00	  360.94	-2061.69	  223.39
     39.7091	  340.00	  348.70	-2084.45	  223.38
     39.7425	  327.00	  339.82	-2088.57	  223.37
     39.7760	  291.00	  334.59	-2119.34	  223.36
     39.8094	  311.00	  332.65	-2097.40	  223.36
     39.8428	  298.00	  333.79	-2111.54	  223.35
     39.8762	  326.00	  338.21	-2087.96	  223.34
     39.9097	  299.00	  346.53	-2123.28	  223.33
     39.9431	  304.00	  359.50	-2131.25	  223.33
     39.9765	  350.00	  377.20	-2102.95	  223.32
     40.0099	  348.00	  397.23	-2124.98	  223.31
     40.0434	  341.00	  412.68	-2147.43	  223.31
     40.0768	  386.00	  416.69	-2106.44	  223.30
     40.1102	  363.00	  411.59	-2124.34	  223.29
     40.1436	  356.00	  402.15	-2121.90	  223.28
     40.1770	  341.00	  389.32	-2124.07	  223.28
     40.2105	  343.00	  375.36	-2108.11	  223.27
     40.2439	  379.00	  363.93	-2060.68	  223.26
     40.2773	  345.00	  356.58	-2087.33	  223.26
     40.3107	  334.00	  353.08	-2094.83	  223.25
     40.3442	  338.00	  352.77	-2090.52	  223.24
     40.3776	  341.00	  355.02	-2089.77	  223.23
     40.4110	  374.00	  359.51	-2061.26	  223.23
     40.4444	  341.00	  366.18	-2100.93	  223.22
     40.4778	  386.00	  375.35	-2065.10	  223.21
     40.5113	  381.00	  387.73	-2082.48	  223.21
     40.5447	  451.00	  404.76	-2029.51	  223.20
     40.5781	  463.00	  429.12	-2041.87	  223.19
     40.6115	  421.00	  465.60	-2120.35	  223.19
     40.6450	  426.00	  521.88	-2171.63	  223.18
     40.6784	  535.00	  608.47	-2149.22	  223.17
     40.7118	  633.00	  736.60	-2179.35	  223.16
     40.7452	  849.00	  912.72	-2139.47	  223.16
     40.7786	  972.00	 1123.66	-2227.41	  223.15
     40.8121	 1107.00	 1312.66	-2281.41	  223.14
     40.8455	 1224.00	 1394.63	-2246.38	  223.14
     40.8789	 1257.00	 1358.94	-2177.69	  223.13
     40.9123	 1209.00	 1264.87	-2131.62	  223.12
     40.9458	 1065.00	 1134.30	-2145.05	  223.12
     40.9792	  934.00	  979.02	-2120.77	  223.11
     41.0126	  787.00	  839.87	-2128.62	  223.10
     41.0460	  720.00	  747.49	-2103.24	  223.10
     41.0794	  653.00	  708.68	-2131.43	  223.09
     41.1129	  684.00	  717.60	-2109.35	  223.08
     41.1463	  764.00	  758.31	-2070.06	  223.08
     41.1797	  715.00	  798.85	-2159.60	  223.07
     41.2131	  700.00	  804.60	-2180.35	  223.06
     41.2466	  675.00	  776.60	-2177.35	  223.06
     41.2800	  691.00	  735.84	-2120.59	  223.05
     41.3134	  627.00	  688.08	-2136.83	  223.04
     41.3468	  571.00	  640.77	-2145.52	  223.04
     41.3802	  590.00	  611.64	-2097.39	  223.03
     41.4137	  599.00	  611.77	-2088.52	  223.02
     41.4471	  610.00	  640.56	-2106.31	  223.02
     41.4805	  690.00	  682.84	-2068.59	  223.01
     41.5139	  680.00	  708.80	-2104.55	  223.00
     41.5474	  664.00	  698.19	-2109.94	  223.00
     41.5808	  629.00	  663.17	-2109.92	  222.99
     41.6142	  558.00	  617.04	-2134.79	  222.98
     41.6476	  562.00	  560.08	-2073.83	  222.98
     41.6811	  493.00	  500.07	-2082.82	  222.97
     41.7145	  427.00	  448.71	-2097.46	  222.96
     41.7479	  404.00	  410.15	-2081.90	  222.96
     41.7813	  332.00	  383.01	-2126.76	  222.95
     41.8147	  384.00	  364.41	-2056.16	  222.95
     41.8482	  320.00	  351.63	-2107.38	  222.94
     41.8816	  338.00	  342.60	-2080.35	  222.93
     41.9150	  336.00	  335.92	-2075.67	  222.93
     41.9484	  337.00	  330.77	-2069.52	  222.92
     41.9819	  303.00	  326.64	-2099.39	  222.91
     42.0153	  325.00	  323.26	-2074.01	  222.91
     42.0487	  334.00	  320.44	-2062.19	  222.90
     42.0821	  306.00	  318.05	-2087.80	  222.89
     42.1155	  299.00	  316.00	-2092.75	  222.89
     42.1490	  289.00	  314.23	-2100.98	  222.88
     42.1824	  313.00	  312.69	-2075.44	  222.88
     42.2158	  317.00	  311.34	-2070.09	  222.87
     42.2492	  295.00	  310.15	-2090.90	  222.86
     42.2827	  267.00	  309.09	-2117.84	  222.86
     42.3161	  317.00	  308.15	-2066.90	  222.85
     42.3495	  321.00	  307.30	-2062.05	  222.84
     42.3829	  275.00	  306.54	-2107.29	  222.84
     42.4164	  290.00	  305.85	-2091.60	  222.83
     42.4498	  290.00	  305.22	-2090.97	  222.83
     42.4832	  340.00	  304.66	-2040.41	  222.82
     42.5166	  307.00	  304.14	-2072.89	  222.81
     42.5500	  270.00	  303.67	-2109.42	  222.81
     42.5835	  317.00	  303.23	-2061.98	  222.80
     42.6169	  310.00	  302.84	-2068.59	  222.79
     42.6503	  298.00	  302.48	-2080.23	  222.79
     42.6837	  337.00	  302.14	-2040.89	  222.78
     42.7172	  310.00	  301.84	-2067.59	  222.78
     42.7506	  374.00	  301.55	-2003.30	  222.77
     42.7840	  326.00	  301.30	-2051.04	  222.76
     42.8174	  332.00	  300.97	-2044.72	  222.76
     42.8508	  293.00	  300.75	-2083.50	  222.75
     42.8843	  292.00	  300.55	-2084.30	  222.75
     42.9177	  275.00	  300.32	-2101.07	  222.74
     42.9511	  273.00	  300.16	-2102.91	  222.73
     42.9845	  307.00	  300.01	-2068.76	  222.73
     43.0180	  275.00	  299.87	-2100.62	  222.72
     43.0514	  284.00	  299.75	-2091.50	  222.72
     43.0848	  280.00	  299.64	-2095.39	  222.71
     43.1182	  281.00	  299.55	-2094.30	  222.70
     43.1516	  277.00	  299.46	-2098.21	  222.70
     43.1851	  262.00	  299.39	-2113.14	  222.69
     43.2185	  342.00	  299.33	-2033.08	  222.69
     43.2519	  277.00	  299.29	-2098.04	  222.68
     43.2853	  287.00	  299.25	-2088.00	  222.67
     43.3188	  292.00	  299.23	-2082.98	  222.67
     43.3522	  283.00	  299.22	-2091.97	  222.66
     43.3856	  254.00	  299.23	-2120.98	  222.66
     43.4190	  298.00	  299.25	-2077.00	  222.65
     43.4524	  306.00	  299.28	-2069.03	  222.65
     43.4859	  318.00	  299.34	-2057.09	  222.64
     43.5193	  321.00	  299.41	-2054.16	  222.63
     43.5527	  296.00	  299.50	-2079.25	  222.63
     43.5861	  312.00	  299.63	-2063.38	  222.62
     43.6196	  312.00	  299.78	-2063.53	  222.62
     43.6530	  313.00	  299.96	-2062.71	  222.61
     43.6864	  299.00	  300.24	-2076.99	  222.61
     43.7198	  305.00	  300.62	-2071.37	  222.60
     43.7533	  297.00	  301.15	-2079.90	  222.59
     43.7867	  276.00	  301.91	-2101.66	  222.59
     43.8201	  297.00	  302.93	-2081.68	  222.58
     43.8535	  345.00	  304.17	-2034.92	  222.58
     43.8869	  307.00	  305.42	-2074.17	  222.57
     43.9204	  273.00	  306.26	-2109.01	  222.56
     43.9538	  306.00	  306.49	-2076.24	  222.56
     43.9872	  324.00	  306.38	-2058.13	  222.55
     44.0206	  283.00	  306.15	-2098.90	  222.55
     44.0541	  324.00	  305.79	-2057.54	  222.54
     44.0875	  326.00	  305.40	-2055.15	  222.54
     44.1209	  305.00	  305.17	-2075.92	  222.53
     44.1543	  270.00	  305.19	-2110.94	  222.53
     44.1877	  336.00	  305.44	-2045.19	  222.52
     44.2212	  294.00	  305.95	-2087.70	  222.51
     44.2546	  318.00	  306.68	-2064.43	  222.51
     44.2880	  295.00	  307.59	-2088.34	  222.50
     44.3214	  331.00	  308.73	-2053.48	  222.50
     44.3549	  330.00	  310.10	-2055.85	  222.49
     44.3883	  311.00	  311.76	-2076.51	  222.49
     44.4217	  333.00	  313.77	-2056.52	  222.48
     44.4551	  335.00	  316.21	-2056.96	  222.48
     44.4885	  309.00	  319.23	-2085.98	  222.47
     44.5220	  333.00	  323.01	-2065.76	  222.46
     44.5554	  348.00	  327.87	-2055.62	  222.46
     44.5888	  373.00	  334.35	-2037.10	  222.45
     44.6222	  404.00	  343.42	-2015.17	  222.45
     44.6557	  379.00	  356.73	-2053.48	  222.44
     44.6891	  461.00	  376.85	-1991.60	  222.44
     44.7225	  504.00	  407.16	-1978.91	  222.43
     44.7559	  542.00	  451.27	-1985.02	  222.43
     44.7893	  611.00	  511.22	-1975.97	  222.42
     44.8228	  687.00	  583.11	-1971.86	  222.41
     44.8562	  754.00	  649.11	-1970.86	  222.41
     44.8896	  765.00	  680.61	-1991.36	  222.40
     44.9230	  775.00	  670.84	-1971.59	  222.40
     44.9565	  768.00	  640.41	-1948.16	  222.39
     44.9899	  713.00	  600.93	-1963.68	  222.39
     45.0233	  638.00	  549.78	-1987.53	  222.38
     45.0567	  551.00	  494.35	-2019.10	  222.38
     45.0902	  470.00	  446.49	-2052.24	  222.37
     45.1236	  466.00	  411.27	-2021.02	  222.37
     45.1570	  422.00	  388.22	-2041.97	  222.36
     45.1904	  421.00	  373.72	-2028.47	  222.36
     45.2238	  397.00	  365.94	-2044.69	  222.35
     45.2573	  366.00	  363.18	-2072.93	  222.34
     45.2907	  360.00	  364.86	-2080.61	  222.34
     45.3241	  397.00	  370.43	-2049.18	  222.33
     45.3575	  392.00	  381.67	-2065.43	  222.33
     45.3910	  424.00	  401.00	-2052.75	  222.32
     45.4244	  481.00	  432.21	-2026.96	  222.32
     45.4578	  503.00	  479.80	-2052.55	  222.31
     45.4912	  524.00	  547.62	-2099.37	  222.31
     45.5246	  625.00	  634.48	-2085.23	  222.30
     45.5581	  694.00	  725.57	-2107.32	  222.30
     45.5915	  765.00	  786.38	-2097.13	  222.29
     45.6249	  739.00	  791.22	-2127.97	  222.29
     45.6583	  726.00	  757.58	-2107.33	  222.28
     45.6918	  708.00	  710.24	-2077.99	  222.28
     45.7252	  657.00	  649.27	-2068.02	  222.27
     45.7586	  547.00	  575.82	-2104.57	  222.27
     45.7920	  537.00	  505.29	-2044.04	  222.26
     45.8254	  467.00	  448.70	-2057.45	  222.26
     45.8589	  448.00	  407.49	-2035.24	  222.25
     45.8923	  379.00	  378.95	-2075.70	  222.24
     45.9257	  357.00	  359.58	-2078.33	  222.24
     45.9591	  347.00	  346.36	-2075.11	  222.23
     45.9926	  357.00	  337.09	-2055.84	  222.23
     46.0260	  356.00	  330.93	-2050.68	  222.22
     46.0594	  298.00	  325.76	-2103.51	  222.22
     46.0928	  305.00	  321.70	-2092.45	  222.21
     46.1263	  282.00	  318.42	-2112.17	  222.21
     46.1597	  311.00	  316.05	-2080.80	  222.20
     46.1931	  287.00	  313.82	-2102.57	  222.20
     46.2265	  293.00	  311.96	-2094.71	  222.19
     46.2599	  299.00	  310.38	-2087.13	  222.19
     46.2934	  299.00	  309.03	-2085.78	  222.18
     46.3268	  303.00	  307.87	-2080.62	  222.18
     46.3602	  319.00	  306.87	-2063.62	  222.17
     46.3936	  308.00	  306.00	-2073.75	  222.17
     46.4271	  282.00	  305.24	-2098.99	  222.16
     46.4605	  313.00	  304.91	-2067.66	  222.16
     46.4939	  298.00	  304.33	-2082.08	  222.15
     46.5273	  307.00	  303.82	-2072.57	  222.15
     46.5607	  294.00	  303.37	-2085.12	  222.14
     46.5942	  295.00	  303.14	-2083.89	  222.14
     46.6276	  309.00	  302.79	-2069.54	  222.13
     46.6610	  295.00	  302.48	-2083.23	  222.13
     46.6944	  293.00	  302.21	-2084.96	  222.12
     46.7279	  322.00	  301.98	-2055.73	  222.12
     46.7613	  289.00	  301.77	-2088.52	  222.11
     46.7947	  275.00	  301.59	-2102.34	  222.11
     46.8281	  307.00	  301.43	-2070.18	  222.10
     46.8615	  311.00	  301.30	-2066.05	  222.10
     46.8950	  300.00	  301.19	-2076.94	  222.09
     46.9284	  274.00	  301.09	-2102.84	  222.09
     46.9618	  314.00	  301.02	-2062.77	  222.08
     46.9952	  295.00	  300.96	-2081.71	  222.08
     47.0287	  290.00	  300.92	-2086.67	  222.07
     47.0621	  285.00	  300.89	-2091.64	  222.07
     47.0955	  287.00	  301.02	-2089.77	  222.06
     47.1289	  284.00	  301.03	-2092.78	  222.06
     47.1623	  274.00	  301.05	-2102.80	  222.05
     47.1958	  298.00	  301.08	-2078.83	  222.05
     47.2292	  302.00	  301.20	-2074.95	  222.04
     47.2626	  300.00	  301.26	-2077.01	  222.04
     47.2960	  350.00	  301.33	-2027.08	  222.03
     47.3295	  302.00	  301.42	-2075.17	  222.03
     47.3629	  277.00	  301.52	-2100.27	  222.02
     47.3963	  281.00	  301.63	-2096.38	  222.02
     47.4297	  269.00	  301.76	-2108.51	  222.01
     47.4632	  350.00	  301.90	-2027.65	  222.01
     47.4966	  331.00	  302.05	-2046.80	  222.00
     47.5300	  313.00	  302.22	-2064.97	  222.00
     47.5634	  322.00	  302.40	-2056.15	  221.99
     47.5968	  321.00	  302.60	-2057.35	  221.99
     47.6303	  335.00	  302.82	-2043.57	  221.98
     47.6637	  320.00	  303.06	-2058.81	  221.98
     47.6971	  317.00	  303.31	-2062.06	  221.97
     47.7305	  295.00	  303.58	-2084.33	  221.97
     47.7640	  333.00	  303.88	-2046.63	  221.96
     47.7974	  357.00	  304.19	-2022.94	  221.96
     47.8308	  339.00	  304.53	-2041.28	  221.95
     47.8642	  300.00	  304.90	-2080.65	  221.95
     47.8976	  317.00	  305.29	-2064.04	  221.94
     47.9311	  280.00	  305.71	-2101.46	  221.94
     47.9645	  326.00	  306.16	-2055.91	  221.93
     47.9979	  282.00	  306.65	-2100.40	  221.93
     48.0313	  324.00	  307.18	-2058.93	  221.92
     48.0648	  284.00	  307.75	-2099.50	  221.92
     48.0982	  296.00	  308.36	-2088.11	  221.91
     48.1316	  304.00	  309.02	-2080.77	  221.91
     48.1650	  289.00	  309.74	-2096.49	  221.90
     48.1984	  308.00	  310.52	-2078.27	  221.90
     48.2319	  291.00	  311.37	-2096.12	  221.89
     48.2653	  342.00	  312.30	-2046.05	  221.89
     48.2987	  347.00	  313.31	-2042.06	  221.88
     48.3321	  311.00	  314.42	-2079.17	  221.88
     48.3656	  347.00	  315.64	-2044.39	  221.87
     48.3990	  355.00	  316.99	-2037.74	  221.87
     48.4324	  337.00	  318.48	-2057.23	  221.86
     48.4658	  376.00	  320.15	-2019.90	  221.86
     48.4993	  325.00	  322.01	-2072.76	  221.85
     48.5327	  326.00	  324.10	-2073.85	  221.85
     48.5661	  334.00	  326.46	-2068.21	  221.84
     48.5995	  336.00	  329.15	-2068.90	  221.84
     48.6329	  337.00	  332.25	-2071.00	  221.84
     48.6664	  354.00	  335.84	-2057.59	  221.83
     48.6998	  403.00	  340.07	-2012.82	  221.83
     48.7332	  355.00	  345.17	-2065.92	  221.82
     48.7666	  343.00	  351.46	-2084.21	  221.82
     48.8001	  413.00	  359.48	-2022.23	  221.81
     48.8335	  391.00	  369.96	-2054.71	  221.81
     48.8669	  394.00	  383.81	-2065.56	  221.80
     48.9003	  418.00	  401.97	-2059.72	  221.80
     48.9337	  447.00	  424.97	-2053.72	  221.79
     48.9672	  503.00	  451.89	-2024.64	  221.79
     49.0006	  513.00	  478.98	-2041.73	  221.78
     49.0340	  510.00	  501.89	-2067.64	  221.78
     49.0674	  569.00	  522.85	-2029.60	  221.77
     49.1009	  634.00	  550.79	-1992.54	  221.77
     49.1343	  606.00	  593.46	-2063.21	  221.76
     49.1677	  643.00	  658.41	-2091.16	  221.76
     49.2011	  707.00	  757.47	-2126.22	  221.75
     49.2345	  845.00	  903.70	-2134.45	  221.75
     49.2680	 1131.00	 1102.67	-2047.42	  221.74
     49.3014	 1328.00	 1336.50	-2084.25	  221.74
     49.3348	 1550.00	 1541.13	-2066.88	  221.73
     49.3682	 1703.00	 1626.31	-1999.06	  221.73
     49.4017	 1624.00	 1581.05	-2032.80	  221.72
     49.4351	 1501.00	 1479.96	-2054.71	  221.72
     49.4685	 1393.00	 1362.37	-2045.12	  221.71
     49.5019	 1241.00	 1211.95	-2046.70	  221.71
     49.5354	 1004.00	 1032.95	-2104.70	  221.70
     49.5688	  907.00	  863.41	-2032.16	  221.70
     49.6022	  751.00	  728.13	-2052.88	  221.70
     49.6356	  598.00	  630.22	-2107.97	  221.69
     49.6690	  575.00	  563.37	-2064.12	  221.69
     49.7025	  470.00	  519.67	-2125.42	  221.68
     49.7359	  450.00	  492.27	-2118.02	  221.68
     49.7693	  454.00	  475.92	-2097.67	  221.67
     49.8027	  492.00	  467.80	-2051.55	  221.67
     49.8362	  480.00	  465.98	-2061.73	  221.66
     49.8696	  494.00	  470.19	-2051.94	  221.66
     49.9030	  489.00	  479.99	-2066.74	  221.65
     49.9364	  480.00	  497.29	-2093.04	  221.65
     49.9698	  471.00	  524.83	-2129.58	  221.64
     50.0033	  560.00	  567.87	-2083.62	  221.64
     50.0367	  595.00	  634.10	-2114.85	  221.63
     50.0701	  711.00	  734.39	-2099.14	  221.63
     50.1035	  878.00	  880.41	-2078.16	  221.62
     50.1370	 1114.00	 1080.45	-2042.20	  221.62
     50.1704	 1421.00	 1327.69	-1982.44	  221.61
     50.2038	 1803.00	 1576.50	-1849.25	  221.61
     50.2372	 2103.00	 1733.57	-1706.32	  221.60
     50.2706	 2053.00	 1740.43	-1763.18	  221.60
     50.3041	 1939.00	 1653.20	-1789.95	  221.59
     50.3375	 1678.00	 1544.41	-1942.16	  221.59
     50.3709	 1626.00	 1416.01	-1865.76	  221.58
     50.4043	 1442.00	 1252.78	-1886.53	  221.58
     50.4378	 1113.00	 1085.20	-2047.95	  221.58
     50.4712	  967.00	  955.52	-2064.27	  221.57
     50.5046	  868.00	  883.12	-2090.87	  221.57
     50.5380	  841.00	  871.26	-2106.01	  221.56
     50.5714	  929.00	  915.82	-2062.57	  221.56
     50.6049	 1077.00	 1003.97	-2002.72	  221.55
     50.6383	 1237.00	 1102.82	-1941.57	  221.55
     50.6717	 1235.00	 1157.06	-1997.81	  221.54
     50.7051	 1259.00	 1136.65	-1953.40	  221.54
     50.7386	 1160.00	 1072.62	-1988.37	  221.53
     50.7720	 1109.00	 1000.60	-1967.35	  221.53
     50.8054	 1020.00	  918.36	-1974.11	  221.52
     50.8388	  894.00	  816.68	-1998.43	  221.52
     50.8722	  752.00	  710.40	-2034.15	  221.51
     50.9057	  615.00	  619.18	-2079.93	  221.51
     50.9391	  585.00	  549.91	-2040.66	  221.50
     50.9725	  546.00	  501.03	-2030.78	  221.50
     51.0059	  478.00	  468.50	-2066.25	  221.49
     51.0394	  435.00	  448.60	-2089.35	  221.49
     51.0728	  440.00	  438.79	-2074.54	  221.48
     51.1062	  424.00	  438.24	-2089.99	  221.48
     51.1396	  454.00	  447.54	-2069.29	  221.47
     51.1731	  510.00	  467.84	-2033.59	  221.47
     51.2065	  525.00	  501.06	-2051.81	  221.46
     51.2399	  623.00	  547.01	-1999.76	  221.46
     51.2733	  606.00	  599.38	-2069.13	  221.45
     51.3067	  672.00	  640.27	-2044.02	  221.45
     51.3402	  664.00	  650.24	-2061.99	  221.44
     51.3736	  689.00	  632.20	-2018.95	  221.44
     51.4070	  650.00	  604.45	-2030.20	  221.43
     51.4404	  651.00	  574.31	-1999.06	  221.43
     51.4739	  605.00	  536.68	-2007.43	  221.43
     51.5073	  540.00	  492.31	-2028.06	  221.42
     51.5407	  464.00	  449.73	-2061.48	  221.42
     51.5741	  418.00	  415.02	-2072.77	  221.41
     51.6075	  384.00	  388.99	-2080.74	  221.41
     51.6410	  359.00	  370.26	-2087.01	  221.40
     51.6744	  330.00	  356.99	-2102.74	  221.40
     51.7078	  356.00	  347.51	-2067.26	  221.39
     51.7412	  311.00	  340.59	-2105.34	  221.39
     51.7747	  327.00	  335.55	-2084.30	  221.38
     51.8081	  304.00	  331.41	-2103.16	  221.38
     51.8415	  284.00	  328.04	-2119.79	  221.37
     51.8749	  335.00	  325.24	-2065.99	  221.37
     51.9084	  312.00	  322.89	-2086.64	  221.36
     51.9418	  299.00	  320.99	-2097.74	  221.36
     51.9752	  340.00	  319.26	-2055.01	  221.35
     52.0086	  318.00	  317.75	-2075.50	  221.35
     52.0420	  313.00	  316.43	-2079.18	  221.34
     52.0755	  281.00	  315.27	-2110.02	  221.34
     52.1089	  294.00	  314.25	-2096.00	  221.33
     52.1423	  314.00	  313.34	-2075.09	  221.33
     52.1757	  280.00	  312.53	-2108.28	  221.32
     52.2092	  330.00	  311.81	-2057.56	  221.32
     52.2426	  289.00	  311.17	-2097.92	  221.31
     52.2760	  271.00	  310.59	-2115.34	  221.31
     52.3094	  278.00	  310.08	-2107.83	  221.30
     52.3428	  285.00	  309.63	-2100.38	  221.30
     52.3763	  323.00	  309.22	-2061.97	  221.29
     52.4097	  292.00	  308.87	-2092.62	  221.29
     52.4431	  312.00	  308.55	-2072.30	  221.28
     52.4765	  283.00	  308.28	-2101.03	  221.28
     52.5100	  285.00	  308.05	-2098.80	  221.27
     52.5434	  317.00	  307.85	-2066.60	  221.27
     52.5768	  323.00	  307.69	-2060.44	  221.26
     52.6102	  305.00	  307.56	-2078.31	  221.26
     52.6436	  314.00	  307.46	-2069.21	  221.25
     52.6771	  305.00	  307.40	-2078.15	  221.25
     52.7105	  343.00	  307.37	-2040.12	  221.24
     52.7439	  311.00	  307.37	-2072.12	  221.24
     52.7773	  297.00	  307.41	-2086.16	  221.23
     52.8108	  330.00	  307.48	-2053.23	  221.23
     52.8442	  343.00	  307.58	-2040.33	  221.22
     52.8776	  304.00	  307.72	-2079.47	  221.22
     52.9110	  336.00	  307.89	-2047.64	  221.21
     52.9445	  311.00	  308.41	-2073.16	  221.21
     52.9779	  364.00	  308.67	-2020.42	  221.20
     53.0113	  316.00	  308.97	-2068.72	  221.20
     53.0447	  324.00	  309.33	-2061.08	  221.19
     53.0781	  287.00	  309.74	-2098.49	  221.19
     53.1116	  317.00	  310.35	-2069.10	  221.18
     53.1450	  302.00	  310.88	-2084.63	  221.18
     53.1784	  322.00	  311.48	-2065.23	  221.17
     53.2118	  316.00	  312.15	-2071.90	  221.17
     53.2453	  314.00	  312.88	-2074.63	  221.16
     53.2787	  314.00	  313.75	-2075.50	  221.16
     53.3121	  308.00	  314.73	-2082.48	  221.15
     53.3455	  370.00	  315.83	-2021.58	  221.15
     53.3789	  351.00	  317.08	-2041.83	  221.14
     53.4124	  321.00	  318.51	-2073.26	  221.14
     53.4458	  328.00	  320.16	-2067.91	  221.13
     53.4792	  337.00	  322.05	-2060.80	  221.13
     53.5126	  337.00	  324.23	-2062.98	  221.12
     53.5461	  359.00	  326.76	-2043.51	  221.12
     53.5795	  288.00	  329.17	-2116.92	  221.11
     53.6129	  330.00	  332.68	-2078.43	  221.11
     53.6463	  365.00	  336.85	-2047.60	  221.10
     53.6797	  394.00	  341.86	-2023.61	  221.09
     53.7132	  357.00	  347.88	-2066.63	  221.09
     53.7466	  375.00	  355.44	-2056.19	  221.08
     53.7800	  391.00	  365.01	-2049.76	  221.08
     53.8134	  405.00	  377.50	-2048.25	  221.07
     53.8469	  428.00	  394.46	-2042.21	  221.07
     53.8803	  491.00	  418.49	-2003.24	  221.06
     53.9137	  518.00	  453.19	-2010.94	  221.06
     53.9471	  556.00	  503.75	-2023.50	  221.05
     53.9805	  610.00	  575.94	-2041.69	  221.05
     54.0140	  719.00	  674.50	-2031.25	  221.04
     54.0474	  866.00	  798.64	-2008.39	  221.04
     54.0808	  904.00	  932.30	-2104.05	  221.03
     54.1142	 1027.00	 1035.10	-2083.85	  221.03
     54.1477	 1049.00	 1068.13	-2094.88	  221.02
     54.1811	 1062.00	 1040.41	-2054.16	  221.02
     54.2145	 1024.00	  988.80	-2040.55	  221.01
     54.2479	  949.00	  929.00	-2055.75	  221.01
     54.2813	  841.00	  852.91	-2087.66	  221.00
     54.3148	  794.00	  759.20	-2040.95	  221.00
     54.3482	  672.00	  663.55	-2067.30	  220.99
     54.3816	  561.00	  580.24	-2094.99	  220.98
     54.4150	  523.00	  514.92	-2067.67	  220.98
     54.4485	  456.00	  467.10	-2086.85	  220.97
     54.4819	  448.00	  433.00	-2060.75	  220.97
     54.5153	  406.00	  410.24	-2079.99	  220.96
     54.5487	  439.00	  395.15	-2031.90	  220.96
     54.5822	  457.00	  385.54	-2004.29	  220.95
     54.6156	  408.00	  379.72	-2047.47	  220.95
     54.6490	  402.00	  377.46	-2051.21	  220.94
     54.6824	  375.00	  377.85	-2078.60	  220.94
     54.7158	  366.00	  379.97	-2089.72	  220.93
     54.7493	  392.00	  382.21	-2065.96	  220.93
     54.7827	  386.00	  382.88	-2072.63	  220.92
     54.8161	  383.00	  382.13	-2074.88	  220.91
     54.8495	  409.00	  381.52	-2048.27	  220.91
     54.8830	  335.00	  381.86	-2122.61	  220.90
     54.9164	  351.00	  382.49	-2107.24	  220.90
     54.9498	  386.00	  383.95	-2073.70	  220.89
     54.9832	  406.00	  386.69	-2056.44	  220.89
     55.0166	  404.00	  391.71	-2063.46	  220.88
     55.0501	  418.00	  399.65	-2057.40	  220.88
     55.0835	  426.00	  411.76	-2061.51	  220.87
     55.1169	  502.00	  429.34	-2003.09	  220.87
     55.1503	  483.00	  454.85	-2047.60	  220.86
     55.1838	  480.00	  492.07	-2087.82	  220.85
     55.2172	  551.00	  546.13	-2070.88	  220.85
     55.2506	  639.00	  622.99	-2059.74	  220.84
     55.2840	  736.00	  727.68	-2067.43	  220.84
     55.3174	  857.00	  860.07	-2078.82	  220.83
     55.3509	 1029.00	 1005.96	-2052.71	  220.83
     55.3843	 1126.00	 1128.40	-2078.15	  220.82
     55.4177	 1146.00	 1186.63	-2116.38	  220.82
     55.4511	 1196.00	 1182.60	-2062.35	  220.81
     55.4846	 1163.00	 1160.00	-2072.75	  220.80
     55.5180	 1265.00	 1148.16	-1958.91	  220.80
     55.5514	 1160.00	 1141.60	-2057.35	  220.79
     55.5848	 1107.00	 1125.58	-2094.33	  220.79
     55.6183	 1114.00	 1093.99	-2055.74	  220.78
     55.6517	 1068.00	 1040.01	-2047.76	  220.78
     55.6851	  918.00	  964.97	-2122.72	  220.77
     55.7185	  877.00	  890.12	-2088.87	  220.77
     55.7519	  832.00	  831.96	-2075.71	  220.76
     55.7854	  767.00	  786.07	-2094.82	  220.75
     55.8188	  791.00	  741.45	-2026.20	  220.75
     55.8522	  646.00	  700.15	-2129.90	  220.74
     55.8856	  691.00	  673.06	-2057.81	  220.74
     55.9191	  708.00	  669.16	-2036.91	  220.73
     55.9525	  758.00	  692.51	-2010.26	  220.73
     55.9859	  749.00	  741.40	-2068.15	  220.72
     56.0193	  892.00	  803.48	-1987.23	  220.71
     56.0527	  805.00	  851.39	-2122.14	  220.71
     56.0862	  890.00	  857.01	-2042.76	  220.70
     56.1196	  795.00	  823.57	-2104.32	  220.70
     56.1530	  835.00	  778.47	-2019.22	  220.69
     56.1864	  725.00	  735.85	-2086.60	  220.69
     56.2199	  715.00	  688.50	-2049.25	  220.68
     56.2533	  636.00	  628.94	-2068.69	  220.67
     56.2867	  572.00	  565.00	-2068.75	  220.67
     56.3201	  505.00	  508.31	-2079.06	  220.66
     56.3535	  492.00	  463.63	-2047.38	  220.66
     56.3870	  398.00	  430.50	-2108.25	  220.65
     56.4204	  386.00	  406.74	-2096.49	  220.64
     56.4538	  353.00	  389.95	-2112.70	  220.64
     56.4872	  356.00	  378.09	-2097.84	  220.63
     56.5207	  356.00	  369.62	-2089.38	  220.63
     56.5541	  371.00	  363.51	-2068.26	  220.62
     56.5875	  362.00	  359.10	-2072.85	  220.61
     56.6209	  365.00	  355.99	-2066.74	  220.61
     56.6544	  391.00	  353.94	-2038.69	  220.60
     56.6878	  336.00	  352.84	-2092.59	  220.60
     56.7212	  360.00	  352.62	-2068.37	  220.59
     56.7546	  326.00	  353.28	-2103.03	  220.58
     56.7880	  309.00	  354.88	-2121.63	  220.58
     56.8215	  313.00	  357.52	-2120.27	  220.57
     56.8549	  380.00	  361.39	-2057.14	  220.57
     56.8883	  371.00	  366.82	-2071.57	  220.56
     56.9217	  395.00	  374.33	-2055.08	  220.55
     56.9552	  386.00	  384.82	-2074.57	  220.55
     56.9886	  386.00	  399.75	-2089.50	  220.54
     57.0220	  418.00	  421.64	-2079.39	  220.54
     57.0554	  448.00	  453.37	-2081.12	  220.53
     57.0888	  463.00	  499.26	-2112.01	  220.52
     57.1223	  526.00	  563.46	-2113.21	  220.52
     57.1557	  594.00	  648.35	-2130.10	  220.51
     57.1891	  694.00	  750.29	-2132.04	  220.51
     57.2225	  755.00	  850.92	-2171.67	  220.50
     57.2560	  793.00	  915.51	-2198.26	  220.49
     57.2894	  834.00	  920.14	-2161.89	  220.49
     57.3228	  799.00	  882.86	-2159.61	  220.48
     57.3562	  802.00	  837.08	-2110.83	  220.48
     57.3896	  753.00	  792.78	-2115.53	  220.47
     57.4231	  683.00	  738.38	-2131.13	  220.46
     57.4565	  639.00	  668.41	-2105.16	  220.46
     57.4899	  542.00	  595.11	-2128.86	  220.45
     57.5233	  538.00	  531.86	-2069.61	  220.44
     57.5568	  479.00	  483.32	-2080.07	  220.44
     57.5902	  464.00	  448.66	-2060.41	  220.43
     57.6236	  437.00	  425.31	-2064.06	  220.42
     57.6570	  424.00	  410.88	-2062.63	  220.42
     57.6904	  403.00	  402.87	-2075.62	  220.41
     57.7239	  404.00	  400.25	-2072.00	  220.41
     57.7573	  385.00	  402.69	-2093.44	  220.40
     57.7907	  427.00	  410.81	-2059.56	  220.39
     57.8241	  359.00	  426.24	-2142.99	  220.39
     57.8576	  446.00	  451.05	-2080.80	  220.38
     57.8910	  499.00	  487.96	-2064.71	  220.37
     57.9244	  454.00	  538.96	-2160.71	  220.37
     57.9578	  514.00	  603.09	-2164.84	  220.36
     57.9913	  618.00	  671.42	-2129.17	  220.35
     58.0247	  671.00	  722.87	-2127.62	  220.35
     58.0581	  637.00	  737.07	-2175.82	  220.34
     58.0915	  664.00	  719.74	-2131.49	  220.34
     58.1249	  644.00	  694.53	-2126.28	  220.33
     58.1584	  597.00	  674.16	-2152.91	  220.32
     58.1918	  571.00	  654.18	-2158.93	  220.32
     58.2252	  610.00	  628.86	-2094.61	  220.31
     58.2586	  584.00	  604.65	-2096.40	  220.30
     58.2921	  547.00	  591.74	-2120.49	  220.30
     58.3255	  575.00	  592.32	-2093.07	  220.29
     58.3589	  595.00	  597.78	-2078.53	  220.28
     58.3923	  574.00	  593.51	-2095.26	  220.28
     58.4257	  529.00	  573.53	-2120.28	  220.27
     58.4592	  523.00	  547.43	-2100.18	  220.26
     58.4926	  567.00	  524.25	-2033.00	  220.26
     58.5260	  497.00	  502.79	-2081.54	  220.25
     58.5594	  479.00	  477.62	-2074.37	  220.24
     58.5929	  495.00	  448.27	-2029.02	  220.24
     58.6263	  412.00	  419.45	-2083.20	  220.23
     58.6597	  361.00	  395.16	-2109.91	  220.22
     58.6931	  406.00	  376.52	-2046.27	  220.22
     58.7265	  337.00	  362.56	-2101.31	  220.21
     58.7600	  314.00	  352.44	-2114.19	  220.20
     58.7934	  317.00	  345.13	-2103.88	  220.20
     58.8268	  311.00	  339.83	-2104.58	  220.19
     58.8602	  346.00	  335.91	-2065.66	  220.18
     58.8937	  298.00	  332.98	-2110.73	  220.18
     58.9271	  302.00	  330.76	-2104.51	  220.17
     58.9605	  328.00	  329.08	-2076.83	  220.16
     58.9939	  302.00	  327.85	-2101.60	  220.15
     59.0274	  337.00	  326.99	-2065.74	  220.15
     59.0608	  332.00	  326.44	-2070.19	  220.14
     59.0942	  321.00	  326.20	-2080.95	  220.13
     59.1276	  346.00	  326.24	-2055.99	  220.13
     59.1610	  313.00	  326.56	-2089.31	  220.12
     59.1945	  338.00	  327.15	-2064.90	  220.11
     59.2279	  341.00	  328.03	-2062.78	  220.11
     59.2613	  310.00	  329.21	-2094.96	  220.10
     59.2947	  317.00	  330.74	-2089.49	  220.09
     59.3282	  318.00	  332.64	-2090.39	  220.09
     59.3616	  331.00	  334.97	-2079.72	  220.08
     59.3950	  356.00	  337.82	-2057.57	  220.07
     59.4284	  333.00	  341.28	-2084.03	  220.06
     59.4618	  362.00	  345.49	-2059.24	  220.06
     59.4953	  324.00	  350.62	-2102.37	  220.05
     59.5287	  382.00	  356.94	-2050.69	  220.04
     59.5621	  377.00	  364.82	-2063.57	  220.04
     59.5955	  411.00	  374.85	-2039.60	  220.03
     59.6290	  371.00	  387.98	-2092.73	  220.02
     59.6624	  410.00	  405.70	-2071.45	  220.01
     59.6958	  437.00	  430.20	-2068.95	  220.01
     59.7292	  480.00	  464.66	-2060.41	  220.00
     59.7626	  517.00	  513.48	-2072.23	  219.99
     59.7961	  597.00	  580.71	-2059.46	  219.99
     59.8295	  677.00	  669.28	-2068.03	  219.98
     59.8629	  740.00	  777.25	-2113.00	  219.97
     59.8963	  854.00	  890.33	-2112.08	  219.96
     59.9298	  968.00	  978.12	-2085.87	  219.96
     59.9632	  981.00	 1018.08	-2112.83	  219.95
     59.9966	 1049.00	 1027.46	-2054.21	  219.94
     60.0300	 1008.00	 1039.79	-2107.54	  219.93
     60.0634	  994.00	 1064.12	-2145.87	  219.93
     60.0969	 1060.00	 1075.45	-2091.20	  219.92
     60.1303	  973.00	 1041.10	-2143.85	  219.91
     60.1637	  987.00	  961.44	-2050.19	  219.90
     60.1971	  921.00	  868.56	-2023.31	  219.90
     60.2306	  741.00	  787.96	-2122.71	  219.89
     60.2640	  700.00	  722.12	-2097.87	  219.88
     60.2974	  712.00	  660.14	-2023.89	  219.87
     60.3308	  683.00	  596.57	-1989.32	  219.87
     60.3643	  561.00	  536.80	-2051.55	  219.86
     60.3977	  499.00	  486.57	-2063.32	  219.85
     60.4311	  545.00	  447.77	-1978.52	  219.84
     60.4645	  448.00	  418.76	-2046.51	  219.84
     60.4979	  440.00	  397.48	-2033.23	  219.83
     60.5314	  400.00	  381.82	-2057.57	  219.82
     60.5648	  407.00	  370.39	-2039.14	  219.81
     60.5982	  396.00	  361.87	-2041.62	  219.81
     60.6316	  334.00	  355.41	-2097.16	  219.80
     60.6651	  351.00	  350.46	-2075.21	  219.79
     60.6985	  323.00	  346.67	-2099.42	  219.78
     60.7319	  353.00	  343.82	-2066.57	  219.77
     60.7653	  337.00	  341.75	-2080.50	  219.77
     60.7987	  328.00	  340.37	-2088.12	  219.76
     60.8322	  332.00	  339.65	-2083.40	  219.75
     60.8656	  317.00	  339.56	-2098.31	  219.74
     60.8990	  340.00	  340.14	-2075.89	  219.74
     60.9324	  360.00	  341.42	-2057.17	  219.73
     60.9659	  350.00	  343.52	-2069.27	  219.72
     60.9993	  381.00	  346.62	-2041.37	  219.71
     61.0327	  391.00	  351.05	-2035.80	  219.70
     61.0661	  369.00	  357.37	-2064.12	  219.70
     61.0995	  408.00	  366.31	-2034.06	  219.69
     61.1330	  429.00	  379.21	-2025.96	  219.68
     61.1664	  423.00	  397.86	-2050.61	  219.67
     61.1998	  414.00	  424.40	-2086.15	  219.66
     61.2332	  495.00	  461.04	-2041.79	  219.66
     61.2667	  567.00	  509.05	-2017.80	  219.65
     61.3001	  606.00	  566.42	-2036.17	  219.64
     61.3335	  567.00	  623.80	-2132.55	  219.63
     61.3669	  647.00	  662.08	-2090.83	  219.62
     61.4004	  652.00	  667.14	-2090.89	  219.62
     61.4338	  642.00	  647.46	-2081.21	  219.61
     61.4672	  685.00	  622.61	-2013.36	  219.60
     61.5006	  622.00	  601.64	-2055.39	  219.59
     61.5340	  610.00	  579.39	-2045.14	  219.58
     61.5675	  539.00	  548.59	-2085.34	  219.58
     61.6009	  532.00	  511.32	-2055.07	  219.57
     61.6343	  520.00	  476.64	-2032.39	  219.56
     61.6677	  502.00	  449.62	-2023.37	  219.55
     61.7012	  478.00	  431.77	-2029.52	  219.54
     61.7346	  453.00	  422.77	-2045.52	  219.53
     61.7680	  432.00	  422.69	-2066.44	  219.53
     61.8014	  435.00	  431.82	-2072.57	  219.52
     61.8348	  402.00	  451.38	-2125.13	  219.51
     61.8683	  474.00	  483.26	-2085.01	  219.50
     61.9017	  507.00	  529.37	-2098.12	  219.49
     61.9351	  514.00	  590.02	-2151.77	  219.48
     61.9685	  649.00	  660.11	-2086.86	  219.48
     62.0020	  683.00	  723.72	-2116.47	  219.47
     62.0354	  676.00	  756.45	-2156.20	  219.46
     62.0688	  722.00	  748.49	-2102.24	  219.45
     62.1022	  691.00	  717.62	-2102.37	  219.44
     62.1356	  675.00	  685.91	-2086.66	  219.43
     62.1691	  632.00	  658.77	-2102.52	  219.42
     62.2025	  600.00	  627.11	-2102.86	  219.42
     62.2359	  567.00	  583.89	-2092.64	  219.41
     62.2693	  525.00	  534.83	-2085.58	  219.40
     62.3028	  519.00	  489.86	-2046.61	  219.39
     62.3362	  441.00	  453.96	-2088.71	  219.38
     62.3696	  454.00	  427.44	-2049.19	  219.37
     62.4030	  410.00	  409.44	-2075.19	  219.36
     62.4365	  379.00	  398.12	-2094.87	  219.35
     62.4699	  398.00	  392.08	-2069.83	  219.35
     62.5033	  402.00	  390.31	-2064.06	  219.34
     62.5367	  407.00	  392.24	-2060.99	  219.33
     62.5701	  402.00	  398.20	-2071.95	  219.32
     62.6036	  419.00	  408.89	-2065.64	  219.31
     62.6370	  434.00	  425.93	-2067.68	  219.30
     62.6704	  463.00	  451.86	-2064.61	  219.29
     62.7038	  474.00	  490.13	-2091.88	  219.28
     62.7373	  535.00	  544.50	-2085.25	  219.28
     62.7707	  611.00	  618.63	-2083.38	  219.27
     62.8041	  744.00	  712.80	-2044.55	  219.26
     62.8375	  820.00	  818.79	-2074.54	  219.25
     62.8709	  865.00	  911.82	-2122.57	  219.24
     62.9044	  928.00	  956.39	-2104.14	  219.23
     62.9378	  919.00	  941.22	-2097.97	  219.22
     62.9712	  897.00	  894.19	-2072.94	  219.21
     63.0046	  813.00	  846.98	-2109.73	  219.20
     63.0381	  733.00	  806.51	-2149.26	  219.19
     63.0715	  711.00	  759.19	-2123.94	  219.18
     63.1049	  644.00	  694.28	-2126.03	  219.18
     63.1383	  600.00	  619.74	-2095.49	  219.17
     63.1717	  543.00	  550.07	-2082.82	  219.16
     63.2052	  474.00	  492.86	-2094.61	  219.15
     63.2386	  413.00	  448.95	-2111.70	  219.14
     63.2720	  383.00	  416.48	-2109.23	  219.13
     63.3054	  386.00	  392.88	-2082.64	  219.12
     63.3389	  369.00	  375.78	-2082.53	  219.11
     63.3723	  382.00	  363.24	-2056.99	  219.10
     63.4057	  380.00	  353.83	-2049.58	  219.09
     63.4391	  356.00	  346.59	-2066.33	  219.08
     63.4725	  308.00	  340.88	-2108.63	  219.07
     63.5060	  302.00	  336.31	-2110.06	  219.06
     63.5394	  348.00	  332.61	-2060.36	  219.05
     63.5728	  357.00	  329.61	-2048.36	  219.05
     63.6062	  308.00	  327.18	-2094.93	  219.04
     63.6397	  310.00	  325.25	-2091.00	  219.03
     63.6731	  346.00	  323.75	-2053.50	  219.02
     63.7065	  333.00	  322.65	-2065.40	  219.01
     63.7399	  293.00	  321.94	-2104.69	  219.00
     63.7733	  333.00	  321.61	-2064.36	  218.99
     63.8068	  347.00	  321.70	-2050.45	  218.98
     63.8402	  312.00	  322.29	-2086.04	  218.97
     63.8736	  284.00	  323.51	-2115.26	  218.96
     63.9070	  305.00	  325.54	-2096.29	  218.95
     63.9405	  332.00	  328.66	-2072.41	  218.94
     63.9739	  352.00	  333.20	-2056.95	  218.93
     64.0073	  347.00	  339.51	-2068.26	  218.92
     64.0407	  374.00	  347.88	-2049.63	  218.91
     64.0742	  355.00	  358.19	-2078.94	  218.90
     64.1076	  380.00	  369.49	-2065.24	  218.89
     64.1410	  367.00	  379.96	-2088.71	  218.88
     64.1744	  412.00	  388.87	-2052.62	  218.87
     64.2078	  399.00	  398.38	-2075.13	  218.86
     64.2413	  433.00	  411.55	-2054.30	  218.85
     64.2747	  462.00	  429.35	-2043.10	  218.84
     64.3081	  469.00	  448.67	-2055.42	  218.83
     64.3415	  475.00	  463.60	-2064.35	  218.82
     64.3750	  549.00	  467.38	-1994.13	  218.81
     64.4084	  441.00	  459.70	-2094.45	  218.80
     64.4418	  495.00	  446.40	-2027.15	  218.79
     64.4752	  478.00	  433.22	-2030.97	  218.78
     64.5087	  453.00	  421.83	-2044.58	  218.77
     64.5421	  451.00	  410.25	-2035.00	  218.76
     64.5755	  395.00	  395.97	-2076.72	  218.75
     64.6089	  361.00	  379.99	-2094.74	  218.74
     64.6423	  391.00	  364.76	-2049.51	  218.73
     64.6758	  381.00	  351.88	-2046.63	  218.72
     64.7092	  330.00	  342.03	-2087.78	  218.71
     64.7426	  309.00	  334.91	-2101.66	  218.70
     64.7760	  350.00	  329.95	-2055.70	  218.69
     64.8094	  328.00	  326.70	-2074.45	  218.68
     64.8429	  331.00	  324.80	-2069.55	  218.67
     64.8763	  319.00	  324.00	-2080.75	  218.66
     64.9097	  345.00	  324.17	-2054.92	  218.65
     64.9431	  311.00	  325.34	-2090.09	  218.64
     64.9766	  321.00	  327.57	-2082.32	  218.63
     65.0100	  350.00	  330.99	-2056.74	  218.62
     65.0434	  353.00	  335.65	-2058.40	  218.60
     65.0768	  348.00	  341.37	-2069.12	  218.59
     65.1103	  351.00	  347.39	-2072.14	  218.58
     65.1437	  338.00	  352.36	-2090.11	  218.57
     65.1771	  360.00	  355.39	-2071.14	  218.56
     65.2105	  363.00	  357.44	-2070.19	  218.55
     65.2439	  382.00	  360.32	-2054.07	  218.54
     65.2774	  375.00	  365.29	-2066.04	  218.53
     65.3108	  364.00	  372.69	-2084.44	  218.52
     65.3442	  425.00	  382.57	-2033.32	  218.51
     65.3776	  418.00	  395.58	-2053.33	  218.50
     65.4111	  436.00	  412.83	-2052.58	  218.49
     65.4445	  477.00	  434.58	-2033.33	  218.48
     65.4779	  496.00	  458.83	-2038.58	  218.47
     65.5113	  475.00	  481.49	-2082.24	  218.45
     65.5447	  536.00	  500.88	-2040.63	  218.44
     65.5782	  560.00	  521.91	-2037.66	  218.43
     65.6116	  583.00	  552.33	-2045.08	  218.42
     65.6450	  619.00	  596.68	-2053.43	  218.41
     65.6784	  614.00	  653.29	-2115.04	  218.40
     65.7119	  708.00	  713.08	-2080.83	  218.39
     65.7453	  725.00	  760.33	-2111.08	  218.38
     65.7787	  810.00	  779.81	-2045.56	  218.37
     65.8121	  755.00	  770.31	-2091.06	  218.36
     65.8456	  721.00	  743.31	-2098.06	  218.34
     65.8790	  661.00	  712.71	-2127.46	  218.33
     65.9124	  656.00	  685.19	-2104.94	  218.32
     65.9458	  624.00	  657.59	-2109.34	  218.31
     65.9792	  693.00	  625.00	-2007.75	  218.30
     66.0127	  561.00	  587.31	-2102.06	  218.29
     66.0461	  551.00	  547.38	-2072.13	  218.28
     66.0795	  463.00	  507.75	-2120.50	  218.27
     66.1129	  460.00	  470.93	-2086.68	  218.25
     66.1463	  420.00	  439.72	-2095.47	  218.24
     66.1798	  411.00	  415.44	-2080.19	  218.23
     66.2132	  395.00	  397.24	-2077.99	  218.22
     66.2466	  369.00	  382.68	-2089.43	  218.21
     66.2800	  330.00	  369.56	-2115.31	  218.20
     66.3135	  340.00	  357.36	-2093.11	  218.19
     66.3469	  355.00	  346.62	-2067.37	  218.17
     66.3803	  330.00	  337.71	-2083.46	  218.16
     66.4137	  293.00	  330.54	-2113.29	  218.15
     66.4472	  304.00	  324.62	-2096.38	  218.14
     66.4806	  334.00	  320.12	-2061.87	  218.13
     66.5140	  304.00	  316.52	-2088.27	  218.12
     66.5474	  275.00	  313.61	-2114.36	  218.10
     66.5808	  299.00	  311.20	-2087.95	  218.09
     66.6143	  304.00	  309.16	-2080.92	  218.08
     66.6477	  294.00	  307.45	-2089.20	  218.07
     66.6811	  295.00	  305.96	-2086.71	  218.06
     66.7145	  293.00	  304.79	-2087.54	  218.05
     66.7480	  308.00	  303.65	-2071.40	  218.03
     66.7814	  314.00	  302.65	-2064.40	  218.02
     66.8148	  319.00	  301.81	-2058.56	  218.01
     66.8482	  299.00	  301.01	-2077.76	  218.00
     66.8816	  350.00	  300.29	-2026.04	  217.99
     66.9151	  325.00	  299.71	-2050.46	  217.97
     66.9485	  302.00	  299.13	-2072.88	  217.96
     66.9819	  274.00	  298.60	-2100.35	  217.95
     67.0153	  279.00	  298.12	-2094.87	  217.94
     67.0488	  285.00	  297.68	-2088.43	  217.92
     67.0822	  295.00	  297.28	-2078.03	  217.91
     67.1156	  306.00	  296.92	-2066.67	  217.90
     67.1490	  297.00	  296.59	-2075.34	  217.89
     67.1824	  283.00	  296.28	-2089.03	  217.88
     67.2159	  268.00	  296.00	-2103.75	  217.86
     67.2493	  305.00	  295.74	-2066.49	  217.85
     67.2827	  271.00	  295.51	-2100.26	  217.84
     67.3161	  295.00	  294.94	-2075.69	  217.83
     67.3496	  294.00	  294.79	-2076.54	  217.81
     67.3830	  282.00	  294.62	-2088.37	  217.80
     67.4164	  269.00	  294.46	-2101.21	  217.79
     67.4498	  273.00	  294.31	-2097.06	  217.78
     67.4833	  294.00	  294.00	-2075.75	  217.76
     67.5167	  293.00	  293.89	-2076.64	  217.75
     67.5501	  293.00	  293.81	-2076.56	  217.74
     67.5835	  270.00	  293.72	-2099.47	  217.73
     67.6169	  292.00	  293.64	-2077.39	  217.71
     67.6504	  273.00	  293.58	-2096.33	  217.70
     67.6838	  290.00	  293.56	-2079.31	  217.69
     67.7172	  261.00	  293.52	-2108.27	  217.68
     67.7506	  328.00	  293.49	-2041.24	  217.66
     67.7841	  271.00	  293.47	-2098.22	  217.65
     67.8175	  248.00	  293.46	-2121.21	  217.64
     67.8509	  342.00	  293.47	-2027.22	  217.62
     67.8843	  321.00	  293.50	-2048.25	  217.61
     67.9177	  305.00	  293.54	-2064.29	  217.60
     67.9512	  296.00	  293.58	-2073.33	  217.59
     67.9846	  289.00	  293.65	-2080.40	  217.57
     68.0180	  307.00	  293.72	-2062.47	  217.56
     68.0514	  290.00	  293.85	-2079.60	  217.55
     68.0849	  305.00	  293.96	-2064.71	  217.53
     68.1183	  284.00	  294.14	-2085.89	  217.52
     68.1517	  285.00	  294.30	-2085.05	  217.51
     68.1851	  349.00	  294.49	-2021.24	  217.49
     68.2186	  296.00	  294.71	-2074.46	  217.48
     68.2520	  267.00	  294.98	-2103.73	  217.47
     68.2854	  288.00	  295.27	-2083.02	  217.46
     68.3188	  279.00	  295.63	-2092.38	  217.44
     68.3522	  283.00	  296.02	-2088.77	  217.43
     68.3857	  298.00	  296.47	-2074.22	  217.42
     68.4191	  299.00	  297.00	-2073.75	  217.40
     68.4525	  311.00	  297.61	-2062.36	  217.39
     68.4859	  319.00	  298.34	-2055.09	  217.38
     68.5193	  346.00	  299.19	-2028.94	  217.36
     68.5528	  288.00	  300.20	-2087.95	  217.35
     68.5862	  300.00	  301.39	-2077.14	  217.33
     68.6196	  305.00	  302.87	-2073.62	  217.32
     68.6530	  306.00	  304.71	-2074.46	  217.31
     68.6865	  342.00	  307.03	-2040.78	  217.29
     68.7199	  306.00	  310.05	-2079.80	  217.28
     68.7533	  311.00	  314.07	-2078.82	  217.27
     68.7867	  317.00	  319.58	-2078.33	  217.25
     68.8202	  291.00	  327.14	-2111.89	  217.24
     68.8536	  342.00	  337.60	-2071.35	  217.23
     68.8870	  352.00	  351.71	-2075.46	  217.21
     68.9204	  347.00	  370.01	-2098.76	  217.20
     68.9538	  414.00	  392.20	-2053.95	  217.18
     68.9873	  407.00	  415.85	-2084.60	  217.17
     69.0207	  436.00	  435.20	-2074.95	  217.16
     69.0541	  416.00	  443.16	-2102.91	  217.14
     69.0875	  447.00	  438.56	-2067.31	  217.13
     69.1210	  368.00	  427.64	-2135.39	  217.11
     69.1544	  394.00	  417.20	-2098.95	  217.10
     69.1878	  366.00	  409.43	-2119.18	  217.09
     69.2212	  394.00	  402.08	-2083.83	  217.07
     69.2546	  378.00	  391.57	-2089.32	  217.06
     69.2881	  376.00	  377.38	-2077.13	  217.04
     69.3215	  394.00	  362.27	-2044.02	  217.03
     69.3549	  371.00	  348.92	-2053.67	  217.02
     69.3883	  374.00	  338.47	-2040.22	  217.00
     69.4218	  322.00	  331.04	-2084.79	  216.99
     69.4552	  319.00	  326.35	-2083.10	  216.97
     69.4886	  376.00	  324.06	-2023.81	  216.96
     69.5220	  364.00	  323.86	-2035.61	  216.94
     69.5555	  335.00	  325.37	-2066.12	  216.93
     69.5889	  324.00	  328.07	-2079.82	  216.91
     69.6223	  347.00	  330.94	-2059.69	  216.90
     69.6557	  328.00	  332.58	-2080.33	  216.89
     69.6891	  348.00	  331.97	-2059.72	  216.87
     69.7226	  352.00	  329.62	-2053.37	  216.86
     69.7560	  328.00	  326.94	-2074.69	  216.84
     69.7894	  308.00	  324.83	-2092.58	  216.83
     69.8228	  312.00	  323.28	-2087.03	  216.81
     69.8562	  303.00	  321.64	-2094.39	  216.80
     69.8897	  305.00	  319.43	-2090.18	  216.78
     69.9231	  317.00	  316.90	-2075.65	  216.77
     69.9565	  314.00	  314.70	-2076.45	  216.75
     69.9899	  300.00	  313.27	-2089.02	  216.74
     70.0234	  327.00	  312.96	-2061.71	  216.72
     70.0568	  298.00	  313.87	-2091.62	  216.71
     70.0902	  307.00	  316.13	-2084.88	  216.69
     70.1236	  338.00	  319.97	-2057.72	  216.68
     70.1571	  327.00	  325.29	-2074.04	  216.66
     70.1905	  298.00	  332.03	-2109.78	  216.65
     70.2239	  338.00	  339.12	-2076.87	  216.63
     70.2573	  332.00	  345.04	-2088.79	  216.62
     70.2907	  290.00	  347.36	-2133.11	  216.60
     70.3242	  264.00	  345.95	-2157.70	  216.59
     70.3576	  310.00	  342.69	-2108.44	  216.57
     70.3910	  342.00	  339.72	-2073.47	  216.56
     70.4244	  347.00	  337.64	-2066.39	  216.54
     70.4579	  360.00	  335.98	-2051.73	  216.53
     70.4913	  352.00	  333.46	-2057.21	  216.51
     70.5247	  316.00	  329.89	-2089.64	  216.50
     70.5581	  312.00	  326.00	-2089.75	  216.48
     70.5916	  342.00	  322.73	-2056.48	  216.46
     70.6250	  306.00	  320.64	-2090.39	  216.45
     70.6584	  305.00	  319.53	-2090.28	  216.43
     70.6918	  320.00	  319.49	-2075.24	  216.42
     70.7252	  318.00	  320.46	-2078.21	  216.40
     70.7587	  327.00	  322.43	-2071.18	  216.39
     70.7921	  298.00	  325.46	-2103.21	  216.37
     70.8255	  293.00	  329.67	-2112.42	  216.36
     70.8589	  348.00	  335.41	-2063.16	  216.34
     70.8923	  351.00	  343.02	-2067.77	  216.32
     70.9258	  353.00	  353.37	-2076.12	  216.31
     70.9592	  351.00	  367.51	-2092.26	  216.29
     70.9926	  425.00	  386.69	-2037.44	  216.28
     71.0260	  421.00	  412.17	-2066.92	  216.26
     71.0595	  471.00	  444.67	-2049.42	  216.24
     71.0929	  465.00	  483.67	-2094.42	  216.23
     71.1263	  478.00	  526.10	-2123.85	  216.21
     71.1597	  509.00	  565.74	-2132.49	  216.20
     71.1932	  538.00	  596.11	-2133.86	  216.18
     71.2266	  548.00	  614.54	-2142.29	  216.16
     71.2600	  604.00	  620.06	-2091.81	  216.15
     71.2934	  575.00	  611.85	-2112.60	  216.13
     71.3268	  563.00	  593.51	-2106.26	  216.12
     71.3603	  536.00	  570.99	-2110.74	  216.10
     71.3937	  538.00	  547.42	-2085.17	  216.08
     71.4271	  525.00	  523.52	-2074.27	  216.07
     71.4605	  503.00	  498.49	-2071.24	  216.05
     71.4940	  472.00	  470.97	-2074.72	  216.03
     71.5274	  464.00	  442.17	-2053.92	  216.02
     71.5608	  425.00	  415.51	-2066.26	  216.00
     71.5942	  445.00	  393.58	-2024.33	  215.98
     71.6276	  386.00	  377.08	-2066.83	  215.97
     71.6611	  348.00	  365.72	-2093.47	  215.95
     71.6945	  411.00	  358.96	-2023.71	  215.93
     71.7279	  333.00	  356.31	-2099.06	  215.92
     71.7613	  357.00	  357.45	-2076.20	  215.90
     71.7948	  341.00	  362.09	-2096.84	  215.88
     71.8282	  330.00	  369.83	-2115.58	  215.87
     71.8616	  354.00	  379.21	-2100.96	  215.85
     71.8950	  362.00	  387.56	-2101.31	  215.83
     71.9285	  340.00	  391.47	-2127.22	  215.82
     71.9619	  353.00	  389.86	-2112.61	  215.80
     71.9953	  361.00	  385.42	-2100.17	  215.78
     72.0287	  360.00	  381.78	-2097.53	  215.77
     72.0621	  363.00	  380.83	-2093.58	  215.75
     72.0956	  368.00	  382.16	-2089.91	  215.73
     72.1290	  349.00	  384.15	-2110.90	  215.71
     72.1624	  382.00	  385.43	-2079.18	  215.70
     72.1958	  411.00	  385.67	-2050.42	  215.68
     72.2292	  354.00	  384.22	-2105.97	  215.66
     72.2627	  408.00	  380.06	-2047.81	  215.65
     72.2961	  423.00	  373.73	-2026.48	  215.63
     72.3295	  361.00	  367.48	-2082.23	  215.61
     72.3629	  425.00	  363.29	-2014.04	  215.59
     72.3964	  384.00	  361.76	-2053.51	  215.58
     72.4298	  395.00	  362.27	-2043.02	  215.56
     72.4632	  402.00	  363.88	-2037.63	  215.54
     72.4966	  384.00	  366.52	-2058.27	  215.52
     72.5301	  399.00	  371.13	-2047.88	  215.51
     72.5635	  374.00	  378.35	-2080.10	  215.49
     72.5969	  400.00	  387.36	-2063.11	  215.47
     72.6303	  385.00	  396.01	-2086.76	  215.45
     72.6637	  407.00	  401.91	-2070.66	  215.44
     72.6972	  391.00	  403.45	-2088.20	  215.42
     72.7306	  443.00	  400.02	-2032.77	  215.40
     72.7640	  397.00	  393.12	-2071.87	  215.38
     72.7974	  406.00	  385.35	-2055.10	  215.36
     72.8309	  420.00	  378.13	-2033.88	  215.35
     72.8643	  340.00	  371.29	-2107.04	  215.33
     72.8977	  352.00	  363.95	-2087.70	  215.31
     72.9311	  373.00	  355.38	-2058.13	  215.29
     72.9646	  347.00	  345.76	-2074.51	  215.27
     72.9980	  370.00	  336.22	-2041.97	  215.26
     73.0314	  341.00	  327.84	-2062.59	  215.24
     73.0648	  269.00	  321.06	-2127.81	  215.22
     73.0982	  308.00	  315.84	-2083.59	  215.20
     73.1317	  336.00	  311.93	-2051.68	  215.18
     73.1651	  296.00	  309.09	-2088.84	  215.17
     73.1985	  326.00	  307.09	-2056.84	  215.15
     73.2319	  304.00	  305.72	-2077.47	  215.13
     73.2654	  282.00	  304.90	-2098.65	  215.11
     73.2988	  287.00	  304.58	-2093.33	  215.09
     73.3322	  319.00	  304.72	-2061.47	  215.07
     73.3656	  332.00	  305.40	-2049.15	  215.05
     73.3990	  305.00	  306.75	-2077.50	  215.04
     73.4325	  320.00	  308.91	-2064.66	  215.02
     73.4659	  289.00	  312.06	-2098.81	  215.00
     73.4993	  307.00	  316.27	-2085.02	  214.98
     73.5327	  302.00	  321.55	-2095.30	  214.96
     73.5662	  307.00	  327.35	-2096.10	  214.94
     73.5996	  352.00	  332.73	-2056.48	  214.92
     73.6330	  295.00	  335.79	-2116.54	  214.91
     73.6664	  331.00	  335.51	-2080.26	  214.89
     73.6998	  326.00	  332.81	-2082.56	  214.87
     73.7333	  303.00	  329.55	-2102.30	  214.85
     73.7667	  333.00	  326.91	-2069.66	  214.83
     73.8001	  327.00	  325.08	-2073.83	  214.81
     73.8335	  311.00	  323.24	-2087.99	  214.79
     73.8670	  300.00	  320.51	-2096.26	  214.77
     73.9004	  326.00	  316.83	-2066.58	  214.75
     73.9338	  273.00	  312.88	-2115.62	  214.73
     73.9672	  277.00	  309.34	-2108.09	  214.71
     74.0006	  326.00	  306.48	-2056.23	  214.70
     74.0341	  299.00	  304.33	-2081.08	  214.68
     74.0675	  294.00	  302.82	-2084.57	  214.66
     74.1009	  293.00	  301.83	-2084.58	  214.64
     74.1343	  270.00	  301.26	-2107.01	  214.62
     74.1678	  268.00	  301.03	-2108.78	  214.60
     74.2012	  280.00	  301.07	-2096.82	  214.58
     74.2346	  310.00	  301.39	-2067.14	  214.56
     74.2680	  346.00	  301.96	-2031.71	  214.54
     74.3015	  314.00	  302.87	-2064.62	  214.52
     74.3349	  285.00	  304.03	-2094.78	  214.50
     74.3683	  287.00	  305.58	-2094.33	  214.48
     74.4017	  262.00	  307.63	-2121.38	  214.46
     74.4351	  333.00	  310.39	-2053.14	  214.44
     74.4686	  308.00	  314.08	-2081.83	  214.42
     74.5020	  325.00	  319.00	-2069.75	  214.40
     74.5354	  295.00	  325.51	-2106.26	  214.38
     74.5688	  345.00	  333.95	-2064.70	  214.36
     74.6022	  413.00	  344.64	-2007.39	  214.34
     74.6357	  369.00	  357.57	-2064.32	  214.32
     74.6691	  385.00	  371.73	-2062.48	  214.30
     74.7025	  443.00	  384.45	-2017.20	  214.28
     74.7359	  410.00	  391.94	-2057.69	  214.26
     74.7694	  414.00	  392.40	-2054.15	  214.24
     74.8028	  403.00	  388.16	-2060.91	  214.22
     74.8362	  376.00	  383.30	-2083.05	  214.20
     74.8696	  402.00	  380.49	-2054.24	  214.18
     74.9031	  370.00	  379.98	-2085.73	  214.16
     74.9365	  399.00	  380.33	-2057.08	  214.14
     74.9699	  400.00	  380.06	-2055.81	  214.12
     75.0033	  402.00	  379.50	-2053.25	  214.10
     75.0367	  402.00	  380.81	-2054.56	  214.08
     75.0702	  414.00	  386.32	-2048.07	  214.06
     75.1036	  445.00	  397.58	-2028.33	  214.04
     75.1370	  455.00	  415.39	-2036.14	  214.02
     75.1704	  492.00	  439.58	-2023.33	  214.00
     75.2039	  508.00	  467.92	-2035.67	  213.97
     75.2373	  498.00	  494.65	-2072.40	  213.95
     75.2707	  575.00	  511.24	-2011.99	  213.93
     75.3041	  567.00	  512.68	-2021.43	  213.91
     75.3376	  557.00	  503.09	-2021.84	  213.89
     75.3710	  495.00	  491.10	-2071.85	  213.87
     75.4044	  492.00	  482.13	-2065.88	  213.85
     75.4378	  474.00	  475.79	-2077.54	  213.83
     75.4712	  472.00	  467.78	-2071.53	  213.81
     75.5047	  446.00	  453.89	-2083.64	  213.79
     75.5381	  469.00	  434.17	-2040.92	  213.76
     75.5715	  412.00	  412.48	-2076.23	  213.74
     75.6049	  388.00	  392.54	-2080.29	  213.72
     75.6384	  391.00	  375.71	-2060.46	  213.70
     75.6718	  366.00	  361.65	-2071.40	  213.68
     75.7052	  336.00	  349.69	-2089.44	  213.66
     75.7386	  283.00	  339.54	-2132.29	  213.64
     75.7720	  332.00	  331.40	-2075.15	  213.62
     75.8055	  331.00	  325.04	-2069.79	  213.59
     75.8389	  321.00	  320.07	-2074.82	  213.57
     75.8723	  295.00	  316.43	-2097.18	  213.55
     75.9057	  334.00	  313.74	-2055.49	  213.53
     75.9391	  304.00	  311.77	-2083.52	  213.51
     75.9726	  295.00	  310.46	-2091.21	  213.49
     76.0060	  310.00	  309.68	-2075.43	  213.46
     76.0394	  327.00	  309.37	-2058.12	  213.44
     76.0728	  289.00	  309.45	-2096.20	  213.42
     76.1063	  300.00	  310.06	-2085.81	  213.40
     76.1397	  317.00	  311.21	-2069.96	  213.38
     76.1731	  324.00	  313.05	-2064.80	  213.35
     76.2065	  283.00	  315.78	-2108.53	  213.33
     76.2400	  347.00	  319.74	-2048.49	  213.31
     76.2734	  316.00	  325.34	-2085.09	  213.29
     76.3068	  282.00	  333.10	-2126.85	  213.27
     76.3402	  385.00	  343.54	-2034.29	  213.24
     76.3736	  347.00	  357.08	-2085.83	  213.22
     76.4071	  392.00	  373.72	-2057.47	  213.20
     76.4405	  367.00	  392.29	-2101.04	  213.18
     76.4739	  355.00	  409.52	-2130.27	  213.15
     76.5073	  407.00	  420.19	-2088.94	  213.13
     76.5408	  422.00	  420.94	-2074.69	  213.11
     76.5742	  381.00	  413.70	-2108.45	  213.09
     76.6076	  394.00	  403.90	-2085.65	  213.06
     76.6410	  404.00	  395.77	-2067.52	  213.04
     76.6745	  381.00	  390.37	-2085.12	  213.02
     76.7079	  379.00	  386.07	-2082.82	  213.00
     76.7413	  397.00	  379.96	-2058.71	  212.97
     76.7747	  368.00	  370.66	-2078.41	  212.95
     76.8081	  354.00	  359.51	-2081.26	  212.93
     76.8416	  348.00	  348.56	-2076.31	  212.91
     76.8750	  309.00	  339.44	-2106.19	  212.88
     76.9084	  288.00	  332.61	-2120.36	  212.86
     76.9418	  311.00	  328.08	-2092.83	  212.84
     76.9753	  296.00	  325.67	-2105.42	  212.81
     77.0087	  314.00	  325.20	-2086.95	  212.79
     77.0421	  310.00	  326.47	-2092.22	  212.77
     77.0755	  267.00	  329.17	-2137.92	  212.74
     77.1089	  324.00	  332.82	-2084.57	  212.72
     77.1424	  354.00	  336.79	-2058.54	  212.70
     77.1758	  368.00	  340.75	-2048.50	  212.67
     77.2092	  354.00	  345.11	-2066.86	  212.65
     77.2426	  343.00	  350.50	-2083.25	  212.63
     77.2761	  351.00	  357.03	-2081.78	  212.60
     77.3095	  380.00	  363.72	-2059.47	  212.58
     77.3429	  376.00	  369.50	-2069.25	  212.56
     77.3763	  397.00	  374.10	-2052.85	  212.53
     77.4097	  375.00	  378.14	-2078.89	  212.51
     77.4432	  399.00	  381.80	-2058.55	  212.49
     77.4766	  337.00	  384.44	-2123.19	  212.46
     77.5100	  359.00	  385.56	-2102.31	  212.44
     77.5434	  363.00	  385.77	-2098.52	  212.41
     77.5769	  339.00	  386.17	-2122.92	  212.39
     77.6103	  408.00	  387.25	-2055.00	  212.37
     77.6437	  349.00	  388.11	-2114.86	  212.34
     77.6771	  386.00	  386.73	-2076.48	  212.32
     77.7106	  392.00	  381.87	-2065.62	  212.29
     77.7440	  370.00	  374.74	-2080.49	  212.27
     77.7774	  326.00	  367.95	-2117.70	  212.25
     77.8108	  307.00	  363.23	-2131.98	  212.22
     77.8442	  362.00	  361.19	-2074.94	  212.20
     77.8777	  319.00	  361.22	-2117.97	  212.17
     77.9111	  348.00	  362.30	-2090.05	  212.15
     77.9445	  350.00	  363.75	-2089.50	  212.12
     77.9779	  360.00	  365.16	-2080.91	  212.10
     78.0114	  384.00	  365.59	-2057.34	  212.08
     78.0448	  311.00	  364.31	-2129.06	  212.05
     78.0782	  353.00	  361.71	-2084.46	  212.03
     78.1116	  335.00	  359.20	-2099.95	  212.00
     78.1450	  308.00	  357.46	-2125.21	  211.98
     78.1785	  357.00	  355.90	-2074.65	  211.95
     78.2119	  369.00	  353.44	-2060.19	  211.93
     78.2453	  314.00	  349.46	-2111.21	  211.90
     78.2787	  336.00	  344.23	-2083.98	  211.88
     78.3121	  318.00	  338.70	-2096.45	  211.85
     78.3456	  323.00	  333.83	-2086.58	  211.83
     78.3790	  311.00	  329.75	-2094.50	  211.80
     78.4124	  354.00	  326.27	-2048.02	  211.78
     78.4458	  338.00	  323.09	-2060.84	  211.75
     78.4793	  295.00	  320.36	-2101.11	  211.73
     78.5127	  302.00	  318.46	-2092.21	  211.70
     78.5461	  313.00	  317.65	-2080.40	  211.68
     78.5795	  335.00	  317.98	-2058.73	  211.65
     78.6130	  319.00	  319.39	-2076.14	  211.63
     78.6464	  324.00	  321.51	-2073.26	  211.60
     78.6798	  326.00	  323.84	-2073.59	  211.58
     78.7132	  347.00	  326.25	-2055.00	  211.55
     78.7466	  353.00	  329.15	-2051.90	  211.53
     78.7801	  332.00	  333.31	-2077.06	  211.50
     78.8135	  368.00	  339.44	-2047.19	  211.47
     78.8469	  362.00	  348.00	-2061.75	  211.45
     78.8803	  363.00	  359.19	-2071.94	  211.42
     78.9138	  381.00	  372.50	-2067.25	  211.40
     78.9472	  442.00	  386.74	-2020.49	  211.37
     78.9806	  476.00	  399.54	-1999.29	  211.35
     79.0140	  413.00	  407.81	-2070.56	  211.32
     79.0475	  446.00	  409.00	-2038.75	  211.29
     79.0809	  463.00	  403.40	-2016.15	  211.27
     79.1143	  392.00	  394.45	-2078.20	  211.24
     79.1477	  385.00	  385.69	-2076.44	  211.22
     79.1811	  422.00	  378.93	-2032.68	  211.19
     79.2146	  380.00	  373.69	-2069.44	  211.16
     79.2480	  360.00	  368.24	-2083.99	  211.14
     79.2814	  391.00	  360.89	-2045.64	  211.11
     79.3148	  337.00	  351.30	-2090.05	  211.08
     79.3483	  376.00	  340.77	-2040.52	  211.06
     79.3817	  308.00	  330.72	-2098.47	  211.03
     79.4151	  322.00	  322.15	-2075.90	  211.00
     79.4485	  318.00	  315.28	-2073.03	  210.98
     79.4819	  299.00	  309.84	-2086.59	  210.95
     79.5154	  300.00	  305.65	-2081.40	  210.92
     79.5488	  304.00	  302.44	-2074.19	  210.90
     79.5822	  313.00	  299.98	-2062.73	  210.87
     79.6156	  299.00	  298.05	-2074.80	  210.84
     79.6491	  292.00	  296.56	-2080.31	  210.82
     79.6825	  298.00	  295.42	-2073.17	  210.79
     79.7159	  274.00	  294.47	-2096.22	  210.76
     79.7493	  304.00	  293.72	-2065.47	  210.74
     79.7827	  284.00	  293.12	-2084.87	  210.71
     79.8162	  281.00	  292.64	-2087.39	  210.68
     79.8496	  304.00	  292.28	-2064.03	  210.66
     79.8830	  298.00	  292.03	-2069.78	  210.63
     79.9164	  306.00	  291.87	-2061.62	  210.60
     79.9499	  290.00	  291.69	-2077.44	  210.57
     79.9833	  317.00	  292.01	-2050.76	  210.55
     17.5327	        	        	        	        	       0	(  1  0  0)	  0  1 :  1
     17.5759	        	        	        	        	       0	(  1  0  0)	  0  2 :  1
     24.1508	        	        	        	        	       0	(  0  1  1)	  0  1 :  1
     24.2109	        	        	        	        	       0	(  0  1  1)	  0  2 :  1
     24.5606	        	        	        	        	       0	(  1  1  0)	  0  1 :  1
     24.6217	        	        	        	        	       0	(  1  1  0)	  0  2 :  1
     28.2844	        	        	        	        	       0	( -1  1  1)	  0  1 :  1
     28.3552	        	        	        	        	       0	( -1  1  1)	  0  2 :  1
     31.5553	        	        	        	        	       0	(  1  1  1)	  0  1 :  1
     31.6347	        	        	        	        	       0	(  1  1  1)	  0  2 :  1
     34.2073	        	        	        	        	       0	(  0  0  2)	  0  1 :  1
     34.2937	        	        	        	        	       0	(  0  0  2)	  0  2 :  1
     34.5399	        	        	        	        	       0	(  0  2  0)	  0  1 :  1
     34.6273	        	        	        	        	       0	(  0  2  0)	  0  2 :  1
     35.3901	        	        	        	        	       0	(  2  0  0)	  0  1 :  1
     35.4798	        	        	        	        	       0	(  2  0  0)	  0  2 :  1
     35.9620	        	        	        	        	       0	( -1  0  2)	  0  1 :  1
     36.0533	        	        	        	        	       0	( -1  0  2)	  0  2 :  1
     38.4563	        	        	        	        	       0	(  0  1  2)	  0  1 :  1
     38.5544	        	        	        	        	       0	(  0  1  2)	  0  2 :  1
     38.6821	        	        	        	        	       0	(  0  2  1)	  0  1 :  1
     38.7808	        	        	        	        	       0	(  0  2  1)	  0  2 :  1
     38.9513	        	        	        	        	       0	(  1  2  0)	  0  1 :  1
     39.0507	        	        	        	        	       0	(  1  2  0)	  0  2 :  1
     39.5287	        	        	        	        	       0	(  2  1  0)	  0  1 :  1
     39.6298	        	        	        	        	       0	(  2  1  0)	  0  2 :  1
     40.0498	        	        	        	        	       0	( -1  1  2)	  0  1 :  1
     40.1522	        	        	        	        	       0	( -1  1  2)	  0  2 :  1
     40.8299	        	        	        	        	       0	( -2  1  1)	  0  1 :  1
     40.9346	        	        	        	        	       0	( -2  1  1)	  0  2 :  1
     41.1913	        	        	        	        	       0	(  1  0  2)	  0  1 :  1
     41.2970	        	        	        	        	       0	(  1  0  2)	  0  2 :  1
     41.5127	        	        	        	        	       0	( -1  2  1)	  0  1 :  1
     41.6193	        	        	        	        	       0	( -1  2  1)	  0  2 :  1
     43.9148	        	        	        	        	       0	(  1  2  1)	  0  1 :  1
     44.0282	        	        	        	        	       0	(  1  2  1)	  0  2 :  1
     44.8780	        	        	        	        	       0	(  1  1  2)	  0  1 :  1
     44.9941	        	        	        	        	       0	(  1  1  2)	  0  2 :  1
     45.5938	        	        	        	        	       0	( -2  0  2)	  0  1 :  1
     45.5905	        	        	        	        	       0	(  2  1  1)	  0  1 :  1
     45.7120	        	        	        	        	       0	( -2  0  2)	  0  2 :  1
     45.7087	        	        	        	        	       0	(  2  1  1)	  0  2 :  1
     49.0159	        	        	        	        	       0	( -2  1  2)	  0  1 :  1
     49.1442	        	        	        	        	       0	( -2  1  2)	  0  2 :  1
     49.3542	        	        	        	        	       0	(  0  2  2)	  0  1 :  1
     49.4835	        	        	        	        	       0	(  0  2  2)	  0  2 :  1
     50.2371	        	        	        	        	       0	(  2  2  0)	  0  1 :  1
     50.3690	        	        	        	        	       0	(  2  2  0)	  0  2 :  1
     50.6692	        	        	        	        	       0	( -1  2  2)	  0  1 :  1
     50.8024	        	        	        	        	       0	( -1  2  2)	  0  2 :  1
     51.3200	        	        	        	        	       0	( -2  2  1)	  0  1 :  1
     51.4551	        	        	        	        	       0	( -2  2  1)	  0  2 :  1
     54.1232	        	        	        	        	       0	(  2  0  2)	  0  1 :  1
     54.1888	        	        	        	        	       0	(  3  0  0)	  0  1 :  1
     54.2669	        	        	        	        	       0	(  2  0  2)	  0  2 :  1
     54.3328	        	        	        	        	       0	(  3  0  0)	  0  2 :  1
     54.7632	        	        	        	        	       0	(  1  2  2)	  0  1 :  1
     54.9090	        	        	        	        	       0	(  1  2  2)	  0  2 :  1
     55.3799	        	        	        	        	       0	(  2  2  1)	  0  1 :  1
     55.4090	        	        	        	        	       0	(  0  1  3)	  0  1 :  1
     55.5275	        	        	        	        	       0	(  2  2  1)	  0  2 :  1
     55.5568	        	        	        	        	       0	(  0  1  3)	  0  2 :  1
     55.6433	        	        	        	        	       0	( -1  1  3)	  0  1 :  1
     55.7918	        	        	        	        	       0	( -1  1  3)	  0  2 :  1
     55.8633	        	        	        	        	       0	(  0  3  1)	  0  1 :  1
     56.0125	        	        	        	        	       0	(  0  3  1)	  0  2 :  1
     56.0667	        	        	        	        	       0	(  1  3  0)	  0  1 :  1
     56.2165	        	        	        	        	       0	(  1  3  0)	  0  2 :  1
     57.1683	        	        	        	        	       0	(  2  1  2)	  0  1 :  1
     57.2316	        	        	        	        	       0	(  3  1  0)	  0  1 :  1
     57.2609	        	        	        	        	       0	( -3  1  1)	  0  1 :  1
     57.3217	        	        	        	        	       0	(  2  1  2)	  0  2 :  1
     57.3851	        	        	        	        	       0	(  3  1  0)	  0  2 :  1
     57.4145	        	        	        	        	       0	( -3  1  1)	  0  2 :  1
     58.0361	        	        	        	        	       0	( -1  3  1)	  0  1 :  1
     58.1922	        	        	        	        	       0	( -1  3  1)	  0  2 :  1
     58.3841	        	        	        	        	       0	( -2  2  2)	  0  1 :  1
     58.5413	        	        	        	        	       0	( -2  2  2)	  0  2 :  1
     59.9356	        	        	        	        	       0	(  1  3  1)	  0  1 :  1
     60.0979	        	        	        	        	       0	(  1  3  1)	  0  2 :  1
     60.1219	        	        	        	        	       0	( -3  0  2)	  0  1 :  1
     60.2848	        	        	        	        	       0	( -3  0  2)	  0  2 :  1
     61.3728	        	        	        	        	       0	(  1  1  3)	  0  1 :  1
     61.5399	        	        	        	        	       0	(  1  1  3)	  0  2 :  1
     62.0308	        	        	        	        	       0	( -2  1  3)	  0  1 :  1
     62.2000	        	        	        	        	       0	( -2  1  3)	  0  2 :  1
     62.8974	        	        	        	        	       0	(  3  1  1)	  0  1 :  1
     62.9804	        	        	        	        	       0	( -3  1  2)	  0  1 :  1
     63.0695	        	        	        	        	       0	(  3  1  1)	  0  2 :  1
     63.1528	        	        	        	        	       0	( -3  1  2)	  0  2 :  1
     64.1431	        	        	        	        	       0	(  0  2  3)	  0  1 :  1
     64.3195	        	        	        	        	       0	(  0  2  3)	  0  2 :  1
     64.3575	        	        	        	        	       0	( -1  2  3)	  0  1 :  1
     64.4032	        	        	        	        	       0	(  0  3  2)	  0  1 :  1
     64.5346	        	        	        	        	       0	( -1  2  3)	  0  2 :  1
     64.5805	        	        	        	        	       0	(  0  3  2)	  0  2 :  1
     65.1480	        	        	        	        	       0	(  2  3  0)	  0  1 :  1
     65.3279	        	        	        	        	       0	(  2  3  0)	  0  2 :  1
     65.5145	        	        	        	        	       0	( -1  3  2)	  0  1 :  1
     65.6956	        	        	        	        	       0	( -1  3  2)	  0  2 :  1
     65.7579	        	        	        	        	       0	(  2  2  2)	  0  1 :  1
     65.8162	        	        	        	        	       0	(  3  2  0)	  0  1 :  1
     65.8432	        	        	        	        	       0	( -3  2  1)	  0  1 :  1
     65.9399	        	        	        	        	       0	(  2  2  2)	  0  2 :  1
     65.9984	        	        	        	        	       0	(  3  2  0)	  0  2 :  1
     66.0255	        	        	        	        	       0	( -3  2  1)	  0  2 :  1
     66.0685	        	        	        	        	       0	( -2  3  1)	  0  1 :  1
     66.2516	        	        	        	        	       0	( -2  3  1)	  0  2 :  1
     69.0434	        	        	        	        	       0	(  1  3  2)	  0  1 :  1
     69.2370	        	        	        	        	       0	(  1  3  2)	  0  2 :  1
     69.5835	        	        	        	        	       0	(  2  3  1)	  0  1 :  1
     69.6625	        	        	        	        	       0	(  1  2  3)	  0  1 :  1
     69.7791	        	        	        	        	       0	(  2  3  1)	  0  2 :  1
     69.8584	        	        	        	        	       0	(  1  2  3)	  0  2 :  1
     70.2789	        	        	        	        	       0	( -2  2  3)	  0  1 :  1
     70.4770	        	        	        	        	       0	( -2  2  3)	  0  2 :  1
     70.8686	        	        	        	        	       0	(  3  0  2)	  0  1 :  1
     71.0690	        	        	        	        	       0	(  3  0  2)	  0  2 :  1
     71.0929	        	        	        	        	       0	(  3  2  1)	  0  1 :  1
     71.1710	        	        	        	        	       0	( -3  2  2)	  0  1 :  1
     71.2685	        	        	        	        	       0	( -1  0  4)	  0  1 :  1
     71.2941	        	        	        	        	       0	(  3  2  1)	  0  2 :  1
     71.3724	        	        	        	        	       0	( -3  2  2)	  0  2 :  1
     71.4703	        	        	        	        	       0	( -1  0  4)	  0  2 :  1
     71.9225	        	        	        	        	       0	(  0  0  4)	  0  1 :  1
     72.1267	        	        	        	        	       0	(  0  0  4)	  0  2 :  1
     72.2445	        	        	        	        	       0	( -2  3  2)	  0  1 :  1
     72.4499	        	        	        	        	       0	( -2  3  2)	  0  2 :  1
     72.6272	        	        	        	        	       0	(  2  1  3)	  0  1 :  1
     72.7092	        	        	        	        	       0	(  0  4  0)	  0  1 :  1
     72.8341	        	        	        	        	       0	(  2  1  3)	  0  2 :  1
     72.9165	        	        	        	        	       0	(  0  4  0)	  0  2 :  1
     73.5073	        	        	        	        	       0	(  3  1  2)	  0  1 :  1
     73.6357	        	        	        	        	       0	( -3  1  3)	  0  1 :  1
     73.7176	        	        	        	        	       0	(  3  1  2)	  0  2 :  1
     73.8464	        	        	        	        	       0	( -3  1  3)	  0  2 :  1
     73.9014	        	        	        	        	       0	( -1  1  4)	  0  1 :  1
     74.1132	        	        	        	        	       0	( -1  1  4)	  0  2 :  1
     74.5461	        	        	        	        	       0	(  0  1  4)	  0  1 :  1
     74.7354	        	        	        	        	       0	(  4  0  0)	  0  1 :  1
     74.7604	        	        	        	        	       0	(  0  1  4)	  0  2 :  1
     74.9504	        	        	        	        	       0	(  4  0  0)	  0  2 :  1
     75.2738	        	        	        	        	       0	(  0  4  1)	  0  1 :  1
     75.4479	        	        	        	        	       0	(  1  4  0)	  0  1 :  1
     75.4910	        	        	        	        	       0	(  0  4  1)	  0  2 :  1
     75.6657	        	        	        	        	       0	(  1  4  0)	  0  2 :  1
     76.1111	        	        	        	        	       0	( -2  0  4)	  0  1 :  1
     76.3316	        	        	        	        	       0	( -2  0  4)	  0  2 :  1
     76.5140	        	        	        	        	       0	( -4  1  1)	  0  1 :  1
     76.7361	        	        	        	        	       0	( -4  1  1)	  0  2 :  1
     77.1477	        	        	        	        	       0	( -1  4  1)	  0  1 :  1
     77.3238	        	        	        	        	       0	(  4  1  0)	  0  1 :  1
     77.3723	        	        	        	        	       0	( -1  4  1)	  0  2 :  1
     77.4728	        	        	        	        	       0	(  0  3  3)	  0  1 :  1
     77.5491	        	        	        	        	       0	(  4  1  0)	  0  2 :  1
     77.6704	        	        	        	        	       0	( -1  3  3)	  0  1 :  1
     77.6987	        	        	        	        	       0	(  0  3  3)	  0  2 :  1
     77.8971	        	        	        	        	       0	( -1  3  3)	  0  2 :  1
     78.0208	        	        	        	        	       0	(  1  0  4)	  0  1 :  1
     78.1837	        	        	        	        	       0	( -4  0  2)	  0  1 :  1
     78.2489	        	        	        	        	       0	(  1  0  4)	  0  2 :  1
     78.4125	        	        	        	        	       0	( -4  0  2)	  0  2 :  1
     78.6849	        	        	        	        	       0	( -2  1  4)	  0  1 :  1
     78.8109	        	        	        	        	       0	(  1  4  1)	  0  1 :  1
     78.9158	        	        	        	        	       0	( -2  1  4)	  0  2 :  1
     78.9665	        	        	        	        	       0	(  2  3  2)	  0  1 :  1
     79.0206	        	        	        	        	       0	(  3  3  0)	  0  1 :  1
     79.0423	        	        	        	        	       0	(  1  4  1)	  0  2 :  1
     79.0457	        	        	        	        	       0	( -3  3  1)	  0  1 :  1
     79.1985	        	        	        	        	       0	(  2  3  2)	  0  2 :  1
     79.2529	        	        	        	        	       0	(  3  3  0)	  0  2 :  1
     79.2780	        	        	        	        	       0	( -3  3  1)	  0  2 :  1
     80.3819	        	        	        	        	       0	(  2  2  3)	  0  1 :  1
     80.5769	        	        	        	        	       0	(  1  1  4)	  0  1 :  1
     80.6198	        	        	        	        	       0	(  2  2  3)	  0  2 :  1
     80.7384	        	        	        	        	       0	( -4  1  2)	  0  1 :  1
     80.8156	        	        	        	        	       0	(  1  1  4)	  0  2 :  1
     80.9779	        	        	        	        	       0	( -4  1  2)	  0  2 :  1
     81.2346	        	        	        	        	       0	(  3  2  2)	  0  1 :  1
     81.3591	        	        	        	        	       0	( -3  2  3)	  0  1 :  1
     81.4762	        	        	        	        	       0	(  3  2  2)	  0  2 :  1
     81.6012	        	        	        	        	       0	( -3  2  3)	  0  2 :  1
     81.6170	        	        	        	        	       0	( -1  2  4)	  0  1 :  1
     81.8602	        	        	        	        	       0	( -1  2  4)	  0  2 :  1
     82.2435	        	        	        	        	       0	(  0  2  4)	  0  1 :  1
     82.4894	        	        	        	        	       0	(  0  2  4)	  0  2 :  1
     82.6247	        	        	        	        	       0	(  1  3  3)	  0  1 :  1
     82.8103	        	        	        	        	       0	(  0  4  2)	  0  1 :  1
     82.8723	        	        	        	        	       0	(  1  3  3)	  0  2 :  1
     83.0587	        	        	        	        	       0	(  0  4  2)	  0  2 :  1
     83.1282	        	        	        	        	       0	(  4  1  1)	  0  1 :  1
     83.2081	        	        	        	        	       0	( -2  3  3)	  0  1 :  1
     83.3779	        	        	        	        	       0	(  4  1  1)	  0  2 :  1
     83.4582	        	        	        	        	       0	( -2  3  3)	  0  2 :  1
     83.4886	        	        	        	        	       0	(  2  4  0)	  0  1 :  1
     83.7399	        	        	        	        	       0	(  2  4  0)	  0  2 :  1
     83.8234	        	        	        	        	       0	( -1  4  2)	  0  1 :  1
     83.9808	        	        	        	        	       0	(  3  3  1)	  0  1 :  1
     84.0551	        	        	        	        	       0	( -3  3  2)	  0  1 :  1
     84.0762	        	        	        	        	       0	( -1  4  2)	  0  2 :  1
     84.1621	        	        	        	        	       0	( -4  2  1)	  0  1 :  1
     84.2344	        	        	        	        	       0	(  3  3  1)	  0  2 :  1
     84.3089	        	        	        	        	       0	( -3  3  2)	  0  2 :  1
     84.3312	        	        	        	        	       0	( -2  4  1)	  0  1 :  1
     84.4164	        	        	        	        	       0	( -4  2  1)	  0  2 :  1
     84.5863	        	        	        	        	       0	( -2  4  1)	  0  2 :  1
     84.9542	        	        	        	        	       0	(  4  2  0)	  0  1 :  1
     85.2121	        	        	        	        	       0	(  4  2  0)	  0  2 :  1
     86.1547	        	        	        	        	       0	( -3  0  4)	  0  1 :  1
     86.2892	        	        	        	        	       0	( -2  2  4)	  0  1 :  1
     86.4181	        	        	        	        	       0	( -3  0  4)	  0  2 :  1
     86.5532	        	        	        	        	       0	( -2  2  4)	  0  2 :  1
     87.0868	        	        	        	        	       0	(  1  4  2)	  0  1 :  1
     87.3545	        	        	        	        	       0	(  1  4  2)	  0  2 :  1
     87.5923	        	        	        	        	       0	(  2  4  1)	  0  1 :  1
     87.8625	        	        	        	        	       0	(  2  4  1)	  0  2 :  1
     88.1520	        	        	        	        	       0	(  1  2  4)	  0  1 :  1
     88.3115	        	        	        	        	       0	( -4  2  2)	  0  1 :  1
     88.4248	        	        	        	        	       0	(  1  2  4)	  0  2 :  1
     88.4960	        	        	        	        	       0	(  3  1  3)	  0  1 :  1
     88.5851	        	        	        	        	       0	( -4  2  2)	  0  2 :  1
     88.6683	        	        	        	        	       0	( -3  1  4)	  0  1 :  1
     88.7705	        	        	        	        	       0	(  3  1  3)	  0  2 :  1
     88.9436	        	        	        	        	       0	( -3  1  4)	  0  2 :  1
     89.2585	        	        	        	        	       0	(  2  0  4)	  0  1 :  1
     89.5366	        	        	        	        	       0	(  2  0  4)	  0  2 :  1
     89.8467	        	        	        	        	       0	( -4  1  3)	  0  1 :  1
     90.1061	        	        	        	        	       0	( -2  4  2)	  0  1 :  1
     90.1277	        	        	        	        	       0	( -4  1  3)	  0  2 :  1
     90.3884	        	        	        	        	       0	( -2  4  2)	  0  2 :  1
     90.6772	        	        	        	        	       0	(  4  2  1)	  0  1 :  1
     90.9623	        	        	        	        	       0	(  4  2  1)	  0  2 :  1
     91.2785	        	        	        	        	       0	(  4  0  2)	  0  1 :  1
     91.5666	        	        	        	        	       0	(  4  0  2)	  0  2 :  1
     91.7694	        	        	        	        	       0	(  2  1  4)	  0  1 :  1
     92.0601	        	        	        	        	       0	(  2  1  4)	  0  2 :  1
     92.9827	        	        	        	        	       0	(  2  3  3)	  0  1 :  1
     93.2796	        	        	        	        	       0	(  2  3  3)	  0  2 :  1
     93.7916	        	        	        	        	       0	(  4  1  2)	  0  1 :  1
     93.8257	        	        	        	        	       0	(  3  3  2)	  0  1 :  1
     93.9490	        	        	        	        	       0	( -3  3  3)	  0  1 :  1
     94.0927	        	        	        	        	       0	(  4  1  2)	  0  2 :  1
     94.1270	        	        	        	        	       0	(  3  3  2)	  0  2 :  1
     94.2046	        	        	        	        	       0	( -1  3  4)	  0  1 :  1
     94.2510	        	        	        	        	       0	( -3  3  3)	  0  2 :  1
     94.5079	        	        	        	        	       0	( -1  3  4)	  0  2 :  1
     94.8266	        	        	        	        	       0	(  0  3  4)	  0  1 :  1
     95.1333	        	        	        	        	       0	(  0  3  4)	  0  2 :  1
     95.1556	        	        	        	        	       0	(  0  4  3)	  0  1 :  1
     95.3493	        	        	        	        	       0	( -1  4  3)	  0  1 :  1
     95.4640	        	        	        	        	       0	(  0  4  3)	  0  2 :  1
     95.4852	        	        	        	        	       0	( -1  1  5)	  0  1 :  1
