ZrO2 monoclinic   Chi2:  3.3000  CELL:    5.14715   5.20256   5.32006   90.0000   99.1905   90.0000   SPGR: P 1 21/c 1             TEMP:      0.00
  1   2094     1.54060     1.54439     0.00000     0.09431     0.00000    0
   252     0     1
       0.00000      15.00000
 2Theta	Yobs	Ycal	Yobs-Ycal	Backg	Posr	(hkl)	K
     10.0299	  413.00	  295.54	-2075.75	  225.37
     10.0633	  409.00	  295.52	-2075.75	  225.34
     10.0968	  454.00	  295.50	-2075.75	  225.32
     10.1302	  479.00	  295.48	-2075.75	  225.30
     10.1636	  460.00	  295.46	-2075.75	  225.28
     10.1970	  432.00	  295.43	-2075.75	  225.26
     10.2304	  470.00	  295.41	-2075.75	  225.23
     10.2639	  422.00	  295.39	-2075.75	  225.21
     10.2973	  416.00	  295.37	-2075.75	  225.19
     10.3307	  398.00	  295.35	-2075.75	  225.17
     10.3641	  439.00	  295.33	-2075.75	  225.15
     10.3976	  445.00	  295.30	-2075.75	  225.13
     10.4310	  442.00	  295.28	-2075.75	  225.11
     10.4644	  439.00	  295.26	-2075.75	  225.08
     10.4978	  428.00	  295.24	-2075.75	  225.06
     10.5312	  428.00	  295.22	-2075.75	  225.04
     10.5647	  434.00	  295.20	-2075.75	  225.02
     10.5981	  445.00	  295.18	-2075.75	  225.00
     10.6315	  427.00	  295.16	-2075.75	  224.98
     10.6649	  413.00	  295.13	-2075.75	  224.96
     10.6984	  395.00	  295.11	-2075.75	  224.94
     10.7318	  429.00	  295.09	-2075.75	  224.91
     10.7652	  412.00	  295.07	-2075.75	  224.89
     10.7986	  397.00	  295.05	-2075.75	  224.87
     10.8321	  461.00	  295.03	-2075.75	  224.85
     10.8655	  419.00	  295.01	-2075.75	  224.83
     10.8989	  391.00	  294.99	-2075.75	  224.81
     10.9323	  422.00	  294.97	-2075.75	  224.79
     10.9657	  392.00	  294.95	-2075.75	  224.77
     10.9992	  381.00	  294.93	-2075.75	  224.75
     11.0326	  397.00	  294.90	-2075.75	  224.73
     11.0660	  411.00	  294.88	-2075.75	  224.71
     11.0994	  385.00	  294.86	-2075.75	  224.69
     11.1329	  419.00	  294.84	-2075.75	  224.67
     11.1663	  390.00	  294.82	-2075.75	  224.65
     11.1997	  434.00	  294.80	-2075.75	  224.63
     11.2331	  436.00	  294.78	-2075.75	  224.60
     11.2665	  392.00	  294.76	-2075.75	  224.58
     11.3000	  418.00	  294.74	-2075.75	  224.56
     11.3334	  424.00	  294.72	-2075.75	  224.54
     11.3668	  400.00	  294.70	-2075.75	  224.52
     11.4002	  436.00	  294.68	-2075.75	  224.50
     11.4337	  402.00	  294.66	-2075.75	  224.48
     11.4671	  396.00	  294.64	-2075.75	  224.46
     11.5005	  379.00	  294.62	-2075.75	  224.44
     11.5339	  420.00	  294.60	-2075.75	  224.42
     11.5673	  410.00	  294.58	-2075.75	  224.40
     11.6008	  402.00	  294.56	-2075.75	  224.38
     11.6342	  406.00	  294.54	-2075.75	  224.36
     11.6676	  411.00	  294.52	-2075.75	  224.35
     11.7010	  402.00	  294.50	-2075.75	  224.33
     11.7345	  378.00	  294.48	-2075.75	  224.31
     11.7679	  412.00	  294.46	-2075.75	  224.29
     11.8013	  388.00	  294.44	-2075.75	  224.27
     11.8347	  382.00	  294.42	-2075.75	  224.25
     11.8682	  384.00	  294.41	-2075.75	  224.23
     11.9016	  378.00	  294.39	-2075.75	  224.21
     11.9350	  394.00	  294.37	-2075.75	  224.19
     11.9684	  383.00	  294.35	-2075.75	  224.17
     12.0018	  366.00	  294.33	-2075.75	  224.15
     12.0353	  409.00	  294.31	-2075.75	  224.13
     12.0687	  399.00	  294.29	-2075.75	  224.11
     12.1021	  351.00	  294.27	-2075.75	  224.09
     12.1355	  385.00	  294.25	-2075.75	  224.07
     12.1690	  395.00	  294.23	-2075.75	  224.05
     12.2024	  390.00	  294.21	-2075.75	  224.04
     12.2358	  424.00	  294.19	-2075.75	  224.02
     12.2692	  416.00	  294.18	-2075.75	  224.00
     12.3026	  400.00	  294.16	-2075.75	  223.98
     12.3361	  397.00	  294.14	-2075.75	  223.96
     12.3695	  418.00	  294.12	-2075.75	  223.94
     12.4029	  388.00	  294.10	-2075.75	  223.92
     12.4363	  360.00	  294.08	-2075.75	  223.90
     12.4698	  350.00	  294.06	-2075.75	  223.89
     12.5032	  332.00	  294.04	-2075.75	  223.87
     12.5366	  349.00	  294.03	-2075.75	  223.85
     12.5700	  354.00	  294.01	-2075.75	  223.83
     12.6034	  362.00	  293.99	-2075.75	  223.81
     12.6369	  410.00	  293.97	-2075.75	  223.79
     12.6703	  371.00	  293.95	-2075.75	  223.77
     12.7037	  397.00	  293.93	-2075.75	  223.76
     12.7371	  353.00	  293.92	-2075.75	  223.74
     12.7706	  363.00	  293.90	-2075.75	  223.72
     12.8040	  388.00	  293.88	-2075.75	  223.70
     12.8374	  326.00	  293.86	-2075.75	  223.68
     12.8708	  384.00	  293.84	-2075.75	  223.67
     12.9042	  364.00	  293.82	-2075.75	  223.65
     12.9377	  409.00	  293.81	-2075.75	  223.63
     12.9711	  386.00	  293.79	-2075.75	  223.61
     13.0045	  361.00	  293.77	-2075.75	  223.59
     13.0379	  384.00	  293.75	-2075.75	  223.58
     13.0714	  413.00	  293.73	-2075.75	  223.56
     13.1048	  409.00	  293.72	-2075.75	  223.54
     13.1382	  367.00	  293.70	-2075.75	  223.52
     13.1716	  426.00	  293.68	-2075.75	  223.50
     13.2051	  383.00	  293.66	-2075.75	  223.49
     13.2385	  374.00	  293.65	-2075.75	  223.47
     13.2719	  380.00	  293.63	-2075.75	  223.45
     13.3053	  366.00	  293.61	-2075.75	  223.43
     13.3387	  399.00	  293.59	-2075.75	  223.42
     13.3722	  332.00	  293.58	-2075.75	  223.40
     13.4056	  351.00	  293.56	-2075.75	  223.38
     13.4390	  375.00	  293.54	-2075.75	  223.36
     13.4724	  377.00	  293.52	-2075.75	  223.35
     13.5059	  393.00	  293.51	-2075.75	  223.33
     13.5393	  359.00	  293.49	-2075.75	  223.31
     13.5727	  410.00	  293.47	-2075.75	  223.29
     13.6061	  374.00	  293.46	-2075.75	  223.28
     13.6395	  380.00	  293.44	-2075.75	  223.26
     13.6730	  371.00	  293.42	-2075.75	  223.24
     13.7064	  350.00	  293.40	-2075.75	  223.23
     13.7398	  389.00	  293.39	-2075.75	  223.21
     13.7732	  374.00	  293.37	-2075.75	  223.19
     13.8067	  354.00	  293.35	-2075.75	  223.18
     13.8401	  369.00	  293.34	-2075.75	  223.16
     13.8735	  368.00	  293.32	-2075.75	  223.14
     13.9069	  384.00	  293.30	-2075.75	  223.12
     13.9403	  341.00	  293.29	-2075.75	  223.11
     13.9738	  366.00	  293.27	-2075.75	  223.09
     14.0072	  381.00	  293.25	-2075.75	  223.07
     14.0406	  394.00	  293.24	-2075.75	  223.06
     14.0740	  403.00	  293.22	-2075.75	  223.04
     14.1075	  381.00	  293.20	-2075.75	  223.03
     14.1409	  348.00	  293.19	-2075.75	  223.01
     14.1743	  364.00	  293.17	-2075.75	  222.99
     14.2077	  331.00	  293.15	-2075.75	  222.98
     14.2412	  371.00	  293.14	-2075.75	  222.96
     14.2746	  385.00	  293.12	-2075.75	  222.94
     14.3080	  398.00	  293.10	-2075.75	  222.93
     14.3414	  361.00	  293.09	-2075.75	  222.91
     14.3748	  354.00	  293.07	-2075.75	  222.89
     14.4083	  362.00	  293.06	-2075.75	  222.88
     14.4417	  377.00	  293.04	-2075.75	  222.86
     14.4751	  364.00	  293.02	-2075.75	  222.85
     14.5085	  341.00	  293.01	-2075.75	  222.83
     14.5420	  359.00	  292.99	-2075.75	  222.81
     14.5754	  351.00	  292.98	-2075.75	  222.80
     14.6088	  350.00	  292.96	-2075.75	  222.78
     14.6422	  338.00	  292.94	-2075.75	  222.77
     14.6756	  339.00	  292.93	-2075.75	  222.75
     14.7091	  337.00	  292.91	-2075.75	  222.73
     14.7425	  342.00	  292.90	-2075.75	  222.72
     14.7759	  341.00	  292.88	-2075.75	  222.70
     14.8093	  390.00	  292.87	-2075.75	  222.69
     14.8428	  331.00	  292.85	-2075.75	  222.67
     14.8762	  335.00	  292.83	-2075.75	  222.66
     14.9096	  360.00	  292.82	-2075.75	  222.64
     14.9430	  335.00	  292.80	-2075.75	  222.63
     14.9764	  319.00	  292.79	-2075.75	  222.61
     15.0099	  355.00	  292.77	-2013.52	  222.59
     15.0433	  340.00	  293.22	-2028.97	  222.58
     15.0767	  348.00	  293.21	-2020.96	  222.56
     15.1101	  357.00	  293.21	-2011.96	  222.55
     15.1436	  357.00	  293.21	-2011.96	  222.53
     15.1770	  310.00	  293.21	-2058.96	  222.52
     15.2104	  339.00	  293.21	-2029.96	  222.50
     15.2438	  322.00	  293.21	-2046.96	  222.49
     15.2772	  341.00	  293.21	-2027.96	  222.47
     15.3107	  336.00	  293.21	-2032.96	  222.46
     15.3441	  339.00	  293.21	-2029.96	  222.44
     15.3775	  360.00	  293.22	-2008.97	  222.43
     15.4109	  314.00	  293.22	-2054.97	  222.41
     15.4444	  339.00	  293.23	-2029.98	  222.40
     15.4778	  349.00	  293.23	-2019.98	  222.38
     15.5112	  349.00	  293.24	-2019.99	  222.37
     15.5446	  311.00	  293.25	-2058.00	  222.35
     15.5781	  348.00	  293.26	-2021.01	  222.34
     15.6115	  310.00	  293.27	-2059.02	  222.32
     15.6449	  362.00	  293.28	-2007.03	  222.31
     15.6783	  363.00	  293.30	-2006.05	  222.29
     15.7117	  376.00	  293.31	-1993.06	  222.28
     15.7452	  398.00	  293.33	-1971.08	  222.27
     15.7786	  357.00	  293.35	-2012.10	  222.25
     15.8120	  343.00	  293.37	-2026.12	  222.24
     15.8454	  325.00	  293.39	-2044.14	  222.22
     15.8789	  321.00	  293.42	-2048.17	  222.21
     15.9123	  381.00	  293.45	-1988.20	  222.19
     15.9457	  293.00	  293.48	-2076.23	  222.18
     15.9791	  284.00	  293.51	-2085.26	  222.16
     16.0125	  325.00	  293.55	-2044.30	  222.15
     16.0460	  317.00	  293.59	-2052.34	  222.14
     16.0794	  373.00	  293.63	-1996.38	  222.12
     16.1128	  300.00	  293.68	-2069.43	  222.11
     16.1462	  330.00	  293.74	-2039.49	  222.09
     16.1797	  334.00	  293.79	-2035.54	  222.08
     16.2131	  311.00	  293.86	-2058.61	  222.07
     16.2465	  356.00	  293.93	-2013.68	  222.05
     16.2799	  354.00	  294.00	-2015.75	  222.04
     16.3133	  356.00	  294.09	-2013.84	  222.02
     16.3468	  326.00	  294.18	-2043.93	  222.01
     16.3802	  287.00	  294.28	-2083.03	  222.00
     16.4136	  342.00	  294.39	-2028.14	  221.98
     16.4470	  334.00	  294.52	-2036.27	  221.97
     16.4805	  332.00	  294.65	-2038.40	  221.96
     16.5139	  306.00	  294.80	-2064.55	  221.94
     16.5473	  310.00	  294.97	-2060.72	  221.93
     16.5807	  299.00	  295.16	-2071.91	  221.91
     16.6142	  331.00	  295.37	-2040.12	  221.90
     16.6476	  339.00	  295.60	-2032.35	  221.89
     16.6810	  338.00	  295.86	-2033.61	  221.87
     16.7144	  296.00	  296.16	-2075.91	  221.86
     16.7478	  318.00	  296.49	-2054.24	  221.85
     16.7813	  324.00	  296.88	-2048.62	  221.83
     16.8147	  335.00	  297.31	-2038.06	  221.82
     16.8481	  331.00	  297.81	-2042.56	  221.81
     16.8815	  335.00	  298.39	-2039.14	  221.79
     16.9150	  276.00	  299.06	-2098.81	  221.78
     16.9484	  325.00	  299.85	-2050.60	  221.77
     16.9818	  339.00	  300.78	-2037.53	  221.76
     17.0152	  334.00	  301.88	-2043.63	  221.74
     17.0486	  355.00	  303.21	-2023.96	  221.73
     17.0821	  336.00	  304.83	-2044.58	  221.72
     17.1155	  290.00	  306.83	-2092.58	  221.70
     17.1489	  318.00	  309.33	-2067.08	  221.69
     17.1823	  289.00	  312.50	-2099.25	  221.68
     17.2158	  325.00	  316.62	-2067.37	  221.66
     17.2492	  323.00	  322.14	-2074.89	  221.65
     17.2826	  342.00	  329.94	-2063.69	  221.64
     17.3160	  342.00	  341.89	-2075.64	  221.63
     17.3494	  322.00	  361.92	-2115.67	  221.61
     17.3829	  380.00	  397.15	-2092.90	  221.60
     17.4163	  407.00	  457.55	-2126.30	  221.59
     17.4497	  439.00	  551.79	-2188.54	  221.58
     17.4831	  582.00	  676.57	-2170.32	  221.56
     17.5166	  593.00	  795.37	-2278.12	  221.55
     17.5500	  687.00	  836.59	-2225.34	  221.54
     17.5834	  661.00	  772.83	-2187.58	  221.53
     17.6168	  541.00	  651.30	-2186.05	  221.51
     17.6502	  434.00	  532.62	-2174.37	  221.50
     17.6837	  403.00	  445.29	-2118.04	  221.49
     17.7171	  390.00	  390.07	-2075.82	  221.48
     17.7505	  352.00	  357.93	-2081.68	  221.46
     17.7839	  341.00	  339.47	-2074.22	  221.45
     17.8174	  293.00	  328.29	-2111.04	  221.44
     17.8508	  306.00	  320.89	-2090.64	  221.43
     17.8842	  349.00	  315.60	-2042.35	  221.42
     17.9176	  354.00	  311.63	-2033.38	  221.40
     17.9511	  332.00	  308.56	-2052.31	  221.39
     17.9845	  321.00	  306.14	-2060.89	  221.38
     18.0179	  283.00	  304.19	-2096.94	  221.37
     18.0513	  322.00	  302.59	-2056.34	  221.36
     18.0847	  343.00	  301.28	-2034.03	  221.34
     18.1182	  323.00	  300.18	-2052.93	  221.33
     18.1516	  320.00	  299.25	-2055.00	  221.32
     18.1850	  322.00	  298.46	-2052.21	  221.31
     18.2184	  334.00	  297.78	-2039.53	  221.30
     18.2519	  335.00	  297.19	-2037.94	  221.28
     18.2853	  305.00	  296.68	-2067.43	  221.27
     18.3187	  319.00	  296.23	-2052.98	  221.26
     18.3521	  298.00	  295.83	-2073.58	  221.25
     18.3855	  292.00	  295.48	-2079.23	  221.24
     18.4190	  278.00	  295.17	-2092.92	  221.23
     18.4524	  297.00	  294.88	-2073.63	  221.22
     18.4858	  321.00	  294.63	-2049.38	  221.20
     18.5192	  321.00	  294.40	-2049.15	  221.19
     18.5527	  309.00	  294.19	-2060.94	  221.18
     18.5861	  284.00	  294.00	-2085.75	  221.17
     18.6195	  279.00	  293.83	-2090.58	  221.16
     18.6529	  309.00	  293.67	-2060.42	  221.15
     18.6863	  295.00	  293.52	-2074.27	  221.14
     18.7198	  294.00	  293.39	-2075.14	  221.12
     18.7532	  296.00	  293.26	-2073.01	  221.11
     18.7866	  324.00	  293.15	-2044.90	  221.10
     18.8200	  294.00	  293.04	-2074.79	  221.09
     18.8535	  292.00	  292.94	-2076.69	  221.08
     18.8869	  278.00	  292.85	-2090.60	  221.07
     18.9203	  294.00	  292.76	-2074.51	  221.06
     18.9537	  283.00	  292.68	-2085.43	  221.05
     18.9872	  288.00	  292.60	-2080.35	  221.04
     19.0206	  300.00	  292.53	-2068.28	  221.03
     19.0540	  290.00	  292.46	-2078.21	  221.01
     19.0874	  282.00	  292.39	-2086.14	  221.00
     19.1208	  305.00	  292.33	-2063.08	  220.99
     19.1543	  364.00	  292.27	-2004.02	  220.98
     19.1877	  306.00	  292.22	-2061.97	  220.97
     19.2211	  296.00	  292.17	-2071.92	  220.96
     19.2545	  309.00	  292.11	-2058.86	  220.95
     19.2880	  267.00	  292.07	-2100.82	  220.94
     19.3214	  330.00	  292.02	-2037.77	  220.93
     19.3548	  280.00	  291.98	-2087.73	  220.92
     19.3882	  314.00	  291.93	-2053.68	  220.91
     19.4216	  300.00	  291.89	-2067.64	  220.90
     19.4551	  291.00	  291.86	-2076.61	  220.89
     19.4885	  307.00	  291.82	-2060.57	  220.88
     19.5219	  337.00	  291.78	-2030.53	  220.87
     19.5553	  302.00	  291.75	-2065.50	  220.86
     19.5888	  313.00	  291.71	-2054.46	  220.85
     19.6222	  328.00	  291.68	-2039.43	  220.84
     19.6556	  269.00	  291.65	-2098.40	  220.82
     19.6890	  300.00	  291.62	-2067.37	  220.81
     19.7224	  287.00	  291.59	-2080.34	  220.80
     19.7559	  264.00	  291.56	-2103.31	  220.79
     19.7893	  308.00	  291.53	-2059.28	  220.78
     19.8227	  288.00	  291.51	-2079.26	  220.77
     19.8561	  303.00	  291.48	-2064.23	  220.76
     19.8896	  285.00	  291.46	-2082.21	  220.75
     19.9230	  285.00	  291.43	-2082.18	  220.74
     19.9564	  313.00	  291.41	-2054.16	  220.73
     19.9898	  281.00	  291.38	-2086.13	  220.72
     20.0233	  305.00	  291.36	-2062.11	  220.71
     20.0567	  273.00	  291.34	-2094.09	  220.70
     20.0901	  314.00	  291.32	-2053.07	  220.69
     20.1235	  265.00	  291.30	-2102.05	  220.69
     20.1569	  248.00	  291.59	-2119.34	  220.68
     20.1904	  297.00	  291.58	-2070.33	  220.67
     20.2238	  269.00	  291.72	-2098.47	  220.66
     20.2572	  280.00	  291.71	-2087.46	  220.65
     20.2906	  309.00	  291.70	-2058.45	  220.64
     20.3241	  318.00	  291.69	-2049.44	  220.63
     20.3575	  282.00	  291.68	-2085.43	  220.62
     20.3909	  297.00	  291.67	-2070.42	  220.61
     20.4243	  281.00	  291.67	-2086.42	  220.60
     20.4577	  277.00	  291.66	-2090.41	  220.59
     20.4912	  276.00	  291.65	-2091.40	  220.58
     20.5246	  321.00	  291.64	-2046.39	  220.57
     20.5580	  295.00	  291.85	-2072.60	  220.56
     20.5914	  298.00	  291.84	-2069.59	  220.55
     20.6249	  293.00	  291.95	-2074.70	  220.54
     20.6583	  275.00	  291.95	-2092.70	  220.53
     20.6917	  294.00	  291.95	-2073.70	  220.52
     20.7251	  280.00	  291.95	-2087.70	  220.52
     20.7585	  299.00	  291.96	-2068.71	  220.51
     20.7920	  306.00	  291.96	-2061.71	  220.50
     20.8254	  273.00	  291.97	-2094.72	  220.49
     20.8588	  273.00	  291.97	-2094.72	  220.48
     20.8922	  298.00	  291.98	-2069.73	  220.47
     20.9257	  299.00	  291.98	-2068.73	  220.46
     20.9591	  267.00	  291.99	-2100.74	  220.45
     20.9925	  292.00	  292.00	-2075.75	  220.44
     21.0259	  295.00	  292.01	-2072.76	  220.43
     21.0593	  336.00	  292.02	-2031.77	  220.43
     21.0928	  296.00	  292.03	-2071.78	  220.42
     21.1262	  279.00	  292.05	-2088.80	  220.41
     21.1596	  257.00	  292.06	-2110.81	  220.40
     21.1930	  270.00	  292.07	-2097.82	  220.39
     21.2265	  312.00	  292.09	-2055.84	  220.38
     21.2599	  330.00	  292.11	-2037.86	  220.37
     21.2933	  306.00	  292.12	-2061.87	  220.36
     21.3267	  323.00	  292.14	-2044.89	  220.36
     21.3602	  325.00	  292.16	-2042.91	  220.35
     21.3936	  282.00	  292.19	-2085.94	  220.34
     21.4270	  292.00	  292.21	-2075.96	  220.33
     21.4604	  259.00	  292.23	-2108.98	  220.32
     21.4938	  276.00	  292.26	-2092.01	  220.31
     21.5273	  276.00	  292.28	-2092.03	  220.30
     21.5607	  292.00	  292.19	-2075.94	  220.30
     21.5941	  290.00	  292.17	-2077.92	  220.29
     21.6275	  321.00	  292.20	-2046.95	  220.28
     21.6610	  265.00	  292.24	-2102.99	  220.27
     21.6944	  312.00	  292.28	-2056.03	  220.26
     21.7278	  328.00	  292.32	-2040.07	  220.25
     21.7612	  294.00	  292.36	-2074.11	  220.25
     21.7946	  306.00	  292.40	-2062.15	  220.24
     21.8281	  308.00	  292.45	-2060.20	  220.23
     21.8615	  335.00	  292.50	-2033.25	  220.22
     21.8949	  352.00	  292.55	-2016.30	  220.21
     21.9283	  351.00	  292.60	-2017.35	  220.21
     21.9618	  333.00	  292.66	-2035.41	  220.20
     21.9952	  288.00	  292.72	-2080.47	  220.19
     22.0286	  323.00	  292.78	-2045.53	  220.18
     22.0620	  322.00	  292.84	-2046.59	  220.17
     22.0954	  281.00	  292.91	-2087.66	  220.17
     22.1289	  298.00	  292.98	-2070.73	  220.16
     22.1623	  275.00	  293.06	-2093.81	  220.15
     22.1957	  293.00	  293.14	-2075.89	  220.14
     22.2291	  306.00	  293.22	-2062.97	  220.13
     22.2626	  297.00	  293.31	-2072.06	  220.13
     22.2960	  282.00	  293.41	-2087.16	  220.12
     22.3294	  322.00	  293.51	-2047.26	  220.11
     22.3628	  306.00	  293.61	-2063.36	  220.10
     22.3962	  302.00	  293.72	-2067.47	  220.10
     22.4297	  292.00	  293.84	-2077.59	  220.09
     22.4631	  295.00	  293.97	-2074.72	  220.08
     22.4965	  330.00	  294.10	-2039.85	  220.07
     22.5299	  306.00	  294.24	-2063.99	  220.07
     22.5634	  296.00	  294.39	-2074.14	  220.06
     22.5968	  324.00	  294.55	-2046.30	  220.05
     22.6302	  274.00	  294.72	-2096.47	  220.04
     22.6636	  289.00	  294.90	-2081.65	  220.04
     22.6971	  299.00	  295.10	-2071.85	  220.03
     22.7305	  324.00	  295.30	-2047.05	  220.02
     22.7639	  314.00	  295.52	-2057.27	  220.01
     22.7973	  326.00	  295.76	-2045.51	  220.01
     22.8307	  276.00	  296.02	-2095.77	  220.00
     22.8642	  302.00	  296.29	-2070.04	  219.99
     22.8976	  304.00	  296.59	-2068.34	  219.99
     22.9310	  339.00	  296.91	-2033.66	  219.98
     22.9644	  296.00	  297.25	-2077.00	  219.97
     22.9979	  291.00	  297.62	-2082.37	  219.96
     23.0313	  306.00	  298.03	-2067.78	  219.96
     23.0647	  288.00	  298.47	-2086.22	  219.95
     23.0981	  282.00	  298.95	-2092.70	  219.94
     23.1315	  326.00	  299.47	-2049.22	  219.94
     23.1650	  302.00	  300.05	-2073.80	  219.93
     23.1984	  326.00	  300.68	-2050.43	  219.92
     23.2318	  310.00	  301.38	-2067.13	  219.92
     23.2652	  335.00	  302.15	-2042.90	  219.91
     23.2987	  348.00	  303.00	-2030.75	  219.90
     23.3321	  379.00	  303.96	-2000.71	  219.90
     23.3655	  330.00	  305.03	-2050.78	  219.89
     23.3989	  320.00	  306.23	-2061.98	  219.88
     23.4323	  316.00	  307.58	-2067.33	  219.87
     23.4658	  342.00	  309.12	-2042.87	  219.87
     23.4992	  363.00	  310.88	-2023.63	  219.86
     23.5326	  313.00	  312.90	-2075.65	  219.85
     23.5660	  332.00	  315.25	-2059.00	  219.85
     23.5995	  343.00	  317.98	-2050.73	  219.84
     23.6329	  365.00	  321.20	-2031.95	  219.84
     23.6663	  366.00	  325.03	-2034.78	  219.83
     23.6997	  343.00	  329.63	-2062.38	  219.82
     23.7332	  364.00	  335.23	-2046.98	  219.82
     23.7666	  359.00	  342.14	-2058.89	  219.81
     23.8000	  351.00	  350.83	-2075.58	  219.80
     23.8334	  391.00	  361.97	-2046.72	  219.80
     23.8668	  391.00	  376.75	-2061.50	  219.79
     23.9003	  388.00	  397.44	-2085.19	  219.78
     23.9337	  428.00	  428.64	-2076.39	  219.78
     23.9671	  451.00	  479.30	-2104.05	  219.77
     24.0005	  536.00	  564.26	-2104.01	  219.77
     24.0340	  713.00	  702.87	-2065.62	  219.76
     24.0674	  915.00	  910.70	-2071.45	  219.75
     24.1008	 1169.00	 1178.99	-2085.74	  219.75
     24.1342	 1532.00	 1433.56	-1977.31	  219.74
     24.1676	 1595.00	 1538.87	-2019.62	  219.73
     24.2011	 1555.00	 1449.31	-1970.06	  219.73
     24.2345	 1278.00	 1232.04	-2029.79	  219.72
     24.2679	  947.00	  985.48	-2114.23	  219.72
     24.3013	  793.00	  783.97	-2066.72	  219.71
     24.3348	  627.00	  655.05	-2103.80	  219.70
     24.3682	  605.00	  590.85	-2061.60	  219.70
     24.4016	  575.00	  582.99	-2083.74	  219.69
     24.4350	  661.00	  628.28	-2043.03	  219.69
     24.4684	  753.00	  728.40	-2051.15	  219.68
     24.5019	  958.00	  878.26	-1996.01	  219.67
     24.5353	 1166.00	 1040.69	-1950.44	  219.67
     24.5687	 1345.00	 1130.52	-1861.27	  219.66
     24.6021	 1214.00	 1093.94	-1955.69	  219.66
     24.6356	 1139.00	  961.46	-1898.21	  219.65
     24.6690	  856.00	  790.42	-2010.17	  219.65
     24.7024	  653.00	  637.61	-2060.36	  219.64
     24.7358	  531.00	  526.80	-2071.55	  219.63
     24.7692	  450.00	  454.99	-2080.74	  219.63
     24.8027	  419.00	  410.87	-2067.62	  219.62
     24.8361	  393.00	  383.73	-2066.48	  219.62
     24.8695	  410.00	  366.20	-2031.95	  219.61
     24.9029	  349.00	  354.04	-2080.79	  219.61
     24.9364	  343.00	  345.05	-2077.80	  219.60
     24.9698	  336.00	  338.11	-2077.86	  219.60
     25.0032	  330.00	  332.62	-2078.37	  219.59
     25.0366	  335.00	  328.18	-2068.93	  219.59
     25.0701	  375.00	  324.54	-2025.29	  219.58
     25.1035	  342.00	  321.52	-2055.27	  219.57
     25.1369	  345.00	  319.00	-2049.75	  219.57
     25.1703	  307.00	  316.86	-2085.61	  219.56
     25.2037	  319.00	  315.04	-2071.79	  219.56
     25.2372	  319.00	  313.48	-2070.23	  219.55
     25.2706	  314.00	  312.14	-2073.89	  219.55
     25.3040	  311.00	  310.98	-2075.73	  219.54
     25.3374	  259.00	  309.97	-2126.72	  219.54
     25.3709	  322.00	  309.09	-2062.84	  219.53
     25.4043	  307.00	  308.32	-2077.07	  219.53
     25.4377	  332.00	  307.66	-2051.41	  219.52
     25.4711	  341.00	  307.07	-2041.82	  219.52
     25.5045	  336.00	  306.56	-2046.31	  219.51
     25.5380	  308.00	  306.12	-2073.87	  219.51
     25.5714	  314.00	  305.74	-2067.49	  219.50
     25.6048	  334.00	  305.42	-2047.17	  219.50
     25.6382	  310.00	  305.14	-2070.89	  219.49
     25.6717	  295.00	  304.90	-2085.65	  219.49
     25.7051	  291.00	  304.71	-2089.46	  219.48
     25.7385	  303.00	  304.55	-2077.30	  219.48
     25.7719	  307.00	  304.43	-2073.18	  219.47
     25.8053	  322.00	  304.34	-2058.09	  219.47
     25.8388	  289.00	  304.28	-2091.03	  219.46
     25.8722	  332.00	  304.26	-2048.01	  219.46
     25.9056	  312.00	  304.26	-2068.00	  219.45
     25.9390	  316.00	  304.28	-2064.03	  219.45
     25.9725	  283.00	  304.34	-2097.09	  219.44
     26.0059	  287.00	  304.41	-2093.16	  219.44
     26.0393	  312.00	  304.52	-2068.27	  219.44
     26.0727	  308.00	  304.65	-2072.40	  219.43
     26.1062	  307.00	  304.80	-2073.55	  219.43
     26.1396	  265.00	  304.98	-2115.73	  219.42
     26.1730	  285.00	  305.19	-2095.94	  219.42
     26.2064	  294.00	  305.42	-2087.17	  219.41
     26.2398	  303.00	  305.67	-2078.42	  219.41
     26.2733	  296.00	  305.96	-2085.71	  219.40
     26.3067	  298.00	  306.27	-2084.02	  219.40
     26.3401	  298.00	  306.60	-2084.35	  219.39
     26.3735	  320.00	  306.97	-2062.72	  219.39
     26.4070	  337.00	  307.37	-2046.12	  219.39
     26.4404	  323.00	  307.80	-2060.55	  219.38
     26.4738	  327.00	  308.27	-2057.02	  219.38
     26.5072	  335.00	  308.77	-2049.52	  219.37
     26.5406	  323.00	  309.31	-2062.06	  219.37
     26.5741	  308.00	  309.89	-2077.64	  219.36
     26.6075	  350.00	  310.52	-2036.27	  219.36
     26.6409	  310.00	  311.19	-2076.94	  219.36
     26.6743	  305.00	  311.91	-2082.66	  219.35
     26.7078	  310.00	  312.68	-2078.43	  219.35
     26.7412	  323.00	  313.51	-2066.26	  219.34
     26.7746	  327.00	  314.40	-2063.15	  219.34
     26.8080	  364.00	  315.36	-2027.11	  219.34
     26.8414	  370.00	  316.39	-2022.14	  219.33
     26.8749	  333.00	  317.51	-2060.26	  219.33
     26.9083	  324.00	  318.70	-2070.45	  219.32
     26.9417	  322.00	  320.00	-2073.75	  219.32
     26.9751	  342.00	  321.39	-2055.14	  219.32
     27.0086	  348.00	  322.91	-2050.66	  219.31
     27.0420	  373.00	  324.54	-2027.29	  219.31
     27.0754	  361.00	  326.32	-2041.07	  219.30
     27.1088	  376.00	  328.26	-2028.01	  219.30
     27.1423	  395.00	  330.37	-2011.12	  219.30
     27.1757	  425.00	  332.67	-1983.42	  219.29
     27.2091	  426.00	  335.19	-1984.94	  219.29
     27.2425	  416.00	  337.95	-1997.70	  219.28
     27.2759	  445.00	  340.99	-1971.74	  219.28
     27.3094	  427.00	  344.34	-1993.09	  219.28
     27.3428	  420.00	  348.05	-2003.80	  219.27
     27.3762	  449.00	  352.17	-1978.92	  219.27
     27.4096	  403.00	  356.75	-2029.50	  219.27
     27.4431	  418.00	  361.88	-2019.63	  219.26
     27.4765	  465.00	  367.64	-1978.39	  219.26
     27.5099	  486.00	  375.72	-1965.47	  219.26
     27.5433	  450.00	  383.10	-2008.85	  219.25
     27.5767	  461.00	  391.50	-2006.25	  219.25
     27.6102	  483.00	  401.93	-1994.68	  219.24
     27.6436	  454.00	  413.03	-2034.78	  219.24
     27.6770	  443.00	  425.92	-2058.67	  219.24
     27.7104	  521.00	  440.97	-1995.72	  219.23
     27.7439	  542.00	  458.72	-1992.47	  219.23
     27.7773	  534.00	  479.82	-2021.57	  219.23
     27.8107	  519.00	  505.19	-2061.94	  219.22
     27.8441	  603.00	  536.03	-2008.78	  219.22
     27.8775	  613.00	  574.01	-2036.76	  219.22
     27.9110	  629.00	  621.51	-2068.26	  219.21
     27.9444	  715.00	  682.05	-2042.80	  219.21
     27.9778	  779.00	  761.27	-2058.02	  219.21
     28.0112	  955.00	  869.32	-1990.07	  219.20
     28.0447	 1063.00	 1026.13	-2038.88	  219.20
     28.0781	 1268.00	 1270.62	-2078.37	  219.20
     28.1115	 1675.00	 1671.44	-2072.19	  219.19
     28.1449	 2252.00	 2329.20	-2152.95	  219.19
     28.1783	 3258.00	 3353.53	-2171.28	  219.19
     28.2118	 4556.00	 4795.71	-2315.46	  219.18
     28.2452	 6445.00	 6481.15	-2111.90	  219.18
     28.2786	 7802.00	 7781.47	-2055.22	  219.18
     28.3120	 8303.00	 8000.27	-1773.02	  219.18
     28.3455	 7668.00	 7216.79	-1624.54	  219.17
     28.3789	 6200.00	 5830.75	-1706.50	  219.17
     28.4123	 4566.00	 4296.98	-1806.73	  219.17
     28.4457	 3265.00	 3024.10	-1834.85	  219.16
     28.4792	 2143.00	 2130.33	-2063.08	  219.16
     28.5126	 1610.00	 1556.38	-2022.13	  219.16
     28.5460	 1310.00	 1202.11	-1967.86	  219.15
     28.5794	  956.00	  981.65	-2101.40	  219.15
     28.6128	  854.00	  838.03	-2059.78	  219.15
     28.6463	  756.00	  737.96	-2057.71	  219.15
     28.6797	  643.00	  664.27	-2097.02	  219.14
     28.7131	  628.00	  607.77	-2055.52	  219.14
     28.7465	  570.00	  563.29	-2069.04	  219.14
     28.7800	  495.00	  527.62	-2108.37	  219.13
     28.8134	  472.00	  498.60	-2102.35	  219.13
     28.8468	  506.00	  474.69	-2044.44	  219.13
     28.8802	  440.00	  454.76	-2090.51	  219.13
     28.9136	  443.00	  437.99	-2070.74	  219.12
     28.9471	  480.00	  423.76	-2019.51	  219.12
     28.9805	  469.00	  411.58	-2018.33	  219.12
     29.0139	  373.00	  401.09	-2103.84	  219.12
     29.0473	  419.00	  391.99	-2048.74	  219.11
     29.0808	  446.00	  384.05	-2013.80	  219.11
     29.1142	  360.00	  377.10	-2092.85	  219.11
     29.1476	  381.00	  370.97	-2065.72	  219.11
     29.1810	  398.00	  365.56	-2043.31	  219.10
     29.2144	  362.00	  360.75	-2074.50	  219.10
     29.2479	  350.00	  356.47	-2082.22	  219.10
     29.2813	  424.00	  352.65	-2004.40	  219.10
     29.3147	  411.00	  349.23	-2013.98	  219.09
     29.3481	  379.00	  346.16	-2042.91	  219.09
     29.3816	  434.00	  343.40	-1985.15	  219.09
     29.4150	  379.00	  340.92	-2037.67	  219.09
     29.4484	  385.00	  338.69	-2029.44	  219.08
     29.4818	  340.00	  336.67	-2072.42	  219.08
     29.5152	  322.00	  334.86	-2088.61	  219.08
     29.5487	  327.00	  333.22	-2081.97	  219.08
     29.5821	  365.00	  331.75	-2042.50	  219.07
     29.6155	  359.00	  330.43	-2047.18	  219.07
     29.6489	  348.00	  329.25	-2057.00	  219.07
     29.6824	  362.00	  328.20	-2041.95	  219.07
     29.7158	  353.00	  327.27	-2050.02	  219.07
     29.7492	  345.00	  326.44	-2057.19	  219.06
     29.7826	  337.00	  325.73	-2064.48	  219.06
     29.8161	  388.00	  325.11	-2012.86	  219.06
     29.8495	  347.00	  324.59	-2053.34	  219.06
     29.8829	  339.00	  324.16	-2060.91	  219.05
     29.9163	  345.00	  323.82	-2054.57	  219.05
     29.9497	  367.00	  323.57	-2032.32	  219.05
     29.9832	  352.00	  323.40	-2047.15	  219.05
     30.0166	  364.00	  323.31	-2035.06	  219.05
     30.0500	  346.00	  323.31	-2053.06	  219.04
     30.0834	  342.00	  323.40	-2057.15	  219.04
     30.1169	  353.00	  323.57	-2046.32	  219.04
     30.1503	  320.00	  324.42	-2080.17	  219.04
     30.1837	  342.00	  324.78	-2058.53	  219.04
     30.2171	  379.00	  325.25	-2022.00	  219.03
     30.2505	  392.00	  326.10	-2009.85	  219.03
     30.2840	  361.00	  326.78	-2041.53	  219.03
     30.3174	  392.00	  327.56	-2011.31	  219.03
     30.3508	  394.00	  328.48	-2010.23	  219.03
     30.3842	  420.00	  329.52	-1985.27	  219.03
     30.4177	  393.00	  330.71	-2013.46	  219.02
     30.4511	  400.00	  332.06	-2007.81	  219.02
     30.4845	  434.00	  333.97	-1975.72	  219.02
     30.5179	  421.00	  335.70	-1990.45	  219.02
     30.5513	  426.00	  337.63	-1987.38	  219.02
     30.5848	  383.00	  340.01	-2032.76	  219.01
     30.6182	  395.00	  342.46	-2023.21	  219.01
     30.6516	  407.00	  345.23	-2013.98	  219.01
     30.6850	  380.00	  348.35	-2044.10	  219.01
     30.7185	  396.00	  351.87	-2031.62	  219.01
     30.7519	  390.00	  355.86	-2041.61	  219.01
     30.7853	  413.00	  360.39	-2023.14	  219.00
     30.8187	  438.00	  365.57	-2003.32	  219.00
     30.8522	  408.00	  371.49	-2039.24	  219.00
     30.8856	  433.00	  378.32	-2021.07	  219.00
     30.9190	  470.00	  386.21	-1991.96	  219.00
     30.9524	  471.00	  395.41	-2000.16	  219.00
     30.9858	  459.00	  406.20	-2022.95	  219.00
     31.0193	  463.00	  418.95	-2031.70	  218.99
     31.0527	  490.00	  434.15	-2019.90	  218.99
     31.0861	  497.00	  452.47	-2031.22	  218.99
     31.1195	  521.00	  474.77	-2029.52	  218.99
     31.1530	  553.00	  502.28	-2025.03	  218.99
     31.1864	  541.00	  536.75	-2071.50	  218.99
     31.2198	  565.00	  580.77	-2091.52	  218.99
     31.2532	  685.00	  638.62	-2029.37	  218.98
     31.2866	  772.00	  718.08	-2021.83	  218.98
     31.3201	  937.00	  834.57	-1973.32	  218.98
     31.3535	 1130.00	 1015.51	-1961.26	  218.98
     31.3869	 1435.00	 1308.50	-1949.25	  218.98
     31.4203	 1924.00	 1778.87	-1930.62	  218.98
     31.4538	 2754.00	 2492.04	-1813.79	  218.98
     31.4872	 3747.00	 3467.43	-1796.18	  218.98
     31.5206	 4865.00	 4564.76	-1775.51	  218.97
     31.5540	 5422.00	 5356.08	-2009.83	  218.97
     31.5874	 5591.00	 5445.91	-1930.66	  218.97
     31.6209	 5075.00	 4952.38	-1953.13	  218.97
     31.6543	 4008.00	 4104.82	-2172.57	  218.97
     31.6877	 3142.00	 3123.26	-2057.01	  218.97
     31.7211	 2231.00	 2267.59	-2112.34	  218.97
     31.7546	 1622.00	 1643.83	-2097.58	  218.97
     31.7880	 1237.00	 1230.47	-2069.22	  218.96
     31.8214	 1001.00	  968.84	-2043.59	  218.96
     31.8548	  775.00	  804.00	-2104.75	  218.96
     31.8883	  653.00	  696.61	-2119.36	  218.96
     31.9217	  615.00	  622.42	-2083.17	  218.96
     31.9551	  523.00	  568.19	-2120.94	  218.96
     31.9885	  529.00	  526.84	-2073.59	  218.96
     32.0219	  503.00	  494.35	-2067.10	  218.96
     32.0554	  447.00	  468.33	-2097.08	  218.96
     32.0888	  426.00	  447.18	-2096.93	  218.96
     32.1222	  426.00	  429.76	-2079.51	  218.95
     32.1556	  385.00	  415.25	-2106.00	  218.95
     32.1891	  410.00	  403.06	-2068.81	  218.95
     32.2225	  408.00	  392.72	-2060.47	  218.95
     32.2559	  411.00	  383.89	-2048.64	  218.95
     32.2893	  378.00	  376.29	-2074.04	  218.95
     32.3227	  356.00	  367.53	-2087.28	  218.95
     32.3562	  314.00	  361.85	-2123.60	  218.95
     32.3896	  371.00	  355.79	-2060.54	  218.95
     32.4230	  338.00	  351.46	-2089.21	  218.95
     32.4564	  379.00	  347.64	-2044.40	  218.95
     32.4899	  374.00	  344.29	-2046.04	  218.95
     32.5233	  334.00	  341.32	-2083.07	  218.94
     32.5567	  338.00	  338.70	-2076.45	  218.94
     32.5901	  345.00	  336.37	-2067.12	  218.94
     32.6235	  318.00	  334.32	-2092.07	  218.94
     32.6570	  341.00	  332.50	-2067.25	  218.94
     32.6904	  341.00	  330.90	-2065.65	  218.94
     32.7238	  302.00	  329.49	-2103.24	  218.94
     32.7572	  296.00	  328.26	-2108.01	  218.94
     32.7907	  353.00	  327.19	-2049.94	  218.94
     32.8241	  323.00	  326.27	-2079.02	  218.94
     32.8575	  308.00	  325.50	-2093.25	  218.94
     32.8909	  340.00	  324.85	-2060.60	  218.94
     32.9243	  312.00	  324.34	-2088.09	  218.94
     32.9578	  341.00	  323.94	-2058.69	  218.94
     32.9912	  307.00	  323.67	-2092.42	  218.94
     33.0246	  366.00	  323.51	-2033.26	  218.94
     33.0580	  361.00	  323.48	-2038.23	  218.94
     33.0915	  338.00	  323.56	-2061.31	  218.93
     33.1249	  307.00	  323.76	-2092.51	  218.93
     33.1583	  337.00	  324.08	-2062.83	  218.93
     33.1917	  325.00	  324.54	-2075.29	  218.93
     33.2252	  337.00	  325.14	-2063.89	  218.93
     33.2586	  322.00	  325.89	-2079.64	  218.93
     33.2920	  351.00	  326.80	-2051.55	  218.93
     33.3254	  360.00	  327.89	-2043.64	  218.93
     33.3588	  360.00	  329.17	-2044.92	  218.93
     33.3923	  355.00	  330.67	-2051.42	  218.93
     33.4257	  331.00	  332.42	-2077.17	  218.93
     33.4591	  343.00	  334.45	-2067.20	  218.93
     33.4925	  374.00	  336.81	-2038.56	  218.93
     33.5260	  348.00	  339.55	-2067.30	  218.93
     33.5594	  370.00	  342.73	-2048.48	  218.93
     33.5928	  348.00	  346.44	-2074.19	  218.93
     33.6262	  350.00	  350.78	-2076.53	  218.93
     33.6596	  348.00	  355.90	-2083.65	  218.93
     33.6931	  385.00	  361.95	-2052.70	  218.93
     33.7265	  361.00	  369.18	-2083.93	  218.93
     33.7599	  373.00	  377.90	-2080.65	  218.93
     33.7933	  392.00	  388.51	-2072.26	  218.93
     33.8268	  363.00	  401.62	-2114.37	  218.93
     33.8602	  384.00	  418.09	-2109.84	  218.93
     33.8936	  403.00	  439.28	-2112.03	  218.93
     33.9270	  411.00	  467.60	-2132.35	  218.93
     33.9604	  454.00	  507.52	-2129.27	  218.93
     33.9939	  536.00	  567.45	-2107.20	  218.93
     34.0273	  529.00	  661.53	-2208.28	  218.93
     34.0607	  728.00	  809.99	-2157.74	  218.93
     34.0941	  974.00	 1035.42	-2137.17	  218.93
     34.1276	 1240.00	 1350.52	-2186.27	  218.93
     34.1610	 1524.00	 1729.57	-2281.32	  218.93
     34.1944	 1667.00	 2059.21	-2467.96	  218.93
     34.2278	 1844.00	 2182.46	-2414.21	  218.93
     34.2612	 1783.00	 2095.00	-2387.75	  218.93
     34.2947	 1665.00	 1887.03	-2297.78	  218.93
     34.3281	 1422.00	 1612.98	-2266.73	  218.93
     34.3615	 1275.00	 1359.48	-2160.23	  218.93
     34.3949	 1188.00	 1205.68	-2093.43	  218.93
     34.4284	  997.00	 1178.25	-2257.00	  218.93
     34.4618	 1074.00	 1270.64	-2272.39	  218.93
     34.4952	 1169.00	 1444.44	-2351.19	  218.93
     34.5286	 1314.00	 1604.74	-2366.49	  218.93
     34.5621	 1335.00	 1638.51	-2379.26	  218.93
     34.5955	 1343.00	 1541.96	-2274.71	  218.93
     34.6289	 1225.00	 1369.12	-2219.87	  218.93
     34.6623	  976.00	 1148.76	-2248.51	  218.93
     34.6957	  839.00	  930.92	-2167.67	  218.93
     34.7292	  674.00	  757.30	-2159.05	  218.93
     34.7626	  558.00	  635.22	-2152.97	  218.93
     34.7960	  480.00	  554.89	-2150.64	  218.93
     34.8294	  471.00	  503.72	-2108.47	  218.93
     34.8629	  396.00	  471.28	-2151.03	  218.93
     34.8963	  424.00	  450.52	-2102.27	  218.93
     34.9297	  360.00	  437.30	-2153.05	  218.93
     34.9631	  416.00	  429.45	-2089.20	  218.93
     34.9965	  460.00	  425.97	-2041.72	  218.93
     35.0300	  385.00	  426.56	-2117.31	  218.93
     35.0634	  407.00	  431.50	-2100.25	  218.93
     35.0968	  418.00	  441.74	-2099.49	  218.93
     35.1302	  441.00	  459.51	-2094.26	  218.93
     35.1637	  454.00	  489.23	-2110.98	  218.93
     35.1971	  511.00	  538.87	-2103.62	  218.93
     35.2305	  618.00	  620.67	-2078.42	  218.93
     35.2639	  668.00	  749.61	-2157.36	  218.93
     35.2973	  786.00	  937.97	-2227.72	  218.93
     35.3308	 1129.00	 1181.07	-2127.82	  218.93
     35.3642	 1442.00	 1426.46	-2060.21	  218.93
     35.3976	 1555.00	 1564.46	-2085.21	  218.93
     35.4310	 1587.00	 1541.59	-2030.34	  218.93
     35.4645	 1402.00	 1413.59	-2087.34	  218.93
     35.4979	 1183.00	 1220.37	-2113.12	  218.93
     35.5313	  927.00	  997.71	-2146.46	  218.94
     35.5647	  706.00	  800.26	-2170.01	  218.94
     35.5982	  588.00	  653.40	-2141.15	  218.94
     35.6316	  532.00	  552.64	-2096.39	  218.94
     35.6650	  451.00	  489.11	-2113.86	  218.94
     35.6984	  410.00	  448.86	-2114.61	  218.94
     35.7318	  367.00	  425.06	-2133.81	  218.94
     35.7653	  414.00	  412.18	-2073.93	  218.94
     35.7987	  395.00	  408.46	-2089.21	  218.94
     35.8321	  442.00	  414.00	-2047.75	  218.94
     35.8655	  451.00	  429.40	-2054.15	  218.94
     35.8990	  454.00	  453.66	-2075.41	  218.94
     35.9324	  499.00	  480.16	-2056.91	  218.94
     35.9658	  529.00	  494.64	-2041.39	  218.94
     35.9992	  514.00	  488.99	-2050.74	  218.94
     36.0326	  518.00	  469.98	-2027.73	  218.94
     36.0661	  507.00	  442.93	-2011.68	  218.94
     36.0995	  449.00	  411.71	-2038.46	  218.94
     36.1329	  414.00	  383.28	-2045.03	  218.95
     36.1663	  359.00	  361.42	-2078.17	  218.95
     36.1998	  327.00	  346.01	-2094.76	  218.95
     36.2332	  319.00	  335.51	-2092.26	  218.95
     36.2666	  347.00	  328.35	-2057.10	  218.95
     36.3000	  348.00	  323.30	-2051.05	  218.95
     36.3335	  347.00	  319.55	-2048.30	  218.95
     36.3669	  357.00	  316.62	-2035.37	  218.95
     36.4003	  308.00	  314.23	-2081.98	  218.95
     36.4337	  285.00	  312.24	-2102.99	  218.95
     36.4671	  317.00	  310.55	-2069.30	  218.95
     36.5006	  335.00	  309.09	-2049.84	  218.95
     36.5340	  324.00	  307.82	-2059.57	  218.95
     36.5674	  307.00	  306.70	-2075.45	  218.95
     36.6008	  287.00	  305.71	-2094.46	  218.96
     36.6343	  303.00	  304.83	-2077.58	  218.96
     36.6677	  327.00	  304.03	-2052.78	  218.96
     36.7011	  318.00	  303.32	-2061.07	  218.96
     36.7345	  310.00	  303.07	-2068.82	  218.96
     36.7679	  359.00	  302.48	-2019.23	  218.96
     36.8014	  290.00	  301.95	-2087.70	  218.96
     36.8348	  267.00	  301.66	-2110.41	  218.96
     36.8682	  294.00	  301.22	-2082.97	  218.96
     36.9016	  308.00	  300.81	-2068.56	  218.96
     36.9351	  299.00	  300.44	-2077.19	  218.96
     36.9685	  313.00	  300.10	-2062.85	  218.96
     37.0019	  311.00	  299.78	-2064.53	  218.97
     37.0353	  314.00	  299.50	-2061.25	  218.97
     37.0687	  295.00	  299.38	-2080.13	  218.97
     37.1022	  304.00	  299.14	-2070.89	  218.97
     37.1356	  296.00	  298.92	-2078.67	  218.97
     37.1690	  324.00	  298.72	-2050.47	  218.97
     37.2024	  317.00	  298.61	-2057.36	  218.97
     37.2359	  292.00	  298.44	-2082.19	  218.97
     37.2693	  255.00	  298.29	-2119.04	  218.97
     37.3027	  308.00	  298.16	-2065.91	  218.97
     37.3361	  267.00	  298.05	-2106.80	  218.97
     37.3695	  296.00	  297.95	-2077.70	  218.98
     37.4030	  292.00	  297.99	-2081.74	  218.98
     37.4364	  331.00	  297.92	-2042.67	  218.98
     37.4698	  312.00	  297.87	-2061.62	  218.98
     37.5032	  282.00	  297.90	-2091.65	  218.98
     37.5367	  291.00	  297.87	-2082.62	  218.98
     37.5701	  277.00	  297.87	-2096.62	  218.98
     37.6035	  296.00	  297.88	-2077.63	  218.98
     37.6369	  314.00	  297.91	-2059.66	  218.98
     37.6703	  309.00	  297.96	-2064.71	  218.99
     37.7038	  288.00	  298.02	-2085.77	  218.99
     37.7372	  303.00	  298.11	-2070.86	  218.99
     37.7706	  290.00	  298.23	-2083.98	  218.99
     37.8040	  300.00	  298.37	-2074.12	  218.99
     37.8375	  279.00	  298.54	-2095.29	  218.99
     37.8709	  294.00	  298.74	-2080.49	  218.99
     37.9043	  295.00	  298.98	-2079.73	  218.99
     37.9377	  299.00	  299.26	-2076.01	  218.99
     37.9712	  318.00	  299.59	-2057.34	  218.99
     38.0046	  304.00	  299.97	-2071.72	  219.00
     38.0380	  342.00	  300.43	-2034.18	  219.00
     38.0714	  332.00	  300.97	-2044.72	  219.00
     38.1048	  328.00	  301.61	-2049.36	  219.00
     38.1383	  349.00	  302.36	-2029.11	  219.00
     38.1717	  294.00	  303.27	-2085.02	  219.00
     38.2051	  303.00	  304.38	-2077.13	  219.00
     38.2385	  302.00	  305.74	-2079.49	  219.00
     38.2720	  323.00	  307.44	-2060.19	  219.01
     38.3054	  311.00	  309.03	-2073.78	  219.01
     38.3388	  324.00	  311.83	-2063.58	  219.01
     38.3722	  364.00	  315.22	-2026.97	  219.01
     38.4056	  279.00	  320.16	-2116.91	  219.01
     38.4391	  335.00	  326.95	-2067.70	  219.01
     38.4725	  366.00	  336.69	-2046.44	  219.01
     38.5059	  351.00	  351.45	-2076.20	  219.01
     38.5393	  379.00	  374.18	-2070.93	  219.02
     38.5728	  433.00	  407.73	-2050.48	  219.02
     38.6062	  534.00	  453.14	-1994.89	  219.02
     38.6396	  639.00	  504.92	-1941.67	  219.02
     38.6730	  695.00	  546.39	-1927.14	  219.02
     38.7064	  747.00	  557.25	-1886.00	  219.02
     38.7399	  698.00	  541.44	-1919.19	  219.02
     38.7733	  725.00	  511.83	-1862.58	  219.02
     38.8067	  561.00	  471.80	-1986.55	  219.03
     38.8401	  508.00	  428.27	-1996.02	  219.03
     38.8736	  460.00	  391.05	-2006.80	  219.03
     38.9070	  407.00	  363.70	-2032.45	  219.03
     38.9404	  402.00	  345.18	-2018.93	  219.03
     38.9738	  369.00	  333.11	-2039.86	  219.03
     39.0072	  325.00	  325.34	-2076.09	  219.03
     39.0407	  284.00	  320.29	-2112.04	  219.03
     39.0741	  292.00	  316.93	-2100.68	  219.04
     39.1075	  348.00	  314.66	-2042.41	  219.04
     39.1409	  291.00	  313.20	-2097.95	  219.04
     39.1744	  287.00	  312.40	-2101.15	  219.04
     39.2078	  314.00	  312.19	-2073.94	  219.04
     39.2412	  295.00	  312.61	-2093.36	  219.04
     39.2746	  350.00	  313.81	-2039.56	  219.04
     39.3081	  277.00	  316.12	-2114.87	  219.05
     39.3415	  326.00	  320.12	-2069.87	  219.05
     39.3749	  310.00	  326.65	-2092.40	  219.05
     39.4083	  340.00	  336.66	-2072.41	  219.05
     39.4417	  320.00	  350.75	-2106.50	  219.05
     39.4752	  359.00	  367.65	-2084.40	  219.05
     39.5086	  434.00	  383.79	-2025.54	  219.05
     39.5420	  417.00	  391.49	-2050.24	  219.06
     39.5754	  405.00	  388.92	-2059.67	  219.06
     39.6089	  391.00	  381.17	-2065.92	  219.06
     39.6423	  376.00	  370.02	-2069.77	  219.06
     39.6757	  375.00	  356.67	-2057.42	  219.06
     39.7091	  340.00	  344.46	-2080.21	  219.06
     39.7425	  327.00	  335.61	-2084.36	  219.06
     39.7760	  291.00	  330.41	-2115.16	  219.07
     39.8094	  311.00	  328.53	-2093.28	  219.07
     39.8428	  298.00	  329.74	-2107.49	  219.07
     39.8762	  326.00	  334.27	-2084.02	  219.07
     39.9097	  299.00	  342.75	-2119.50	  219.07
     39.9431	  304.00	  355.91	-2127.66	  219.07
     39.9765	  350.00	  373.76	-2099.51	  219.08
     40.0099	  348.00	  393.76	-2121.51	  219.08
     40.0434	  341.00	  408.85	-2143.60	  219.08
     40.0768	  386.00	  412.41	-2102.16	  219.08
     40.1102	  363.00	  407.08	-2119.83	  219.08
     40.1436	  356.00	  397.51	-2117.26	  219.08
     40.1770	  341.00	  384.59	-2119.34	  219.08
     40.2105	  343.00	  370.68	-2103.43	  219.09
     40.2439	  379.00	  359.41	-2056.16	  219.09
     40.2773	  345.00	  352.22	-2082.97	  219.09
     40.3107	  334.00	  348.87	-2090.62	  219.09
     40.3442	  338.00	  348.68	-2086.43	  219.09
     40.3776	  341.00	  351.03	-2085.78	  219.09
     40.4110	  374.00	  355.61	-2057.36	  219.09
     40.4444	  341.00	  362.38	-2097.13	  219.10
     40.4778	  386.00	  371.66	-2061.41	  219.10
     40.5113	  381.00	  384.21	-2078.96	  219.10
     40.5447	  451.00	  401.47	-2026.22	  219.10
     40.5781	  463.00	  426.21	-2038.96	  219.10
     40.6115	  421.00	  463.32	-2118.07	  219.10
     40.6450	  426.00	  520.58	-2170.33	  219.11
     40.6784	  535.00	  608.59	-2149.34	  219.11
     40.7118	  633.00	  738.49	-2181.24	  219.11
     40.7452	  849.00	  916.33	-2143.08	  219.11
     40.7786	  972.00	 1127.70	-2231.45	  219.11
     40.8121	 1107.00	 1313.85	-2282.60	  219.11
     40.8455	 1224.00	 1390.59	-2242.34	  219.12
     40.8789	 1257.00	 1351.49	-2170.24	  219.12
     40.9123	 1209.00	 1255.81	-2122.56	  219.12
     40.9458	 1065.00	 1123.61	-2134.36	  219.12
     40.9792	  934.00	  967.72	-2109.47	  219.12
     41.0126	  787.00	  829.28	-2118.03	  219.12
     41.0460	  720.00	  737.89	-2093.64	  219.13
     41.0794	  653.00	  699.73	-2122.48	  219.13
     41.1129	  684.00	  708.93	-2100.68	  219.13
     41.1463	  764.00	  750.17	-2061.92	  219.13
     41.1797	  715.00	  792.28	-2153.03	  219.13
     41.2131	  700.00	  800.23	-2175.98	  219.13
     41.2466	  675.00	  773.59	-2174.34	  219.14
     41.2800	  691.00	  733.60	-2118.35	  219.14
     41.3134	  627.00	  686.64	-2135.39	  219.14
     41.3468	  571.00	  639.73	-2144.48	  219.14
     41.3802	  590.00	  610.50	-2096.25	  219.14
     41.4137	  599.00	  610.42	-2087.17	  219.14
     41.4471	  610.00	  638.90	-2104.65	  219.15
     41.4805	  690.00	  680.66	-2066.41	  219.15
     41.5139	  680.00	  705.66	-2101.41	  219.15
     41.5474	  664.00	  694.23	-2105.98	  219.15
     41.5808	  629.00	  658.83	-2105.58	  219.15
     41.6142	  558.00	  612.46	-2130.21	  219.15
     41.6476	  562.00	  555.32	-2069.07	  219.16
     41.6811	  493.00	  495.36	-2078.11	  219.16
     41.7145	  427.00	  444.24	-2092.99	  219.16
     41.7479	  404.00	  405.90	-2077.65	  219.16
     41.7813	  332.00	  378.93	-2122.68	  219.16
     41.8147	  384.00	  360.45	-2052.20	  219.16
     41.8482	  320.00	  347.75	-2103.50	  219.17
     41.8816	  338.00	  338.76	-2076.51	  219.17
     41.9150	  336.00	  332.12	-2071.87	  219.17
     41.9484	  337.00	  326.99	-2065.74	  219.17
     41.9819	  303.00	  322.88	-2095.63	  219.17
     42.0153	  325.00	  319.51	-2070.26	  219.17
     42.0487	  334.00	  316.70	-2058.45	  219.18
     42.0821	  306.00	  314.32	-2084.07	  219.18
     42.1155	  299.00	  312.28	-2089.03	  219.18
     42.1490	  289.00	  310.52	-2097.27	  219.18
     42.1824	  313.00	  308.99	-2071.74	  219.18
     42.2158	  317.00	  307.65	-2066.40	  219.18
     42.2492	  295.00	  306.47	-2087.22	  219.19
     42.2827	  267.00	  305.42	-2114.17	  219.19
     42.3161	  317.00	  304.48	-2063.23	  219.19
     42.3495	  321.00	  303.64	-2058.39	  219.19
     42.3829	  275.00	  302.89	-2103.64	  219.19
     42.4164	  290.00	  302.21	-2087.96	  219.19
     42.4498	  290.00	  301.59	-2087.34	  219.20
     42.4832	  340.00	  301.03	-2036.78	  219.20
     42.5166	  307.00	  300.52	-2069.27	  219.20
     42.5500	  270.00	  300.06	-2105.81	  219.20
     42.5835	  317.00	  299.63	-2058.38	  219.20
     42.6169	  310.00	  299.25	-2065.00	  219.20
     42.6503	  298.00	  298.89	-2076.64	  219.21
     42.6837	  337.00	  298.57	-2037.32	  219.21
     42.7172	  310.00	  298.27	-2064.02	  219.21
     42.7506	  374.00	  297.99	-1999.74	  219.21
     42.7840	  326.00	  297.74	-2047.49	  219.21
     42.8174	  332.00	  297.42	-2041.17	  219.21
     42.8508	  293.00	  297.21	-2079.96	  219.22
     42.8843	  292.00	  297.02	-2080.77	  219.22
     42.9177	  275.00	  296.80	-2097.55	  219.22
     42.9511	  273.00	  296.64	-2099.39	  219.22
     42.9845	  307.00	  296.50	-2065.25	  219.22
     43.0180	  275.00	  296.37	-2097.12	  219.23
     43.0514	  284.00	  296.26	-2088.01	  219.23
     43.0848	  280.00	  296.16	-2091.91	  219.23
     43.1182	  281.00	  296.07	-2090.82	  219.23
     43.1516	  277.00	  296.00	-2094.75	  219.23
     43.1851	  262.00	  295.93	-2109.68	  219.23
     43.2185	  342.00	  295.88	-2029.63	  219.24
     43.2519	  277.00	  295.84	-2094.59	  219.24
     43.2853	  287.00	  295.82	-2084.57	  219.24
     43.3188	  292.00	  295.80	-2079.55	  219.24
     43.3522	  283.00	  295.80	-2088.55	  219.24
     43.3856	  254.00	  295.81	-2117.56	  219.24
     43.4190	  298.00	  295.84	-2073.59	  219.25
     43.4524	  306.00	  295.88	-2065.63	  219.25
     43.4859	  318.00	  295.94	-2053.69	  219.25
     43.5193	  321.00	  296.02	-2050.77	  219.25
     43.5527	  296.00	  296.13	-2075.88	  219.25
     43.5861	  312.00	  296.25	-2060.00	  219.25
     43.6196	  312.00	  296.42	-2060.17	  219.26
     43.6530	  313.00	  296.60	-2059.35	  219.26
     43.6864	  299.00	  296.88	-2073.63	  219.26
     43.7198	  305.00	  297.28	-2068.03	  219.26
     43.7533	  297.00	  297.81	-2076.56	  219.26
     43.7867	  276.00	  298.57	-2098.32	  219.27
     43.8201	  297.00	  299.59	-2078.34	  219.27
     43.8535	  345.00	  300.84	-2031.59	  219.27
     43.8869	  307.00	  302.10	-2070.85	  219.27
     43.9204	  273.00	  302.96	-2105.71	  219.27
     43.9538	  306.00	  303.20	-2072.95	  219.27
     43.9872	  324.00	  303.11	-2054.86	  219.28
     44.0206	  283.00	  302.89	-2095.64	  219.28
     44.0541	  324.00	  302.53	-2054.28	  219.28
     44.0875	  326.00	  302.15	-2051.90	  219.28
     44.1209	  305.00	  301.92	-2072.67	  219.28
     44.1543	  270.00	  301.95	-2107.70	  219.28
     44.1877	  336.00	  302.20	-2041.95	  219.29
     44.2212	  294.00	  302.72	-2084.47	  219.29
     44.2546	  318.00	  303.44	-2061.19	  219.29
     44.2880	  295.00	  304.36	-2085.10	  219.29
     44.3214	  331.00	  305.50	-2050.25	  219.29
     44.3549	  330.00	  306.87	-2052.62	  219.29
     44.3883	  311.00	  308.53	-2073.28	  219.30
     44.4217	  333.00	  310.53	-2053.28	  219.30
     44.4551	  335.00	  312.97	-2053.72	  219.30
     44.4885	  309.00	  315.97	-2082.72	  219.30
     44.5220	  333.00	  319.73	-2062.48	  219.30
     44.5554	  348.00	  324.56	-2052.31	  219.30
     44.5888	  373.00	  330.98	-2033.73	  219.31
     44.6222	  404.00	  339.96	-2011.71	  219.31
     44.6557	  379.00	  353.10	-2049.85	  219.31
     44.6891	  461.00	  372.92	-1987.67	  219.31
     44.7225	  504.00	  402.82	-1974.57	  219.31
     44.7559	  542.00	  446.38	-1980.13	  219.31
     44.7893	  611.00	  505.74	-1970.48	  219.32
     44.8228	  687.00	  577.39	-1966.14	  219.32
     44.8562	  754.00	  644.03	-1965.78	  219.32
     44.8896	  765.00	  677.11	-1987.86	  219.32
     44.9230	  775.00	  668.54	-1969.29	  219.32
     44.9565	  768.00	  638.59	-1946.34	  219.32
     44.9899	  713.00	  599.53	-1962.28	  219.33
     45.0233	  638.00	  548.82	-1986.57	  219.33
     45.0567	  551.00	  493.40	-2018.15	  219.33
     45.0902	  470.00	  445.18	-2050.93	  219.33
     45.1236	  466.00	  409.58	-2019.33	  219.33
     45.1570	  422.00	  386.22	-2039.97	  219.33
     45.1904	  421.00	  371.51	-2026.26	  219.34
     45.2238	  397.00	  363.63	-2042.38	  219.34
     45.2573	  366.00	  360.85	-2070.60	  219.34
     45.2907	  360.00	  362.61	-2078.36	  219.34
     45.3241	  397.00	  368.35	-2047.10	  219.34
     45.3575	  392.00	  379.93	-2063.68	  219.34
     45.3910	  424.00	  399.82	-2051.57	  219.35
     45.4244	  481.00	  431.85	-2026.60	  219.35
     45.4578	  503.00	  480.54	-2053.29	  219.35
     45.4912	  524.00	  549.58	-2101.33	  219.35
     45.5246	  625.00	  637.25	-2088.00	  219.35
     45.5581	  694.00	  727.61	-2109.36	  219.35
     45.5915	  765.00	  785.38	-2096.13	  219.36
     45.6249	  739.00	  787.06	-2123.81	  219.36
     45.6583	  726.00	  752.13	-2101.88	  219.36
     45.6918	  708.00	  704.19	-2071.94	  219.36
     45.7252	  657.00	  642.27	-2061.02	  219.36
     45.7586	  547.00	  568.53	-2097.28	  219.36
     45.7920	  537.00	  498.66	-2037.41	  219.37
     45.8254	  467.00	  443.02	-2051.77	  219.37
     45.8589	  448.00	  402.67	-2030.42	  219.37
     45.8923	  379.00	  374.77	-2071.52	  219.37
     45.9257	  357.00	  355.84	-2074.59	  219.37
     45.9591	  347.00	  342.91	-2071.66	  219.37
     45.9926	  357.00	  333.82	-2052.57	  219.37
     46.0260	  356.00	  327.77	-2047.52	  219.38
     46.0594	  298.00	  322.69	-2100.44	  219.38
     46.0928	  305.00	  318.68	-2089.43	  219.38
     46.1263	  282.00	  315.45	-2109.20	  219.38
     46.1597	  311.00	  313.11	-2077.86	  219.38
     46.1931	  287.00	  310.91	-2099.66	  219.38
     46.2265	  293.00	  309.07	-2091.82	  219.39
     46.2599	  299.00	  307.51	-2084.26	  219.39
     46.2934	  299.00	  306.18	-2082.93	  219.39
     46.3268	  303.00	  305.03	-2077.78	  219.39
     46.3602	  319.00	  304.04	-2060.79	  219.39
     46.3936	  308.00	  303.19	-2070.94	  219.39
     46.4271	  282.00	  302.44	-2096.19	  219.40
     46.4605	  313.00	  302.12	-2064.87	  219.40
     46.4939	  298.00	  301.55	-2079.30	  219.40
     46.5273	  307.00	  301.05	-2069.80	  219.40
     46.5607	  294.00	  300.61	-2082.36	  219.40
     46.5942	  295.00	  300.39	-2081.14	  219.40
     46.6276	  309.00	  300.05	-2066.80	  219.40
     46.6610	  295.00	  299.75	-2080.50	  219.41
     46.6944	  293.00	  299.49	-2082.24	  219.41
     46.7279	  322.00	  299.26	-2053.01	  219.41
     46.7613	  289.00	  299.06	-2085.81	  219.41
     46.7947	  275.00	  298.88	-2099.63	  219.41
     46.8281	  307.00	  298.74	-2067.49	  219.41
     46.8615	  311.00	  298.61	-2063.36	  219.41
     46.8950	  300.00	  298.51	-2074.26	  219.42
     46.9284	  274.00	  298.42	-2100.17	  219.42
     46.9618	  314.00	  298.35	-2060.10	  219.42
     46.9952	  295.00	  298.30	-2079.05	  219.42
     47.0287	  290.00	  298.27	-2084.02	  219.42
     47.0621	  285.00	  298.25	-2089.00	  219.42
     47.0955	  287.00	  298.39	-2087.14	  219.42
     47.1289	  284.00	  298.40	-2090.15	  219.43
     47.1623	  274.00	  298.42	-2100.17	  219.43
     47.1958	  298.00	  298.46	-2076.21	  219.43
     47.2292	  302.00	  298.59	-2072.34	  219.43
     47.2626	  300.00	  298.65	-2074.40	  219.43
     47.2960	  350.00	  298.73	-2024.48	  219.43
     47.3295	  302.00	  298.83	-2072.58	  219.43
     47.3629	  277.00	  298.93	-2097.68	  219.44
     47.3963	  281.00	  299.05	-2093.80	  219.44
     47.4297	  269.00	  299.18	-2105.93	  219.44
     47.4632	  350.00	  299.33	-2025.08	  219.44
     47.4966	  331.00	  299.49	-2044.24	  219.44
     47.5300	  313.00	  299.67	-2062.42	  219.44
     47.5634	  322.00	  299.86	-2053.61	  219.44
     47.5968	  321.00	  300.07	-2054.82	  219.44
     47.6303	  335.00	  300.29	-2041.04	  219.45
     47.6637	  320.00	  300.53	-2056.28	  219.45
     47.6971	  317.00	  300.79	-2059.54	  219.45
     47.7305	  295.00	  301.07	-2081.82	  219.45
     47.7640	  333.00	  301.37	-2044.12	  219.45
     47.7974	  357.00	  301.69	-2020.44	  219.45
     47.8308	  339.00	  302.04	-2038.79	  219.45
     47.8642	  300.00	  302.41	-2078.16	  219.46
     47.8976	  317.00	  302.81	-2061.56	  219.46
     47.9311	  280.00	  303.24	-2098.99	  219.46
     47.9645	  326.00	  303.70	-2053.45	  219.46
     47.9979	  282.00	  304.20	-2097.95	  219.46
     48.0313	  324.00	  304.73	-2056.48	  219.46
     48.0648	  284.00	  305.30	-2097.05	  219.46
     48.0982	  296.00	  305.92	-2085.67	  219.46
     48.1316	  304.00	  306.59	-2078.34	  219.47
     48.1650	  289.00	  307.32	-2094.07	  219.47
     48.1984	  308.00	  308.11	-2075.86	  219.47
     48.2319	  291.00	  308.96	-2093.71	  219.47
     48.2653	  342.00	  309.90	-2043.65	  219.47
     48.2987	  347.00	  310.92	-2039.67	  219.47
     48.3321	  311.00	  312.04	-2076.79	  219.47
     48.3656	  347.00	  313.27	-2042.02	  219.47
     48.3990	  355.00	  314.63	-2035.38	  219.47
     48.4324	  337.00	  316.13	-2054.88	  219.48
     48.4658	  376.00	  317.80	-2017.55	  219.48
     48.4993	  325.00	  319.67	-2070.42	  219.48
     48.5327	  326.00	  321.78	-2071.53	  219.48
     48.5661	  334.00	  324.15	-2065.90	  219.48
     48.5995	  336.00	  326.86	-2066.61	  219.48
     48.6329	  337.00	  329.98	-2068.73	  219.48
     48.6664	  354.00	  333.59	-2055.34	  219.48
     48.6998	  403.00	  337.86	-2010.61	  219.48
     48.7332	  355.00	  343.00	-2063.75	  219.49
     48.7666	  343.00	  349.36	-2082.11	  219.49
     48.8001	  413.00	  357.49	-2020.24	  219.49
     48.8335	  391.00	  368.12	-2052.87	  219.49
     48.8669	  394.00	  382.17	-2063.92	  219.49
     48.9003	  418.00	  400.56	-2058.31	  219.49
     48.9337	  447.00	  423.76	-2052.51	  219.49
     48.9672	  503.00	  450.68	-2023.43	  219.49
     49.0006	  513.00	  477.36	-2040.11	  219.49
     49.0340	  510.00	  499.64	-2065.39	  219.50
     49.0674	  569.00	  520.26	-2027.01	  219.50
     49.1009	  634.00	  548.14	-1989.89	  219.50
     49.1343	  606.00	  590.72	-2060.47	  219.50
     49.1677	  643.00	  655.51	-2088.26	  219.50
     49.2011	  707.00	  754.53	-2123.28	  219.50
     49.2345	  845.00	  900.85	-2131.60	  219.50
     49.2680	 1131.00	 1099.82	-2044.57	  219.50
     49.3014	 1328.00	 1333.61	-2081.36	  219.50
     49.3348	 1550.00	 1538.26	-2064.01	  219.50
     49.3682	 1703.00	 1623.55	-1996.30	  219.51
     49.4017	 1624.00	 1578.47	-2030.22	  219.51
     49.4351	 1501.00	 1477.53	-2052.28	  219.51
     49.4685	 1393.00	 1360.06	-2042.81	  219.51
     49.5019	 1241.00	 1209.72	-2044.47	  219.51
     49.5354	 1004.00	 1030.87	-2102.62	  219.51
     49.5688	  907.00	  861.41	-2030.16	  219.51
     49.6022	  751.00	  726.15	-2050.90	  219.51
     49.6356	  598.00	  628.26	-2106.01	  219.51
     49.6690	  575.00	  561.39	-2062.14	  219.51
     49.7025	  470.00	  517.68	-2123.43	  219.51
     49.7359	  450.00	  490.28	-2116.03	  219.51
     49.7693	  454.00	  473.92	-2095.67	  219.52
     49.8027	  492.00	  465.80	-2049.55	  219.52
     49.8362	  480.00	  464.00	-2059.75	  219.52
     49.8696	  494.00	  468.21	-2049.96	  219.52
     49.9030	  489.00	  478.03	-2064.78	  219.52
     49.9364	  480.00	  495.36	-2091.11	  219.52
     49.9698	  471.00	  522.92	-2127.67	  219.52
     50.0033	  560.00	  566.02	-2081.77	  219.52
     50.0367	  595.00	  632.29	-2113.04	  219.52
     50.0701	  711.00	  732.58	-2097.33	  219.52
     50.1035	  878.00	  878.67	-2076.42	  219.52
     50.1370	 1114.00	 1078.60	-2040.35	  219.52
     50.1704	 1421.00	 1325.71	-1980.46	  219.52
     50.2038	 1803.00	 1574.37	-1847.12	  219.53
     50.2372	 2103.00	 1731.26	-1704.01	  219.53
     50.2706	 2053.00	 1738.21	-1760.96	  219.53
     50.3041	 1939.00	 1651.14	-1787.89	  219.53
     50.3375	 1678.00	 1542.57	-1940.32	  219.53
     50.3709	 1626.00	 1414.29	-1864.04	  219.53
     50.4043	 1442.00	 1251.44	-1885.19	  219.53
     50.4378	 1113.00	 1084.28	-2047.03	  219.53
     50.4712	  967.00	  955.19	-2063.94	  219.53
     50.5046	  868.00	  883.58	-2091.33	  219.53
     50.5380	  841.00	  872.56	-2107.31	  219.53
     50.5714	  929.00	  918.02	-2064.77	  219.53
     50.6049	 1077.00	 1006.56	-2005.31	  219.53
     50.6383	 1237.00	 1104.40	-1943.15	  219.53
     50.6717	 1235.00	 1156.09	-1996.84	  219.53
     50.7051	 1259.00	 1133.42	-1950.17	  219.53
     50.7386	 1160.00	 1068.72	-1984.47	  219.54
     50.7720	 1109.00	  996.49	-1963.24	  219.54
     50.8054	 1020.00	  913.64	-1969.39	  219.54
     50.8388	  894.00	  811.45	-1993.20	  219.54
     50.8722	  752.00	  705.45	-2029.20	  219.54
     50.9057	  615.00	  614.88	-2075.63	  219.54
     50.9391	  585.00	  546.33	-2037.08	  219.54
     50.9725	  546.00	  498.03	-2027.78	  219.54
     51.0059	  478.00	  465.94	-2063.69	  219.54
     51.0394	  435.00	  446.39	-2087.14	  219.54
     51.0728	  440.00	  436.87	-2072.62	  219.54
     51.1062	  424.00	  436.61	-2088.36	  219.54
     51.1396	  454.00	  446.25	-2068.00	  219.54
     51.1731	  510.00	  466.93	-2032.68	  219.54
     51.2065	  525.00	  500.58	-2051.33	  219.54
     51.2399	  623.00	  546.86	-1999.61	  219.54
     51.2733	  606.00	  599.14	-2068.89	  219.54
     51.3067	  672.00	  639.25	-2043.00	  219.54
     51.3402	  664.00	  648.08	-2059.83	  219.54
     51.3736	  689.00	  629.47	-2016.22	  219.54
     51.4070	  650.00	  601.64	-2027.39	  219.54
     51.4404	  651.00	  571.38	-1996.13	  219.54
     51.4739	  605.00	  533.46	-2004.21	  219.54
     51.5073	  540.00	  489.02	-2024.77	  219.54
     51.5407	  464.00	  446.66	-2058.41	  219.54
     51.5741	  418.00	  412.24	-2069.99	  219.54
     51.6075	  384.00	  386.48	-2078.23	  219.55
     51.6410	  359.00	  367.96	-2084.71	  219.55
     51.6744	  330.00	  354.83	-2100.58	  219.55
     51.7078	  356.00	  345.46	-2065.21	  219.55
     51.7412	  311.00	  338.59	-2103.34	  219.55
     51.7747	  327.00	  333.61	-2082.36	  219.55
     51.8081	  304.00	  329.49	-2101.24	  219.55
     51.8415	  284.00	  326.15	-2117.90	  219.55
     51.8749	  335.00	  323.37	-2064.12	  219.55
     51.9084	  312.00	  321.03	-2084.78	  219.55
     51.9418	  299.00	  319.14	-2095.89	  219.55
     51.9752	  340.00	  317.42	-2053.17	  219.55
     52.0086	  318.00	  315.92	-2073.67	  219.55
     52.0420	  313.00	  314.61	-2077.36	  219.55
     52.0755	  281.00	  313.46	-2108.21	  219.55
     52.1089	  294.00	  312.44	-2094.19	  219.55
     52.1423	  314.00	  311.54	-2073.29	  219.55
     52.1757	  280.00	  310.74	-2106.49	  219.55
     52.2092	  330.00	  310.03	-2055.78	  219.55
     52.2426	  289.00	  309.39	-2096.14	  219.55
     52.2760	  271.00	  308.82	-2113.57	  219.55
     52.3094	  278.00	  308.32	-2106.07	  219.55
     52.3428	  285.00	  307.87	-2098.62	  219.55
     52.3763	  323.00	  307.47	-2060.22	  219.55
     52.4097	  292.00	  307.12	-2090.87	  219.55
     52.4431	  312.00	  306.81	-2070.56	  219.55
     52.4765	  283.00	  306.54	-2099.29	  219.55
     52.5100	  285.00	  306.31	-2097.06	  219.55
     52.5434	  317.00	  306.12	-2064.87	  219.55
     52.5768	  323.00	  305.96	-2058.71	  219.55
     52.6102	  305.00	  305.84	-2076.59	  219.55
     52.6436	  314.00	  305.75	-2067.50	  219.55
     52.6771	  305.00	  305.69	-2076.44	  219.55
     52.7105	  343.00	  305.66	-2038.41	  219.55
     52.7439	  311.00	  305.67	-2070.42	  219.55
     52.7773	  297.00	  305.71	-2084.46	  219.55
     52.8108	  330.00	  305.78	-2051.53	  219.55
     52.8442	  343.00	  305.89	-2038.64	  219.54
     52.8776	  304.00	  306.03	-2077.78	  219.54
     52.9110	  336.00	  306.21	-2045.96	  219.54
     52.9445	  311.00	  306.73	-2071.48	  219.54
     52.9779	  364.00	  306.99	-2018.74	  219.54
     53.0113	  316.00	  307.30	-2067.05	  219.54
     53.0447	  324.00	  307.66	-2059.41	  219.54
     53.0781	  287.00	  308.08	-2096.83	  219.54
     53.1116	  317.00	  308.69	-2067.44	  219.54
     53.1450	  302.00	  309.22	-2082.97	  219.54
     53.1784	  322.00	  309.82	-2063.57	  219.54
     53.2118	  316.00	  310.49	-2070.24	  219.54
     53.2453	  314.00	  311.22	-2072.97	  219.54
     53.2787	  314.00	  312.09	-2073.84	  219.54
     53.3121	  308.00	  313.07	-2080.82	  219.54
     53.3455	  370.00	  314.17	-2019.92	  219.54
     53.3789	  351.00	  315.41	-2040.16	  219.54
     53.4124	  321.00	  316.85	-2071.60	  219.54
     53.4458	  328.00	  318.48	-2066.23	  219.54
     53.4792	  337.00	  320.36	-2059.11	  219.54
     53.5126	  337.00	  322.53	-2061.28	  219.54
     53.5461	  359.00	  325.05	-2041.80	  219.54
     53.5795	  288.00	  327.44	-2115.19	  219.54
     53.6129	  330.00	  330.92	-2076.67	  219.54
     53.6463	  365.00	  335.06	-2045.81	  219.53
     53.6797	  394.00	  340.02	-2021.77	  219.53
     53.7132	  357.00	  345.99	-2064.74	  219.53
     53.7466	  375.00	  353.46	-2054.21	  219.53
     53.7800	  391.00	  362.90	-2047.65	  219.53
     53.8134	  405.00	  375.20	-2045.95	  219.53
     53.8469	  428.00	  391.85	-2039.60	  219.53
     53.8803	  491.00	  415.39	-2000.14	  219.53
     53.9137	  518.00	  449.35	-2007.10	  219.53
     53.9471	  556.00	  498.82	-2018.57	  219.53
     53.9805	  610.00	  569.61	-2035.36	  219.53
     54.0140	  719.00	  666.53	-2023.28	  219.53
     54.0474	  866.00	  789.53	-1999.28	  219.53
     54.0808	  904.00	  923.51	-2095.26	  219.53
     54.1142	 1027.00	 1029.63	-2078.38	  219.53
     54.1477	 1049.00	 1067.22	-2093.97	  219.52
     54.1811	 1062.00	 1041.81	-2055.56	  219.52
     54.2145	 1024.00	  990.45	-2042.20	  219.52
     54.2479	  949.00	  931.03	-2057.78	  219.52
     54.2813	  841.00	  856.27	-2091.02	  219.52
     54.3148	  794.00	  763.31	-2045.06	  219.52
     54.3482	  672.00	  667.21	-2070.96	  219.52
     54.3816	  561.00	  582.88	-2097.63	  219.52
     54.4150	  523.00	  516.51	-2069.26	  219.52
     54.4485	  456.00	  467.84	-2087.59	  219.52
     54.4819	  448.00	  433.10	-2060.85	  219.52
     54.5153	  406.00	  409.88	-2079.63	  219.51
     54.5487	  439.00	  394.48	-2031.23	  219.51
     54.5822	  457.00	  384.66	-2003.41	  219.51
     54.6156	  408.00	  378.68	-2046.43	  219.51
     54.6490	  402.00	  376.31	-2050.06	  219.51
     54.6824	  375.00	  376.60	-2077.35	  219.51
     54.7158	  366.00	  378.68	-2088.43	  219.51
     54.7493	  392.00	  380.94	-2064.69	  219.51
     54.7827	  386.00	  381.67	-2071.42	  219.51
     54.8161	  383.00	  380.96	-2073.71	  219.50
     54.8495	  409.00	  380.34	-2047.09	  219.50
     54.8830	  335.00	  380.67	-2121.42	  219.50
     54.9164	  351.00	  381.32	-2106.07	  219.50
     54.9498	  386.00	  382.79	-2072.54	  219.50
     54.9832	  406.00	  385.52	-2055.27	  219.50
     55.0166	  404.00	  390.51	-2062.26	  219.50
     55.0501	  418.00	  398.42	-2056.17	  219.50
     55.0835	  426.00	  410.49	-2060.24	  219.50
     55.1169	  502.00	  428.03	-2001.78	  219.49
     55.1503	  483.00	  453.46	-2046.21	  219.49
     55.1838	  480.00	  490.57	-2086.32	  219.49
     55.2172	  551.00	  544.49	-2069.24	  219.49
     55.2506	  639.00	  621.14	-2057.89	  219.49
     55.2840	  736.00	  725.63	-2065.38	  219.49
     55.3174	  857.00	  857.93	-2076.68	  219.49
     55.3509	 1029.00	 1004.09	-2050.84	  219.48
     55.3843	 1126.00	 1127.31	-2077.06	  219.48
     55.4177	 1146.00	 1186.40	-2116.15	  219.48
     55.4511	 1196.00	 1183.06	-2062.81	  219.48
     55.4846	 1163.00	 1161.05	-2073.80	  219.48
     55.5180	 1265.00	 1150.04	-1960.79	  219.48
     55.5514	 1160.00	 1144.25	-2060.00	  219.48
     55.5848	 1107.00	 1128.43	-2097.18	  219.47
     55.6183	 1114.00	 1095.78	-2057.53	  219.47
     55.6517	 1068.00	 1039.65	-2047.40	  219.47
     55.6851	  918.00	  962.99	-2120.74	  219.47
     55.7185	  877.00	  887.74	-2086.49	  219.47
     55.7519	  832.00	  829.54	-2073.29	  219.47
     55.7854	  767.00	  783.22	-2091.97	  219.46
     55.8188	  791.00	  738.03	-2022.78	  219.46
     55.8522	  646.00	  696.64	-2126.39	  219.46
     55.8856	  691.00	  669.90	-2054.65	  219.46
     55.9191	  708.00	  666.47	-2034.22	  219.46
     55.9525	  758.00	  690.20	-2007.95	  219.46
     55.9859	  749.00	  739.37	-2066.12	  219.45
     56.0193	  892.00	  801.60	-1985.35	  219.45
     56.0527	  805.00	  849.65	-2120.40	  219.45
     56.0862	  890.00	  855.39	-2041.14	  219.45
     56.1196	  795.00	  822.11	-2102.86	  219.45
     56.1530	  835.00	  777.08	-2017.83	  219.45
     56.1864	  725.00	  734.52	-2085.27	  219.44
     56.2199	  715.00	  687.21	-2047.96	  219.44
     56.2533	  636.00	  627.70	-2067.45	  219.44
     56.2867	  572.00	  563.82	-2067.57	  219.44
     56.3201	  505.00	  507.16	-2077.91	  219.44
     56.3535	  492.00	  462.49	-2046.24	  219.43
     56.3870	  398.00	  429.37	-2107.12	  219.43
     56.4204	  386.00	  405.62	-2095.37	  219.43
     56.4538	  353.00	  388.83	-2111.58	  219.43
     56.4872	  356.00	  376.97	-2096.72	  219.43
     56.5207	  356.00	  368.51	-2088.26	  219.42
     56.5541	  371.00	  362.41	-2067.16	  219.42
     56.5875	  362.00	  358.01	-2071.76	  219.42
     56.6209	  365.00	  354.91	-2065.66	  219.42
     56.6544	  391.00	  352.88	-2037.63	  219.42
     56.6878	  336.00	  351.80	-2091.55	  219.41
     56.7212	  360.00	  351.60	-2067.35	  219.41
     56.7546	  326.00	  352.29	-2102.04	  219.41
     56.7880	  309.00	  353.92	-2120.67	  219.41
     56.8215	  313.00	  356.61	-2119.36	  219.40
     56.8549	  380.00	  360.54	-2056.29	  219.40
     56.8883	  371.00	  366.04	-2070.79	  219.40
     56.9217	  395.00	  373.66	-2054.41	  219.40
     56.9552	  386.00	  384.29	-2074.04	  219.40
     56.9886	  386.00	  399.47	-2089.22	  219.39
     57.0220	  418.00	  421.71	-2079.46	  219.39
     57.0554	  448.00	  453.97	-2081.72	  219.39
     57.0888	  463.00	  500.56	-2113.31	  219.39
     57.1223	  526.00	  565.61	-2115.36	  219.38
     57.1557	  594.00	  651.40	-2133.15	  219.38
     57.1891	  694.00	  753.81	-2135.56	  219.38
     57.2225	  755.00	  853.68	-2174.43	  219.38
     57.2560	  793.00	  915.90	-2198.65	  219.37
     57.2894	  834.00	  918.00	-2159.75	  219.37
     57.3228	  799.00	  879.74	-2156.49	  219.37
     57.3562	  802.00	  834.06	-2107.81	  219.37
     57.3896	  753.00	  789.68	-2112.43	  219.36
     57.4231	  683.00	  734.55	-2127.30	  219.36
     57.4565	  639.00	  664.09	-2100.84	  219.36
     57.4899	  542.00	  591.01	-2124.76	  219.36
     57.5233	  538.00	  528.36	-2066.11	  219.35
     57.5568	  479.00	  480.47	-2077.22	  219.35
     57.5902	  464.00	  446.35	-2058.10	  219.35
     57.6236	  437.00	  423.42	-2062.17	  219.35
     57.6570	  424.00	  409.29	-2061.04	  219.34
     57.6904	  403.00	  401.49	-2074.24	  219.34
     57.7239	  404.00	  399.04	-2070.79	  219.34
     57.7573	  385.00	  401.63	-2092.38	  219.33
     57.7907	  427.00	  409.89	-2058.64	  219.33
     57.8241	  359.00	  425.48	-2142.23	  219.33
     57.8576	  446.00	  450.47	-2080.22	  219.33
     57.8910	  499.00	  487.59	-2064.34	  219.32
     57.9244	  454.00	  538.81	-2160.56	  219.32
     57.9578	  514.00	  603.06	-2164.81	  219.32
     57.9913	  618.00	  671.32	-2129.07	  219.31
     58.0247	  671.00	  722.34	-2127.09	  219.31
     58.0581	  637.00	  736.01	-2174.76	  219.31
     58.0915	  664.00	  718.51	-2130.26	  219.31
     58.1249	  644.00	  693.50	-2125.25	  219.30
     58.1584	  597.00	  673.35	-2152.10	  219.30
     58.1918	  571.00	  653.55	-2158.30	  219.30
     58.2252	  610.00	  628.50	-2094.25	  219.29
     58.2586	  584.00	  604.73	-2096.48	  219.29
     58.2921	  547.00	  592.34	-2121.09	  219.29
     58.3255	  575.00	  593.12	-2093.87	  219.28
     58.3589	  595.00	  597.99	-2078.74	  219.28
     58.3923	  574.00	  592.49	-2094.24	  219.28
     58.4257	  529.00	  571.59	-2118.34	  219.27
     58.4592	  523.00	  545.33	-2098.08	  219.27
     58.4926	  567.00	  522.28	-2031.03	  219.27
     58.5260	  497.00	  500.70	-2079.45	  219.26
     58.5594	  479.00	  475.16	-2071.91	  219.26
     58.5929	  495.00	  445.67	-2026.42	  219.26
     58.6263	  412.00	  417.02	-2080.77	  219.25
     58.6597	  361.00	  393.04	-2107.79	  219.25
     58.6931	  406.00	  374.70	-2044.45	  219.25
     58.7265	  337.00	  360.99	-2099.74	  219.24
     58.7600	  314.00	  351.05	-2112.80	  219.24
     58.7934	  317.00	  343.88	-2102.63	  219.24
     58.8268	  311.00	  338.66	-2103.41	  219.23
     58.8602	  346.00	  334.81	-2064.56	  219.23
     58.8937	  298.00	  331.92	-2109.67	  219.23
     58.9271	  302.00	  329.73	-2103.48	  219.22
     58.9605	  328.00	  328.08	-2075.83	  219.22
     58.9939	  302.00	  326.86	-2100.61	  219.22
     59.0274	  337.00	  326.02	-2064.77	  219.21
     59.0608	  332.00	  325.48	-2069.23	  219.21
     59.0942	  321.00	  325.26	-2080.01	  219.21
     59.1276	  346.00	  325.31	-2055.06	  219.20
     59.1610	  313.00	  325.64	-2088.39	  219.20
     59.1945	  338.00	  326.24	-2063.99	  219.19
     59.2279	  341.00	  327.13	-2061.88	  219.19
     59.2613	  310.00	  328.32	-2094.07	  219.19
     59.2947	  317.00	  329.85	-2088.60	  219.18
     59.3282	  318.00	  331.76	-2089.51	  219.18
     59.3616	  331.00	  334.11	-2078.86	  219.18
     59.3950	  356.00	  336.97	-2056.72	  219.17
     59.4284	  333.00	  340.44	-2083.19	  219.17
     59.4618	  362.00	  344.65	-2058.40	  219.16
     59.4953	  324.00	  349.79	-2101.54	  219.16
     59.5287	  382.00	  356.12	-2049.87	  219.16
     59.5621	  377.00	  364.01	-2062.76	  219.15
     59.5955	  411.00	  374.05	-2038.80	  219.15
     59.6290	  371.00	  387.17	-2091.92	  219.14
     59.6624	  410.00	  404.87	-2070.62	  219.14
     59.6958	  437.00	  429.33	-2068.08	  219.14
     59.7292	  480.00	  463.71	-2059.46	  219.13
     59.7626	  517.00	  512.41	-2071.16	  219.13
     59.7961	  597.00	  579.51	-2058.26	  219.12
     59.8295	  677.00	  667.99	-2066.74	  219.12
     59.8629	  740.00	  776.08	-2111.83	  219.12
     59.8963	  854.00	  889.82	-2111.57	  219.11
     59.9298	  968.00	  979.03	-2086.78	  219.11
     59.9632	  981.00	 1020.84	-2115.59	  219.10
     59.9966	 1049.00	 1031.79	-2058.54	  219.10
     60.0300	 1008.00	 1045.07	-2112.82	  219.09
     60.0634	  994.00	 1069.45	-2151.20	  219.09
     60.0969	 1060.00	 1079.15	-2094.90	  219.09
     60.1303	  973.00	 1041.67	-2144.42	  219.08
     60.1637	  987.00	  959.57	-2048.32	  219.08
     60.1971	  921.00	  866.10	-2020.85	  219.07
     60.2306	  741.00	  785.68	-2120.43	  219.07
     60.2640	  700.00	  719.39	-2095.14	  219.06
     60.2974	  712.00	  656.33	-2020.08	  219.06
     60.3308	  683.00	  592.04	-1984.79	  219.05
     60.3643	  561.00	  532.47	-2047.22	  219.05
     60.3977	  499.00	  482.90	-2059.65	  219.05
     60.4311	  545.00	  444.80	-1975.55	  219.04
     60.4645	  448.00	  416.41	-2044.16	  219.04
     60.4979	  440.00	  395.58	-2031.33	  219.03
     60.5314	  400.00	  380.25	-2056.00	  219.03
     60.5648	  407.00	  369.04	-2037.79	  219.02
     60.5982	  396.00	  360.67	-2040.42	  219.02
     60.6316	  334.00	  354.31	-2096.06	  219.01
     60.6651	  351.00	  349.43	-2074.18	  219.01
     60.6985	  323.00	  345.69	-2098.44	  219.00
     60.7319	  353.00	  342.88	-2065.63	  219.00
     60.7653	  337.00	  340.83	-2079.58	  218.99
     60.7987	  328.00	  339.47	-2087.22	  218.99
     60.8322	  332.00	  338.76	-2082.51	  218.98
     60.8656	  317.00	  338.67	-2097.42	  218.98
     60.8990	  340.00	  339.25	-2075.00	  218.97
     60.9324	  360.00	  340.52	-2056.27	  218.97
     60.9659	  350.00	  342.61	-2068.36	  218.96
     60.9993	  381.00	  345.69	-2040.44	  218.96
     61.0327	  391.00	  350.07	-2034.82	  218.95
     61.0661	  369.00	  356.32	-2063.07	  218.95
     61.0995	  408.00	  365.15	-2032.90	  218.94
     61.1330	  429.00	  377.87	-2024.62	  218.94
     61.1664	  423.00	  396.24	-2048.99	  218.93
     61.1998	  414.00	  422.42	-2084.17	  218.93
     61.2332	  495.00	  458.59	-2039.34	  218.92
     61.2667	  567.00	  506.11	-2014.86	  218.92
     61.3001	  606.00	  563.18	-2032.93	  218.91
     61.3335	  567.00	  620.87	-2129.62	  218.91
     61.3669	  647.00	  660.35	-2089.10	  218.90
     61.4004	  652.00	  666.88	-2090.62	  218.90
     61.4338	  642.00	  647.92	-2081.67	  218.89
     61.4672	  685.00	  623.06	-2013.81	  218.89
     61.5006	  622.00	  602.02	-2055.77	  218.88
     61.5340	  610.00	  580.07	-2045.82	  218.87
     61.5675	  539.00	  549.76	-2086.51	  218.87
     61.6009	  532.00	  512.72	-2056.47	  218.86
     61.6343	  520.00	  477.95	-2033.70	  218.86
     61.6677	  502.00	  450.75	-2024.50	  218.85
     61.7012	  478.00	  432.78	-2030.53	  218.85
     61.7346	  453.00	  423.79	-2046.54	  218.84
     61.7680	  432.00	  423.93	-2067.68	  218.84
     61.8014	  435.00	  433.51	-2074.26	  218.83
     61.8348	  402.00	  453.77	-2127.52	  218.82
     61.8683	  474.00	  486.64	-2088.39	  218.82
     61.9017	  507.00	  533.90	-2102.65	  218.81
     61.9351	  514.00	  595.55	-2157.30	  218.81
     61.9685	  649.00	  665.80	-2092.55	  218.80
     62.0020	  683.00	  727.56	-2120.31	  218.80
     62.0354	  676.00	  756.67	-2156.42	  218.79
     62.0688	  722.00	  745.70	-2099.45	  218.78
     62.1022	  691.00	  714.06	-2098.81	  218.78
     62.1356	  675.00	  682.78	-2083.53	  218.77
     62.1691	  632.00	  655.68	-2099.43	  218.77
     62.2025	  600.00	  623.09	-2098.84	  218.76
     62.2359	  567.00	  578.94	-2087.69	  218.75
     62.2693	  525.00	  529.86	-2080.61	  218.75
     62.3028	  519.00	  485.53	-2042.28	  218.74
     62.3362	  441.00	  450.43	-2085.18	  218.74
     62.3696	  454.00	  424.63	-2046.38	  218.73
     62.4030	  410.00	  407.18	-2072.93	  218.72
     62.4365	  379.00	  396.26	-2093.01	  218.72
     62.4699	  398.00	  390.47	-2068.22	  218.71
     62.5033	  402.00	  388.85	-2062.60	  218.71
     62.5367	  407.00	  390.84	-2059.59	  218.70
     62.5701	  402.00	  396.78	-2070.53	  218.69
     62.6036	  419.00	  407.36	-2064.11	  218.69
     62.6370	  434.00	  424.18	-2065.93	  218.68
     62.6704	  463.00	  449.76	-2062.51	  218.67
     62.7038	  474.00	  487.49	-2089.24	  218.67
     62.7373	  535.00	  541.14	-2081.89	  218.66
     62.7707	  611.00	  614.43	-2079.18	  218.66
     62.8041	  744.00	  707.81	-2039.56	  218.65
     62.8375	  820.00	  813.61	-2069.36	  218.64
     62.8709	  865.00	  907.80	-2118.55	  218.64
     62.9044	  928.00	  954.87	-2102.62	  218.63
     62.9378	  919.00	  941.85	-2098.60	  218.62
     62.9712	  897.00	  895.47	-2074.22	  218.62
     63.0046	  813.00	  847.98	-2110.73	  218.61
     63.0381	  733.00	  807.40	-2150.15	  218.60
     63.0715	  711.00	  760.72	-2125.47	  218.60
     63.1049	  644.00	  696.52	-2128.27	  218.59
     63.1383	  600.00	  622.13	-2097.88	  218.58
     63.1717	  543.00	  552.10	-2084.85	  218.58
     63.2052	  474.00	  494.35	-2096.10	  218.57
     63.2386	  413.00	  449.94	-2112.69	  218.56
     63.2720	  383.00	  417.06	-2109.81	  218.56
     63.3054	  386.00	  393.16	-2082.91	  218.55
     63.3389	  369.00	  375.84	-2082.59	  218.54
     63.3723	  382.00	  363.14	-2056.89	  218.53
     63.4057	  380.00	  353.63	-2049.38	  218.53
     63.4391	  356.00	  346.31	-2066.06	  218.52
     63.4725	  308.00	  340.55	-2108.30	  218.51
     63.5060	  302.00	  335.95	-2109.70	  218.51
     63.5394	  348.00	  332.22	-2059.97	  218.50
     63.5728	  357.00	  329.20	-2047.95	  218.49
     63.6062	  308.00	  326.76	-2094.51	  218.48
     63.6397	  310.00	  324.82	-2090.57	  218.48
     63.6731	  346.00	  323.31	-2053.06	  218.47
     63.7065	  333.00	  322.20	-2064.95	  218.46
     63.7399	  293.00	  321.48	-2104.23	  218.46
     63.7733	  333.00	  321.15	-2063.90	  218.45
     63.8068	  347.00	  321.25	-2050.00	  218.44
     63.8402	  312.00	  321.84	-2085.59	  218.43
     63.8736	  284.00	  323.06	-2114.81	  218.43
     63.9070	  305.00	  325.10	-2095.85	  218.42
     63.9405	  332.00	  328.23	-2071.98	  218.41
     63.9739	  352.00	  332.78	-2056.53	  218.40
     64.0073	  347.00	  339.11	-2067.86	  218.40
     64.0407	  374.00	  347.50	-2049.25	  218.39
     64.0742	  355.00	  357.85	-2078.60	  218.38
     64.1076	  380.00	  369.20	-2064.95	  218.37
     64.1410	  367.00	  379.75	-2088.50	  218.37
     64.1744	  412.00	  388.77	-2052.52	  218.36
     64.2078	  399.00	  398.42	-2075.17	  218.35
     64.2413	  433.00	  411.75	-2054.50	  218.34
     64.2747	  462.00	  429.63	-2043.38	  218.34
     64.3081	  469.00	  448.88	-2055.63	  218.33
     64.3415	  475.00	  463.47	-2064.22	  218.32
     64.3750	  549.00	  466.79	-1993.54	  218.31
     64.4084	  441.00	  458.86	-2093.61	  218.30
     64.4418	  495.00	  445.55	-2026.30	  218.30
     64.4752	  478.00	  432.45	-2030.20	  218.29
     64.5087	  453.00	  421.06	-2043.81	  218.28
     64.5421	  451.00	  409.35	-2034.10	  218.27
     64.5755	  395.00	  394.96	-2075.71	  218.26
     64.6089	  361.00	  379.00	-2093.75	  218.26
     64.6423	  391.00	  363.85	-2048.60	  218.25
     64.6758	  381.00	  351.08	-2045.83	  218.24
     64.7092	  330.00	  341.32	-2087.07	  218.23
     64.7426	  309.00	  334.27	-2101.02	  218.22
     64.7760	  350.00	  329.36	-2055.11	  218.22
     64.8094	  328.00	  326.15	-2073.90	  218.21
     64.8429	  331.00	  324.27	-2069.02	  218.20
     64.8763	  319.00	  323.49	-2080.24	  218.19
     64.9097	  345.00	  323.68	-2054.43	  218.18
     64.9431	  311.00	  324.85	-2089.60	  218.17
     64.9766	  321.00	  327.09	-2081.84	  218.17
     65.0100	  350.00	  330.51	-2056.26	  218.16
     65.0434	  353.00	  335.18	-2057.93	  218.15
     65.0768	  348.00	  340.91	-2068.66	  218.14
     65.1103	  351.00	  346.93	-2071.68	  218.13
     65.1437	  338.00	  351.90	-2089.65	  218.12
     65.1771	  360.00	  354.94	-2070.69	  218.12
     65.2105	  363.00	  357.00	-2069.75	  218.11
     65.2439	  382.00	  359.91	-2053.66	  218.10
     65.2774	  375.00	  364.91	-2065.66	  218.09
     65.3108	  364.00	  372.34	-2084.09	  218.08
     65.3442	  425.00	  382.27	-2033.02	  218.07
     65.3776	  418.00	  395.33	-2053.08	  218.06
     65.4111	  436.00	  412.61	-2052.36	  218.05
     65.4445	  477.00	  434.29	-2033.04	  218.05
     65.4779	  496.00	  458.29	-2038.04	  218.04
     65.5113	  475.00	  480.50	-2081.25	  218.03
     65.5447	  536.00	  499.37	-2039.12	  218.02
     65.5782	  560.00	  519.93	-2035.68	  218.01
     65.6116	  583.00	  549.92	-2042.67	  218.00
     65.6450	  619.00	  593.80	-2050.55	  217.99
     65.6784	  614.00	  650.03	-2111.78	  217.98
     65.7119	  708.00	  709.98	-2077.73	  217.97
     65.7453	  725.00	  758.37	-2109.12	  217.96
     65.7787	  810.00	  779.42	-2045.17	  217.96
     65.8121	  755.00	  770.89	-2091.64	  217.95
     65.8456	  721.00	  743.97	-2098.72	  217.94
     65.8790	  661.00	  713.12	-2127.87	  217.93
     65.9124	  656.00	  685.64	-2105.39	  217.92
     65.9458	  624.00	  658.55	-2110.30	  217.91
     65.9792	  693.00	  626.45	-2009.20	  217.90
     66.0127	  561.00	  588.82	-2103.57	  217.89
     66.0461	  551.00	  548.57	-2073.32	  217.88
     66.0795	  463.00	  508.47	-2121.22	  217.87
     66.1129	  460.00	  471.27	-2087.02	  217.86
     66.1463	  420.00	  439.83	-2095.58	  217.85
     66.1798	  411.00	  415.43	-2080.18	  217.84
     66.2132	  395.00	  397.12	-2077.87	  217.83
     66.2466	  369.00	  382.45	-2089.20	  217.82
     66.2800	  330.00	  369.23	-2114.98	  217.81
     66.3135	  340.00	  356.98	-2092.73	  217.80
     66.3469	  355.00	  346.23	-2066.98	  217.79
     66.3803	  330.00	  337.33	-2083.08	  217.79
     66.4137	  293.00	  330.18	-2112.93	  217.78
     66.4472	  304.00	  324.27	-2096.02	  217.77
     66.4806	  334.00	  319.77	-2061.52	  217.76
     66.5140	  304.00	  316.18	-2087.93	  217.75
     66.5474	  275.00	  313.27	-2114.02	  217.74
     66.5808	  299.00	  310.87	-2087.62	  217.73
     66.6143	  304.00	  308.83	-2080.58	  217.72
     66.6477	  294.00	  307.11	-2088.86	  217.71
     66.6811	  295.00	  305.63	-2086.38	  217.70
     66.7145	  293.00	  304.45	-2087.20	  217.69
     66.7480	  308.00	  303.32	-2071.07	  217.68
     66.7814	  314.00	  302.31	-2064.06	  217.67
     66.8148	  319.00	  301.47	-2058.22	  217.66
     66.8482	  299.00	  300.67	-2077.42	  217.65
     66.8816	  350.00	  299.96	-2025.71	  217.64
     66.9151	  325.00	  299.37	-2050.12	  217.62
     66.9485	  302.00	  298.79	-2072.54	  217.61
     66.9819	  274.00	  298.26	-2100.01	  217.60
     67.0153	  279.00	  297.79	-2094.54	  217.59
     67.0488	  285.00	  297.35	-2088.10	  217.58
     67.0822	  295.00	  296.95	-2077.70	  217.57
     67.1156	  306.00	  296.59	-2066.34	  217.56
     67.1490	  297.00	  296.26	-2075.01	  217.55
     67.1824	  283.00	  295.95	-2088.70	  217.54
     67.2159	  268.00	  295.67	-2103.42	  217.53
     67.2493	  305.00	  295.42	-2066.17	  217.52
     67.2827	  271.00	  295.18	-2099.93	  217.51
     67.3161	  295.00	  294.61	-2075.36	  217.50
     67.3496	  294.00	  294.47	-2076.22	  217.49
     67.3830	  282.00	  294.30	-2088.04	  217.48
     67.4164	  269.00	  294.14	-2100.89	  217.47
     67.4498	  273.00	  293.99	-2096.74	  217.46
     67.4833	  294.00	  293.86	-2075.61	  217.45
     67.5167	  293.00	  293.57	-2076.32	  217.43
     67.5501	  293.00	  293.50	-2076.25	  217.42
     67.5835	  270.00	  293.41	-2099.16	  217.41
     67.6169	  292.00	  293.33	-2077.08	  217.40
     67.6504	  273.00	  293.27	-2096.02	  217.39
     67.6838	  290.00	  293.25	-2079.00	  217.38
     67.7172	  261.00	  293.21	-2107.96	  217.37
     67.7506	  328.00	  293.18	-2040.93	  217.36
     67.7841	  271.00	  293.16	-2097.91	  217.35
     67.8175	  248.00	  293.16	-2120.91	  217.33
     67.8509	  342.00	  293.17	-2026.92	  217.32
     67.8843	  321.00	  293.20	-2047.95	  217.31
     67.9177	  305.00	  293.24	-2063.99	  217.30
     67.9512	  296.00	  293.29	-2073.03	  217.29
     67.9846	  289.00	  293.35	-2080.10	  217.28
     68.0180	  307.00	  293.43	-2062.18	  217.27
     68.0514	  290.00	  293.55	-2079.30	  217.26
     68.0849	  305.00	  293.67	-2064.42	  217.24
     68.1183	  284.00	  293.85	-2085.60	  217.23
     68.1517	  285.00	  294.01	-2084.76	  217.22
     68.1851	  349.00	  294.20	-2020.95	  217.21
     68.2186	  296.00	  294.42	-2074.17	  217.20
     68.2520	  267.00	  294.69	-2103.44	  217.19
     68.2854	  288.00	  294.98	-2082.73	  217.17
     68.3188	  279.00	  295.34	-2092.09	  217.16
     68.3522	  283.00	  295.73	-2088.48	  217.15
     68.3857	  298.00	  296.19	-2073.94	  217.14
     68.4191	  299.00	  296.71	-2073.46	  217.13
     68.4525	  311.00	  297.33	-2062.08	  217.11
     68.4859	  319.00	  298.05	-2054.80	  217.10
     68.5193	  346.00	  298.90	-2028.65	  217.09
     68.5528	  288.00	  299.91	-2087.66	  217.08
     68.5862	  300.00	  301.10	-2076.85	  217.07
     68.6196	  305.00	  302.57	-2073.32	  217.05
     68.6530	  306.00	  304.40	-2074.15	  217.04
     68.6865	  342.00	  306.71	-2040.46	  217.03
     68.7199	  306.00	  309.71	-2079.46	  217.02
     68.7533	  311.00	  313.70	-2078.45	  217.01
     68.7867	  317.00	  319.17	-2077.92	  216.99
     68.8202	  291.00	  326.66	-2111.41	  216.98
     68.8536	  342.00	  337.03	-2070.78	  216.97
     68.8870	  352.00	  351.03	-2074.78	  216.96
     68.9204	  347.00	  369.21	-2097.96	  216.94
     68.9538	  414.00	  391.31	-2053.06	  216.93
     68.9873	  407.00	  414.95	-2083.70	  216.92
     69.0207	  436.00	  434.49	-2074.24	  216.91
     69.0541	  416.00	  442.82	-2102.57	  216.89
     69.0875	  447.00	  438.50	-2067.25	  216.88
     69.1210	  368.00	  427.68	-2135.43	  216.87
     69.1544	  394.00	  417.19	-2098.94	  216.86
     69.1878	  366.00	  409.37	-2119.12	  216.84
     69.2212	  394.00	  402.06	-2083.81	  216.83
     69.2546	  378.00	  391.66	-2089.41	  216.82
     69.2881	  376.00	  377.55	-2077.30	  216.81
     69.3215	  394.00	  362.44	-2044.19	  216.79
     69.3549	  371.00	  349.02	-2053.77	  216.78
     69.3883	  374.00	  338.50	-2040.25	  216.77
     69.4218	  322.00	  330.99	-2084.74	  216.75
     69.4552	  319.00	  326.22	-2082.97	  216.74
     69.4886	  376.00	  323.87	-2023.62	  216.73
     69.5220	  364.00	  323.60	-2035.35	  216.72
     69.5555	  335.00	  325.06	-2065.81	  216.70
     69.5889	  324.00	  327.73	-2079.48	  216.69
     69.6223	  347.00	  330.62	-2059.37	  216.68
     69.6557	  328.00	  332.34	-2080.09	  216.66
     69.6891	  348.00	  331.83	-2059.58	  216.65
     69.7226	  352.00	  329.54	-2053.29	  216.64
     69.7560	  328.00	  326.86	-2074.61	  216.62
     69.7894	  308.00	  324.73	-2092.48	  216.61
     69.8228	  312.00	  323.18	-2086.93	  216.60
     69.8562	  303.00	  321.57	-2094.32	  216.58
     69.8897	  305.00	  319.41	-2090.16	  216.57
     69.9231	  317.00	  316.91	-2075.66	  216.56
     69.9565	  314.00	  314.73	-2076.48	  216.54
     69.9899	  300.00	  313.31	-2089.06	  216.53
     70.0234	  327.00	  313.03	-2061.78	  216.51
     70.0568	  298.00	  313.99	-2091.74	  216.50
     70.0902	  307.00	  316.39	-2085.14	  216.49
     70.1236	  338.00	  320.25	-2058.00	  216.47
     70.1571	  327.00	  325.68	-2074.43	  216.46
     70.1905	  298.00	  332.48	-2110.23	  216.45
     70.2239	  338.00	  339.54	-2077.29	  216.43
     70.2573	  332.00	  345.22	-2088.97	  216.42
     70.2907	  290.00	  347.20	-2132.95	  216.40
     70.3242	  264.00	  345.55	-2157.30	  216.39
     70.3576	  310.00	  342.25	-2108.00	  216.38
     70.3910	  342.00	  339.35	-2073.10	  216.36
     70.4244	  347.00	  337.33	-2066.08	  216.35
     70.4579	  360.00	  335.64	-2051.39	  216.33
     70.4913	  352.00	  333.02	-2056.77	  216.32
     70.5247	  316.00	  329.38	-2089.13	  216.31
     70.5581	  312.00	  325.51	-2089.26	  216.29
     70.5916	  342.00	  322.32	-2056.07	  216.28
     70.6250	  306.00	  320.31	-2090.06	  216.26
     70.6584	  305.00	  319.28	-2090.03	  216.25
     70.6918	  320.00	  319.32	-2075.07	  216.23
     70.7252	  318.00	  320.35	-2078.10	  216.22
     70.7587	  327.00	  322.39	-2071.14	  216.21
     70.7921	  298.00	  325.50	-2103.25	  216.19
     70.8255	  293.00	  329.80	-2112.55	  216.18
     70.8589	  348.00	  335.66	-2063.41	  216.16
     70.8923	  351.00	  343.45	-2068.20	  216.15
     70.9258	  353.00	  354.02	-2076.77	  216.13
     70.9592	  351.00	  368.46	-2093.21	  216.12
     70.9926	  425.00	  388.03	-2038.78	  216.10
     71.0260	  421.00	  414.00	-2068.75	  216.09
     71.0595	  471.00	  447.03	-2051.78	  216.07
     71.0929	  465.00	  486.43	-2097.18	  216.06
     71.1263	  478.00	  528.84	-2126.59	  216.04
     71.1597	  509.00	  567.81	-2134.56	  216.03
     71.1932	  538.00	  597.16	-2134.91	  216.01
     71.2266	  548.00	  614.70	-2142.45	  216.00
     71.2600	  604.00	  619.46	-2091.21	  215.98
     71.2934	  575.00	  610.68	-2111.43	  215.97
     71.3268	  563.00	  592.06	-2104.81	  215.95
     71.3603	  536.00	  569.37	-2109.12	  215.94
     71.3937	  538.00	  545.65	-2083.40	  215.92
     71.4271	  525.00	  521.65	-2072.40	  215.91
     71.4605	  503.00	  496.51	-2069.26	  215.89
     71.4940	  472.00	  468.90	-2072.65	  215.88
     71.5274	  464.00	  440.19	-2051.94	  215.86
     71.5608	  425.00	  413.80	-2064.55	  215.85
     71.5942	  445.00	  392.19	-2022.94	  215.83
     71.6276	  386.00	  375.98	-2065.73	  215.81
     71.6611	  348.00	  364.87	-2092.62	  215.80
     71.6945	  411.00	  358.30	-2023.05	  215.78
     71.7279	  333.00	  355.80	-2098.55	  215.77
     71.7613	  357.00	  357.04	-2075.79	  215.75
     71.7948	  341.00	  361.75	-2096.50	  215.74
     71.8282	  330.00	  369.55	-2115.30	  215.72
     71.8616	  354.00	  378.96	-2100.71	  215.70
     71.8950	  362.00	  387.33	-2101.08	  215.69
     71.9285	  340.00	  391.26	-2127.01	  215.67
     71.9619	  353.00	  389.69	-2112.44	  215.66
     71.9953	  361.00	  385.30	-2100.05	  215.64
     72.0287	  360.00	  381.72	-2097.47	  215.63
     72.0621	  363.00	  380.85	-2093.60	  215.61
     72.0956	  368.00	  382.26	-2090.01	  215.59
     72.1290	  349.00	  384.32	-2111.07	  215.58
     72.1624	  382.00	  385.64	-2079.39	  215.56
     72.1958	  411.00	  385.82	-2050.57	  215.54
     72.2292	  354.00	  384.20	-2105.95	  215.53
     72.2627	  408.00	  379.80	-2047.55	  215.51
     72.2961	  423.00	  373.31	-2026.06	  215.50
     72.3295	  361.00	  367.03	-2081.78	  215.48
     72.3629	  425.00	  362.87	-2013.62	  215.46
     72.3964	  384.00	  361.33	-2053.08	  215.45
     72.4298	  395.00	  361.76	-2042.51	  215.43
     72.4632	  402.00	  363.22	-2036.97	  215.41
     72.4966	  384.00	  365.71	-2057.46	  215.40
     72.5301	  399.00	  370.25	-2047.00	  215.38
     72.5635	  374.00	  377.50	-2079.25	  215.36
     72.5969	  400.00	  386.67	-2062.42	  215.35
     72.6303	  385.00	  395.62	-2086.37	  215.33
     72.6637	  407.00	  401.80	-2070.55	  215.31
     72.6972	  391.00	  403.46	-2088.21	  215.30
     72.7306	  443.00	  400.02	-2032.77	  215.28
     72.7640	  397.00	  393.09	-2071.84	  215.26
     72.7974	  406.00	  385.32	-2055.07	  215.25
     72.8309	  420.00	  378.18	-2033.93	  215.23
     72.8643	  340.00	  371.43	-2107.18	  215.21
     72.8977	  352.00	  364.14	-2087.89	  215.19
     72.9311	  373.00	  355.56	-2058.31	  215.18
     72.9646	  347.00	  345.90	-2074.65	  215.16
     72.9980	  370.00	  336.32	-2042.07	  215.14
     73.0314	  341.00	  327.90	-2062.65	  215.13
     73.0648	  269.00	  321.09	-2127.84	  215.11
     73.0982	  308.00	  315.85	-2083.60	  215.09
     73.1317	  336.00	  311.93	-2051.68	  215.07
     73.1651	  296.00	  309.08	-2088.83	  215.06
     73.1985	  326.00	  307.08	-2056.83	  215.04
     73.2319	  304.00	  305.72	-2077.47	  215.02
     73.2654	  282.00	  304.90	-2098.65	  215.00
     73.2988	  287.00	  304.61	-2093.36	  214.99
     73.3322	  319.00	  304.78	-2061.53	  214.97
     73.3656	  332.00	  305.52	-2049.27	  214.95
     73.3990	  305.00	  306.94	-2077.69	  214.93
     73.4325	  320.00	  309.20	-2064.95	  214.91
     73.4659	  289.00	  312.46	-2099.21	  214.90
     73.4993	  307.00	  316.80	-2085.55	  214.88
     73.5327	  302.00	  322.19	-2095.94	  214.86
     73.5662	  307.00	  328.10	-2096.85	  214.84
     73.5996	  352.00	  333.19	-2056.94	  214.82
     73.6330	  295.00	  335.86	-2116.61	  214.81
     73.6664	  331.00	  335.20	-2079.95	  214.79
     73.6998	  326.00	  332.34	-2082.09	  214.77
     73.7333	  303.00	  329.11	-2101.86	  214.75
     73.7667	  333.00	  326.58	-2069.33	  214.73
     73.8001	  327.00	  324.80	-2073.55	  214.72
     73.8335	  311.00	  322.89	-2087.64	  214.70
     73.8670	  300.00	  320.01	-2095.76	  214.68
     73.9004	  326.00	  316.25	-2066.00	  214.66
     73.9338	  273.00	  312.32	-2115.07	  214.64
     73.9672	  277.00	  308.85	-2107.60	  214.62
     74.0006	  326.00	  306.07	-2055.82	  214.61
     74.0341	  299.00	  304.00	-2080.75	  214.59
     74.0675	  294.00	  302.55	-2084.30	  214.57
     74.1009	  293.00	  301.61	-2084.36	  214.55
     74.1343	  270.00	  301.08	-2106.83	  214.53
     74.1678	  268.00	  300.87	-2108.62	  214.51
     74.2012	  280.00	  300.93	-2096.68	  214.49
     74.2346	  310.00	  301.27	-2067.02	  214.47
     74.2680	  346.00	  301.84	-2031.59	  214.46
     74.3015	  314.00	  302.76	-2064.51	  214.44
     74.3349	  285.00	  303.93	-2094.68	  214.42
     74.3683	  287.00	  305.49	-2094.24	  214.40
     74.4017	  262.00	  307.55	-2121.30	  214.38
     74.4351	  333.00	  310.31	-2053.06	  214.36
     74.4686	  308.00	  314.01	-2081.76	  214.34
     74.5020	  325.00	  318.94	-2069.69	  214.32
     74.5354	  295.00	  325.46	-2106.21	  214.30
     74.5688	  345.00	  333.90	-2064.65	  214.28
     74.6022	  413.00	  344.60	-2007.35	  214.26
     74.6357	  369.00	  357.52	-2064.27	  214.24
     74.6691	  385.00	  371.67	-2062.42	  214.23
     74.7025	  443.00	  384.37	-2017.12	  214.21
     74.7359	  410.00	  391.84	-2057.59	  214.19
     74.7694	  414.00	  392.28	-2054.03	  214.17
     74.8028	  403.00	  388.05	-2060.80	  214.15
     74.8362	  376.00	  383.21	-2082.96	  214.13
     74.8696	  402.00	  380.41	-2054.16	  214.11
     74.9031	  370.00	  379.90	-2085.65	  214.09
     74.9365	  399.00	  380.26	-2057.01	  214.07
     74.9699	  400.00	  379.97	-2055.72	  214.05
     75.0033	  402.00	  379.43	-2053.18	  214.03
     75.0367	  402.00	  380.75	-2054.50	  214.01
     75.0702	  414.00	  386.26	-2048.01	  213.99
     75.1036	  445.00	  397.52	-2028.27	  213.97
     75.1370	  455.00	  415.33	-2036.08	  213.95
     75.1704	  492.00	  439.51	-2023.26	  213.93
     75.2039	  508.00	  467.82	-2035.57	  213.91
     75.2373	  498.00	  494.52	-2072.27	  213.89
     75.2707	  575.00	  511.09	-2011.84	  213.87
     75.3041	  567.00	  512.56	-2021.31	  213.85
     75.3376	  557.00	  502.97	-2021.72	  213.83
     75.3710	  495.00	  491.01	-2071.76	  213.81
     75.4044	  492.00	  482.04	-2065.79	  213.79
     75.4378	  474.00	  475.72	-2077.47	  213.77
     75.4712	  472.00	  467.70	-2071.45	  213.75
     75.5047	  446.00	  453.82	-2083.57	  213.73
     75.5381	  469.00	  434.11	-2040.86	  213.70
     75.5715	  412.00	  412.44	-2076.19	  213.68
     75.6049	  388.00	  392.51	-2080.26	  213.66
     75.6384	  391.00	  375.69	-2060.44	  213.64
     75.6718	  366.00	  361.63	-2071.38	  213.62
     75.7052	  336.00	  349.68	-2089.43	  213.60
     75.7386	  283.00	  339.53	-2132.28	  213.58
     75.7720	  332.00	  331.39	-2075.14	  213.56
     75.8055	  331.00	  325.03	-2069.78	  213.54
     75.8389	  321.00	  320.07	-2074.82	  213.52
     75.8723	  295.00	  316.42	-2097.17	  213.50
     75.9057	  334.00	  313.74	-2055.49	  213.47
     75.9391	  304.00	  311.77	-2083.52	  213.45
     75.9726	  295.00	  310.47	-2091.22	  213.43
     76.0060	  310.00	  309.70	-2075.45	  213.41
     76.0394	  327.00	  309.34	-2058.09	  213.39
     76.0728	  289.00	  309.50	-2096.25	  213.37
     76.1063	  300.00	  310.13	-2085.88	  213.35
     76.1397	  317.00	  311.31	-2070.06	  213.33
     76.1731	  324.00	  313.18	-2064.93	  213.30
     76.2065	  283.00	  315.97	-2108.72	  213.28
     76.2400	  347.00	  320.00	-2048.75	  213.26
     76.2734	  316.00	  325.71	-2085.46	  213.24
     76.3068	  282.00	  333.60	-2127.35	  213.22
     76.3402	  385.00	  344.19	-2034.94	  213.20
     76.3736	  347.00	  357.90	-2086.65	  213.17
     76.4071	  392.00	  374.68	-2058.43	  213.15
     76.4405	  367.00	  393.26	-2102.01	  213.13
     76.4739	  355.00	  410.25	-2131.00	  213.11
     76.5073	  407.00	  420.42	-2089.17	  213.09
     76.5408	  422.00	  420.64	-2074.39	  213.06
     76.5742	  381.00	  413.12	-2107.87	  213.04
     76.6076	  394.00	  403.34	-2085.09	  213.02
     76.6410	  404.00	  395.36	-2067.11	  213.00
     76.6745	  381.00	  390.08	-2084.83	  212.98
     76.7079	  379.00	  385.75	-2082.50	  212.95
     76.7413	  397.00	  379.47	-2058.22	  212.93
     76.7747	  368.00	  370.02	-2077.77	  212.91
     76.8081	  354.00	  358.82	-2080.57	  212.89
     76.8416	  348.00	  347.93	-2075.68	  212.86
     76.8750	  309.00	  338.91	-2105.67	  212.84
     76.9084	  288.00	  332.21	-2119.96	  212.82
     76.9418	  311.00	  327.78	-2092.53	  212.80
     76.9753	  296.00	  325.45	-2105.20	  212.77
     77.0087	  314.00	  325.04	-2086.79	  212.75
     77.0421	  310.00	  326.36	-2092.11	  212.73
     77.0755	  267.00	  329.09	-2137.84	  212.71
     77.1089	  324.00	  332.76	-2084.51	  212.68
     77.1424	  354.00	  336.74	-2058.49	  212.66
     77.1758	  368.00	  340.70	-2048.45	  212.64
     77.2092	  354.00	  345.05	-2066.80	  212.61
     77.2426	  343.00	  350.45	-2083.20	  212.59
     77.2761	  351.00	  357.00	-2081.75	  212.57
     77.3095	  380.00	  363.70	-2059.45	  212.54
     77.3429	  376.00	  369.48	-2069.23	  212.52
     77.3763	  397.00	  374.08	-2052.83	  212.50
     77.4097	  375.00	  378.14	-2078.89	  212.48
     77.4432	  399.00	  381.83	-2058.58	  212.45
     77.4766	  337.00	  384.51	-2123.26	  212.43
     77.5100	  359.00	  385.68	-2102.43	  212.41
     77.5434	  363.00	  385.93	-2098.68	  212.38
     77.5769	  339.00	  386.37	-2123.12	  212.36
     77.6103	  408.00	  387.43	-2055.18	  212.33
     77.6437	  349.00	  388.20	-2114.95	  212.31
     77.6771	  386.00	  386.66	-2076.41	  212.29
     77.7106	  392.00	  381.68	-2065.43	  212.26
     77.7440	  370.00	  374.50	-2080.25	  212.24
     77.7774	  326.00	  367.72	-2117.47	  212.22
     77.8108	  307.00	  363.01	-2131.76	  212.19
     77.8442	  362.00	  360.96	-2074.71	  212.17
     77.8777	  319.00	  360.95	-2117.70	  212.14
     77.9111	  348.00	  361.96	-2089.71	  212.12
     77.9445	  350.00	  363.39	-2089.14	  212.10
     77.9779	  360.00	  364.89	-2080.64	  212.07
     78.0114	  384.00	  365.54	-2057.29	  212.05
     78.0448	  311.00	  364.51	-2129.26	  212.02
     78.0782	  353.00	  362.10	-2084.85	  212.00
     78.1116	  335.00	  359.63	-2100.38	  211.98
     78.1450	  308.00	  357.78	-2125.53	  211.95
     78.1785	  357.00	  356.01	-2074.76	  211.93
     78.2119	  369.00	  353.36	-2060.11	  211.90
     78.2453	  314.00	  349.34	-2111.09	  211.88
     78.2787	  336.00	  344.19	-2083.94	  211.85
     78.3121	  318.00	  338.75	-2096.50	  211.83
     78.3456	  323.00	  333.94	-2086.69	  211.80
     78.3790	  311.00	  329.84	-2094.59	  211.78
     78.4124	  354.00	  326.29	-2048.04	  211.75
     78.4458	  338.00	  323.04	-2060.79	  211.73
     78.4793	  295.00	  320.29	-2101.04	  211.70
     78.5127	  302.00	  318.42	-2092.17	  211.68
     78.5461	  313.00	  317.66	-2080.41	  211.65
     78.5795	  335.00	  318.09	-2058.84	  211.63
     78.6130	  319.00	  319.54	-2076.29	  211.60
     78.6464	  324.00	  321.58	-2073.33	  211.58
     78.6798	  326.00	  323.84	-2073.59	  211.55
     78.7132	  347.00	  326.17	-2054.92	  211.53
     78.7466	  353.00	  329.03	-2051.78	  211.50
     78.7801	  332.00	  333.22	-2076.97	  211.48
     78.8135	  368.00	  339.40	-2047.15	  211.45
     78.8469	  362.00	  348.02	-2061.77	  211.43
     78.8803	  363.00	  359.24	-2071.99	  211.40
     78.9138	  381.00	  372.59	-2067.34	  211.38
     78.9472	  442.00	  386.87	-2020.62	  211.35
     78.9806	  476.00	  399.70	-1999.45	  211.33
     79.0140	  413.00	  407.91	-2070.66	  211.30
     79.0475	  446.00	  408.95	-2038.70	  211.27
     79.0809	  463.00	  403.20	-2015.95	  211.25
     79.1143	  392.00	  394.19	-2077.94	  211.22
     79.1477	  385.00	  385.46	-2076.21	  211.20
     79.1811	  422.00	  378.80	-2032.55	  211.17
     79.2146	  380.00	  373.62	-2069.37	  211.14
     79.2480	  360.00	  368.17	-2083.92	  211.12
     79.2814	  391.00	  360.77	-2045.52	  211.09
     79.3148	  337.00	  351.13	-2089.88	  211.07
     79.3483	  376.00	  340.58	-2040.33	  211.04
     79.3817	  308.00	  330.53	-2098.28	  211.01
     79.4151	  322.00	  321.99	-2075.74	  210.99
     79.4485	  318.00	  315.15	-2072.90	  210.96
     79.4819	  299.00	  309.73	-2086.48	  210.93
     79.5154	  300.00	  305.57	-2081.32	  210.91
     79.5488	  304.00	  302.37	-2074.12	  210.88
     79.5822	  313.00	  299.92	-2062.68	  210.86
     79.6156	  299.00	  298.00	-2074.75	  210.83
     79.6491	  292.00	  296.52	-2080.27	  210.80
     79.6825	  298.00	  295.38	-2073.13	  210.78
     79.7159	  274.00	  294.44	-2096.19	  210.75
     79.7493	  304.00	  293.69	-2065.44	  210.72
     79.7827	  284.00	  293.09	-2084.84	  210.69
     79.8162	  281.00	  292.61	-2087.36	  210.67
     79.8496	  304.00	  292.25	-2064.00	  210.64
     79.8830	  298.00	  292.00	-2069.75	  210.61
     79.9164	  306.00	  291.84	-2061.59	  210.59
     79.9499	  290.00	  291.66	-2077.41	  210.56
     79.9833	  317.00	  291.98	-2050.73	  210.53
     17.5327	        	        	        	        	       0	(  1  0  0)	  0  1 :  1
     17.5760	        	        	        	        	       0	(  1  0  0)	  0  2 :  1
     24.1509	        	        	        	        	       0	(  0  1  1)	  0  1 :  1
     24.2109	        	        	        	        	       0	(  0  1  1)	  0  2 :  1
     24.5606	        	        	        	        	       0	(  1  1  0)	  0  1 :  1
     24.6218	        	        	        	        	       0	(  1  1  0)	  0  2 :  1
     28.2835	        	        	        	        	       0	( -1  1  1)	  0  1 :  1
     28.3543	        	        	        	        	       0	( -1  1  1)	  0  2 :  1
     31.5561	        	        	        	        	       0	(  1  1  1)	  0  1 :  1
     31.6355	        	        	        	        	       0	(  1  1  1)	  0  2 :  1
     34.2073	        	        	        	        	       0	(  0  0  2)	  0  1 :  1
     34.2938	        	        	        	        	       0	(  0  0  2)	  0  2 :  1
     34.5399	        	        	        	        	       0	(  0  2  0)	  0  1 :  1
     34.6273	        	        	        	        	       0	(  0  2  0)	  0  2 :  1
     35.3901	        	        	        	        	       0	(  2  0  0)	  0  1 :  1
     35.4798	        	        	        	        	       0	(  2  0  0)	  0  2 :  1
     35.9606	        	        	        	        	       0	( -1  0  2)	  0  1 :  1
     36.0518	        	        	        	        	       0	( -1  0  2)	  0  2 :  1
     38.4563	        	        	        	        	       0	(  0  1  2)	  0  1 :  1
     38.5544	        	        	        	        	       0	(  0  1  2)	  0  2 :  1
     38.6822	        	        	        	        	       0	(  0  2  1)	  0  1 :  1
     38.7809	        	        	        	        	       0	(  0  2  1)	  0  2 :  1
     38.9513	        	        	        	        	       0	(  1  2  0)	  0  1 :  1
     39.0507	        	        	        	        	       0	(  1  2  0)	  0  2 :  1
     39.5287	        	        	        	        	       0	(  2  1  0)	  0  1 :  1
     39.6298	        	        	        	        	       0	(  2  1  0)	  0  2 :  1
     40.0485	        	        	        	        	       0	( -1  1  2)	  0  1 :  1
     40.1509	        	        	        	        	       0	( -1  1  2)	  0  2 :  1
     40.8286	        	        	        	        	       0	( -2  1  1)	  0  1 :  1
     40.9332	        	        	        	        	       0	( -2  1  1)	  0  2 :  1
     41.1926	        	        	        	        	       0	(  1  0  2)	  0  1 :  1
     41.2983	        	        	        	        	       0	(  1  0  2)	  0  2 :  1
     41.5121	        	        	        	        	       0	( -1  2  1)	  0  1 :  1
     41.6187	        	        	        	        	       0	( -1  2  1)	  0  2 :  1
     43.9155	        	        	        	        	       0	(  1  2  1)	  0  1 :  1
     44.0288	        	        	        	        	       0	(  1  2  1)	  0  2 :  1
     44.8792	        	        	        	        	       0	(  1  1  2)	  0  1 :  1
     44.9953	        	        	        	        	       0	(  1  1  2)	  0  2 :  1
     45.5914	        	        	        	        	       0	( -2  0  2)	  0  1 :  1
     45.5916	        	        	        	        	       0	(  2  1  1)	  0  1 :  1
     45.7096	        	        	        	        	       0	( -2  0  2)	  0  2 :  1
     45.7098	        	        	        	        	       0	(  2  1  1)	  0  2 :  1
     49.0137	        	        	        	        	       0	( -2  1  2)	  0  1 :  1
     49.1419	        	        	        	        	       0	( -2  1  2)	  0  2 :  1
     49.3543	        	        	        	        	       0	(  0  2  2)	  0  1 :  1
     49.4835	        	        	        	        	       0	(  0  2  2)	  0  2 :  1
     50.2371	        	        	        	        	       0	(  2  2  0)	  0  1 :  1
     50.3690	        	        	        	        	       0	(  2  2  0)	  0  2 :  1
     50.6682	        	        	        	        	       0	( -1  2  2)	  0  1 :  1
     50.8013	        	        	        	        	       0	( -1  2  2)	  0  2 :  1
     51.3189	        	        	        	        	       0	( -2  2  1)	  0  1 :  1
     51.4541	        	        	        	        	       0	( -2  2  1)	  0  2 :  1
     54.1253	        	        	        	        	       0	(  2  0  2)	  0  1 :  1
     54.1888	        	        	        	        	       0	(  3  0  0)	  0  1 :  1
     54.2690	        	        	        	        	       0	(  2  0  2)	  0  2 :  1
     54.3327	        	        	        	        	       0	(  3  0  0)	  0  2 :  1
     54.7643	        	        	        	        	       0	(  1  2  2)	  0  1 :  1
     54.9100	        	        	        	        	       0	(  1  2  2)	  0  2 :  1
     55.3809	        	        	        	        	       0	(  2  2  1)	  0  1 :  1
     55.4090	        	        	        	        	       0	(  0  1  3)	  0  1 :  1
     55.5286	        	        	        	        	       0	(  2  2  1)	  0  2 :  1
     55.5567	        	        	        	        	       0	(  0  1  3)	  0  2 :  1
     55.6417	        	        	        	        	       0	( -1  1  3)	  0  1 :  1
     55.7902	        	        	        	        	       0	( -1  1  3)	  0  2 :  1
     55.8633	        	        	        	        	       0	(  0  3  1)	  0  1 :  1
     56.0125	        	        	        	        	       0	(  0  3  1)	  0  2 :  1
     56.0667	        	        	        	        	       0	(  1  3  0)	  0  1 :  1
     56.2165	        	        	        	        	       0	(  1  3  0)	  0  2 :  1
     57.1703	        	        	        	        	       0	(  2  1  2)	  0  1 :  1
     57.2315	        	        	        	        	       0	(  3  1  0)	  0  1 :  1
     57.2593	        	        	        	        	       0	( -3  1  1)	  0  1 :  1
     57.3237	        	        	        	        	       0	(  2  1  2)	  0  2 :  1
     57.3851	        	        	        	        	       0	(  3  1  0)	  0  2 :  1
     57.4130	        	        	        	        	       0	( -3  1  1)	  0  2 :  1
     58.0357	        	        	        	        	       0	( -1  3  1)	  0  1 :  1
     58.1918	        	        	        	        	       0	( -1  3  1)	  0  2 :  1
     58.3821	        	        	        	        	       0	( -2  2  2)	  0  1 :  1
     58.5393	        	        	        	        	       0	( -2  2  2)	  0  2 :  1
     59.9361	        	        	        	        	       0	(  1  3  1)	  0  1 :  1
     60.0984	        	        	        	        	       0	(  1  3  1)	  0  2 :  1
     60.1190	        	        	        	        	       0	( -3  0  2)	  0  1 :  1
     60.2818	        	        	        	        	       0	( -3  0  2)	  0  2 :  1
     61.3742	        	        	        	        	       0	(  1  1  3)	  0  1 :  1
     61.5413	        	        	        	        	       0	(  1  1  3)	  0  2 :  1
     62.0279	        	        	        	        	       0	( -2  1  3)	  0  1 :  1
     62.1971	        	        	        	        	       0	( -2  1  3)	  0  2 :  1
     62.8988	        	        	        	        	       0	(  3  1  1)	  0  1 :  1
     62.9775	        	        	        	        	       0	( -3  1  2)	  0  1 :  1
     63.0709	        	        	        	        	       0	(  3  1  1)	  0  2 :  1
     63.1499	        	        	        	        	       0	( -3  1  2)	  0  2 :  1
     64.1431	        	        	        	        	       0	(  0  2  3)	  0  1 :  1
     64.3195	        	        	        	        	       0	(  0  2  3)	  0  2 :  1
     64.3560	        	        	        	        	       0	( -1  2  3)	  0  1 :  1
     64.4032	        	        	        	        	       0	(  0  3  2)	  0  1 :  1
     64.5331	        	        	        	        	       0	( -1  2  3)	  0  2 :  1
     64.5805	        	        	        	        	       0	(  0  3  2)	  0  2 :  1
     65.1480	        	        	        	        	       0	(  2  3  0)	  0  1 :  1
     65.3279	        	        	        	        	       0	(  2  3  0)	  0  2 :  1
     65.5135	        	        	        	        	       0	( -1  3  2)	  0  1 :  1
     65.6946	        	        	        	        	       0	( -1  3  2)	  0  2 :  1
     65.7597	        	        	        	        	       0	(  2  2  2)	  0  1 :  1
     65.8162	        	        	        	        	       0	(  3  2  0)	  0  1 :  1
     65.8418	        	        	        	        	       0	( -3  2  1)	  0  1 :  1
     65.9417	        	        	        	        	       0	(  2  2  2)	  0  2 :  1
     65.9983	        	        	        	        	       0	(  3  2  0)	  0  2 :  1
     66.0240	        	        	        	        	       0	( -3  2  1)	  0  2 :  1
     66.0676	        	        	        	        	       0	( -2  3  1)	  0  1 :  1
     66.2506	        	        	        	        	       0	( -2  3  1)	  0  2 :  1
     69.0443	        	        	        	        	       0	(  1  3  2)	  0  1 :  1
     69.2379	        	        	        	        	       0	(  1  3  2)	  0  2 :  1
     69.5844	        	        	        	        	       0	(  2  3  1)	  0  1 :  1
     69.6638	        	        	        	        	       0	(  1  2  3)	  0  1 :  1
     69.7800	        	        	        	        	       0	(  2  3  1)	  0  2 :  1
     69.8597	        	        	        	        	       0	(  1  2  3)	  0  2 :  1
     70.2761	        	        	        	        	       0	( -2  2  3)	  0  1 :  1
     70.4743	        	        	        	        	       0	( -2  2  3)	  0  2 :  1
     70.8713	        	        	        	        	       0	(  3  0  2)	  0  1 :  1
     71.0716	        	        	        	        	       0	(  3  0  2)	  0  2 :  1
     71.0942	        	        	        	        	       0	(  3  2  1)	  0  1 :  1
     71.1682	        	        	        	        	       0	( -3  2  2)	  0  1 :  1
     71.2667	        	        	        	        	       0	( -1  0  4)	  0  1 :  1
     71.2954	        	        	        	        	       0	(  3  2  1)	  0  2 :  1
     71.3697	        	        	        	        	       0	( -3  2  2)	  0  2 :  1
     71.4685	        	        	        	        	       0	( -1  0  4)	  0  2 :  1
     71.9224	        	        	        	        	       0	(  0  0  4)	  0  1 :  1
     72.1267	        	        	        	        	       0	(  0  0  4)	  0  2 :  1
     72.2427	        	        	        	        	       0	( -2  3  2)	  0  1 :  1
     72.4481	        	        	        	        	       0	( -2  3  2)	  0  2 :  1
     72.6298	        	        	        	        	       0	(  2  1  3)	  0  1 :  1
     72.7092	        	        	        	        	       0	(  0  4  0)	  0  1 :  1
     72.8367	        	        	        	        	       0	(  2  1  3)	  0  2 :  1
     72.9165	        	        	        	        	       0	(  0  4  0)	  0  2 :  1
     73.5099	        	        	        	        	       0	(  3  1  2)	  0  1 :  1
     73.6316	        	        	        	        	       0	( -3  1  3)	  0  1 :  1
     73.7202	        	        	        	        	       0	(  3  1  2)	  0  2 :  1
     73.8424	        	        	        	        	       0	( -3  1  3)	  0  2 :  1
     73.8996	        	        	        	        	       0	( -1  1  4)	  0  1 :  1
     74.1114	        	        	        	        	       0	( -1  1  4)	  0  2 :  1
     74.5460	        	        	        	        	       0	(  0  1  4)	  0  1 :  1
     74.7353	        	        	        	        	       0	(  4  0  0)	  0  1 :  1
     74.7603	        	        	        	        	       0	(  0  1  4)	  0  2 :  1
     74.9503	        	        	        	        	       0	(  4  0  0)	  0  2 :  1
     75.2739	        	        	        	        	       0	(  0  4  1)	  0  1 :  1
     75.4479	        	        	        	        	       0	(  1  4  0)	  0  1 :  1
     75.4910	        	        	        	        	       0	(  0  4  1)	  0  2 :  1
     75.6657	        	        	        	        	       0	(  1  4  0)	  0  2 :  1
     76.1076	        	        	        	        	       0	( -2  0  4)	  0  1 :  1
     76.3280	        	        	        	        	       0	( -2  0  4)	  0  2 :  1
     76.5122	        	        	        	        	       0	( -4  1  1)	  0  1 :  1
     76.7342	        	        	        	        	       0	( -4  1  1)	  0  2 :  1
     77.1473	        	        	        	        	       0	( -1  4  1)	  0  1 :  1
     77.3237	        	        	        	        	       0	(  4  1  0)	  0  1 :  1
     77.3719	        	        	        	        	       0	( -1  4  1)	  0  2 :  1
     77.4727	        	        	        	        	       0	(  0  3  3)	  0  1 :  1
     77.5490	        	        	        	        	       0	(  4  1  0)	  0  2 :  1
     77.6691	        	        	        	        	       0	( -1  3  3)	  0  1 :  1
     77.6986	        	        	        	        	       0	(  0  3  3)	  0  2 :  1
     77.8958	        	        	        	        	       0	( -1  3  3)	  0  2 :  1
     78.0225	        	        	        	        	       0	(  1  0  4)	  0  1 :  1
     78.1802	        	        	        	        	       0	( -4  0  2)	  0  1 :  1
     78.2506	        	        	        	        	       0	(  1  0  4)	  0  2 :  1
     78.4090	        	        	        	        	       0	( -4  0  2)	  0  2 :  1
     78.6814	        	        	        	        	       0	( -2  1  4)	  0  1 :  1
     78.8114	        	        	        	        	       0	(  1  4  1)	  0  1 :  1
     78.9122	        	        	        	        	       0	( -2  1  4)	  0  2 :  1
     78.9682	        	        	        	        	       0	(  2  3  2)	  0  1 :  1
     79.0206	        	        	        	        	       0	(  3  3  0)	  0  1 :  1
     79.0443	        	        	        	        	       0	( -3  3  1)	  0  1 :  1
     79.0428	        	        	        	        	       0	(  1  4  1)	  0  2 :  1
     79.2002	        	        	        	        	       0	(  2  3  2)	  0  2 :  1
     79.2528	        	        	        	        	       0	(  3  3  0)	  0  2 :  1
     79.2767	        	        	        	        	       0	( -3  3  1)	  0  2 :  1
     80.3844	        	        	        	        	       0	(  2  2  3)	  0  1 :  1
     80.5785	        	        	        	        	       0	(  1  1  4)	  0  1 :  1
     80.6223	        	        	        	        	       0	(  2  2  3)	  0  2 :  1
     80.7349	        	        	        	        	       0	( -4  1  2)	  0  1 :  1
     80.8173	        	        	        	        	       0	(  1  1  4)	  0  2 :  1
     80.9743	        	        	        	        	       0	( -4  1  2)	  0  2 :  1
     81.2371	        	        	        	        	       0	(  3  2  2)	  0  1 :  1
     81.3552	        	        	        	        	       0	( -3  2  3)	  0  1 :  1
     81.4787	        	        	        	        	       0	(  3  2  2)	  0  2 :  1
     81.5973	        	        	        	        	       0	( -3  2  3)	  0  2 :  1
     81.6153	        	        	        	        	       0	( -1  2  4)	  0  1 :  1
     81.8585	        	        	        	        	       0	( -1  2  4)	  0  2 :  1
     82.2435	        	        	        	        	       0	(  0  2  4)	  0  1 :  1
     82.4894	        	        	        	        	       0	(  0  2  4)	  0  2 :  1
     82.6260	        	        	        	        	       0	(  1  3  3)	  0  1 :  1
     82.8103	        	        	        	        	       0	(  0  4  2)	  0  1 :  1
     82.8736	        	        	        	        	       0	(  1  3  3)	  0  2 :  1
     83.0587	        	        	        	        	       0	(  0  4  2)	  0  2 :  1
     83.1297	        	        	        	        	       0	(  4  1  1)	  0  1 :  1
     83.2055	        	        	        	        	       0	( -2  3  3)	  0  1 :  1
     83.3795	        	        	        	        	       0	(  4  1  1)	  0  2 :  1
     83.4556	        	        	        	        	       0	( -2  3  3)	  0  2 :  1
     83.4885	        	        	        	        	       0	(  2  4  0)	  0  1 :  1
     83.7399	        	        	        	        	       0	(  2  4  0)	  0  2 :  1
     83.8225	        	        	        	        	       0	( -1  4  2)	  0  1 :  1
     83.9820	        	        	        	        	       0	(  3  3  1)	  0  1 :  1
     84.0524	        	        	        	        	       0	( -3  3  2)	  0  1 :  1
     84.0754	        	        	        	        	       0	( -1  4  2)	  0  2 :  1
     84.1603	        	        	        	        	       0	( -4  2  1)	  0  1 :  1
     84.2356	        	        	        	        	       0	(  3  3  1)	  0  2 :  1
     84.3063	        	        	        	        	       0	( -3  3  2)	  0  2 :  1
     84.3303	        	        	        	        	       0	( -2  4  1)	  0  1 :  1
     84.4146	        	        	        	        	       0	( -4  2  1)	  0  2 :  1
     84.5854	        	        	        	        	       0	( -2  4  1)	  0  2 :  1
     84.9541	        	        	        	        	       0	(  4  2  0)	  0  1 :  1
     85.2120	        	        	        	        	       0	(  4  2  0)	  0  2 :  1
     86.1495	        	        	        	        	       0	( -3  0  4)	  0  1 :  1
     86.2857	        	        	        	        	       0	( -2  2  4)	  0  1 :  1
     86.4129	        	        	        	        	       0	( -3  0  4)	  0  2 :  1
     86.5498	        	        	        	        	       0	( -2  2  4)	  0  2 :  1
     87.0876	        	        	        	        	       0	(  1  4  2)	  0  1 :  1
     87.3554	        	        	        	        	       0	(  1  4  2)	  0  2 :  1
     87.5931	        	        	        	        	       0	(  2  4  1)	  0  1 :  1
     87.8633	        	        	        	        	       0	(  2  4  1)	  0  2 :  1
     88.1537	        	        	        	        	       0	(  1  2  4)	  0  1 :  1
     88.3080	        	        	        	        	       0	( -4  2  2)	  0  1 :  1
     88.4265	        	        	        	        	       0	(  1  2  4)	  0  2 :  1
     88.4997	        	        	        	        	       0	(  3  1  3)	  0  1 :  1
     88.5815	        	        	        	        	       0	( -4  2  2)	  0  2 :  1
     88.6631	        	        	        	        	       0	( -3  1  4)	  0  1 :  1
     88.7742	        	        	        	        	       0	(  3  1  3)	  0  2 :  1
     88.9384	        	        	        	        	       0	( -3  1  4)	  0  2 :  1
     89.2618	        	        	        	        	       0	(  2  0  4)	  0  1 :  1
     89.5399	        	        	        	        	       0	(  2  0  4)	  0  2 :  1
     89.8415	        	        	        	        	       0	( -4  1  3)	  0  1 :  1
     90.1044	        	        	        	        	       0	( -2  4  2)	  0  1 :  1
     90.1225	        	        	        	        	       0	( -4  1  3)	  0  2 :  1
     90.3867	        	        	        	        	       0	( -2  4  2)	  0  2 :  1
     90.6788	        	        	        	        	       0	(  4  2  1)	  0  1 :  1
     90.9639	        	        	        	        	       0	(  4  2  1)	  0  2 :  1
     91.2817	        	        	        	        	       0	(  4  0  2)	  0  1 :  1
     91.5698	        	        	        	        	       0	(  4  0  2)	  0  2 :  1
     91.7727	        	        	        	        	       0	(  2  1  4)	  0  1 :  1
     92.0634	        	        	        	        	       0	(  2  1  4)	  0  2 :  1
     92.9852	        	        	        	        	       0	(  2  3  3)	  0  1 :  1
     93.2821	        	        	        	        	       0	(  2  3  3)	  0  2 :  1
     93.7949	        	        	        	        	       0	(  4  1  2)	  0  1 :  1
     93.8282	        	        	        	        	       0	(  3  3  2)	  0  1 :  1
     93.9451	        	        	        	        	       0	( -3  3  3)	  0  1 :  1
     94.0960	        	        	        	        	       0	(  4  1  2)	  0  2 :  1
     94.1295	        	        	        	        	       0	(  3  3  2)	  0  2 :  1
     94.2029	        	        	        	        	       0	( -1  3  4)	  0  1 :  1
     94.2470	        	        	        	        	       0	( -3  3  3)	  0  2 :  1
     94.5062	        	        	        	        	       0	( -1  3  4)	  0  2 :  1
     94.8266	        	        	        	        	       0	(  0  3  4)	  0  1 :  1
     95.1332	        	        	        	        	       0	(  0  3  4)	  0  2 :  1
     95.1556	        	        	        	        	       0	(  0  4  3)	  0  1 :  1
     95.3480	        	        	        	        	       0	( -1  4  3)	  0  1 :  1
     95.4640	        	        	        	        	       0	(  0  4  3)	  0  2 :  1
     95.4830	        	        	        	        	       0	( -1  1  5)	  0  1 :  1
