 Cr2O3   Chi2:  2.2921  CELL:    4.95852   4.95852  13.59593   90.0000   90.0000  120.0000   SPGR: R -3 c                 TEMP:      0.00
  1   2394     1.54060     1.54439     0.00000    -0.07410     0.00000    0
    88     0     1
       0.00000      20.00000
 2Theta	Yobs	Ycal	Yobs-Ycal	Backg	Posr	(hkl)	K
     20.0167	  42.000	  33.003	-236.753	  31.456
     20.0501	  42.000	  32.976	-236.726	  31.428
     20.0836	  31.000	  32.948	-247.698	  31.401
     20.1170	  33.000	  32.921	-245.671	  31.374
     20.1504	  39.000	  32.893	-239.643	  31.346
     20.1838	  33.000	  32.866	-245.616	  31.319
     20.2172	  42.000	  32.838	-236.588	  31.291
     20.2507	  36.000	  32.811	-242.561	  31.264
     20.2841	  45.000	  32.784	-233.534	  31.236
     20.3175	  27.000	  32.756	-251.506	  31.209
     20.3509	  35.000	  32.729	-243.479	  31.182
     20.3844	  25.000	  32.701	-253.451	  31.154
     20.4178	  36.000	  32.674	-242.424	  31.127
     20.4512	  28.000	  32.647	-250.397	  31.100
     20.4846	  35.000	  32.619	-243.369	  31.072
     20.5181	  40.000	  32.592	-238.342	  31.045
     20.5515	  37.000	  32.565	-241.315	  31.018
     20.5849	  40.000	  32.538	-238.288	  30.991
     20.6183	  35.000	  32.510	-243.260	  30.963
     20.6517	  39.000	  32.483	-239.233	  30.936
     20.6852	  35.000	  32.456	-243.206	  30.909
     20.7186	  29.000	  32.429	-249.179	  30.882
     20.7520	  43.000	  32.402	-235.152	  30.854
     20.7854	  31.000	  32.374	-247.124	  30.827
     20.8189	  39.000	  32.347	-239.097	  30.800
     20.8523	  39.000	  32.320	-239.070	  30.773
     20.8857	  34.000	  32.293	-244.043	  30.746
     20.9191	  28.000	  32.266	-250.016	  30.719
     20.9525	  27.000	  32.239	-250.989	  30.692
     20.9860	  42.000	  32.212	-235.962	  30.664
     21.0194	  29.000	  32.184	-248.934	  30.637
     21.0528	  28.000	  32.157	-249.907	  30.610
     21.0862	  31.000	  32.130	-246.880	  30.583
     21.1197	  28.000	  32.103	-249.853	  30.556
     21.1531	  42.000	  32.076	-235.826	  30.529
     21.1865	  46.000	  32.049	-231.799	  30.502
     21.2199	  38.000	  32.022	-239.772	  30.475
     21.2533	  32.000	  31.995	-245.745	  30.448
     21.2868	  26.000	  32.109	-251.859	  30.421
     21.3202	  26.000	  32.085	-251.835	  30.394
     21.3536	  31.000	  32.131	-246.881	  30.367
     21.3870	  31.000	  32.109	-246.859	  30.340
     21.4205	  34.000	  32.087	-243.837	  30.313
     21.4539	  37.000	  32.065	-240.815	  30.287
     21.4873	  38.000	  32.044	-239.794	  30.260
     21.5207	  38.000	  32.022	-239.772	  30.233
     21.5541	  25.000	  32.001	-252.751	  30.206
     21.5876	  40.000	  31.980	-237.730	  30.179
     21.6210	  32.000	  31.959	-245.709	  30.152
     21.6544	  31.000	  31.939	-246.689	  30.125
     21.6878	  34.000	  31.918	-243.668	  30.099
     21.7213	  43.000	  31.898	-234.648	  30.072
     21.7547	  39.000	  31.879	-238.629	  30.045
     21.7881	  25.000	  31.859	-252.609	  30.018
     21.8215	  34.000	  31.840	-243.590	  29.992
     21.8550	  34.000	  31.821	-243.571	  29.965
     21.8884	  26.000	  31.802	-251.552	  29.938
     21.9218	  37.000	  31.784	-240.534	  29.911
     21.9552	  31.000	  31.766	-246.516	  29.885
     21.9886	  38.000	  31.749	-239.499	  29.858
     22.0221	  39.000	  31.731	-238.481	  29.831
     22.0555	  36.000	  31.715	-241.465	  29.805
     22.0889	  42.000	  31.698	-235.448	  29.778
     22.1223	  37.000	  31.683	-240.433	  29.751
     22.1558	  37.000	  31.667	-240.417	  29.725
     22.1892	  37.000	  31.653	-240.403	  29.698
     22.2226	  28.000	  31.638	-249.388	  29.672
     22.2560	  28.000	  31.625	-249.375	  29.645
     22.2894	  33.000	  31.612	-244.362	  29.619
     22.3229	  25.000	  31.599	-252.349	  29.592
     22.3563	  25.000	  31.587	-252.337	  29.566
     22.3897	  31.000	  31.576	-246.326	  29.539
     22.4231	  31.000	  31.566	-246.316	  29.513
     22.4566	  34.000	  31.557	-243.307	  29.486
     22.4900	  39.000	  31.548	-238.298	  29.460
     22.5234	  32.000	  31.541	-245.291	  29.433
     22.5568	  31.000	  31.535	-246.285	  29.407
     22.5902	  39.000	  31.529	-238.279	  29.380
     22.6237	  36.000	  31.525	-241.275	  29.354
     22.6571	  45.000	  31.522	-232.272	  29.328
     22.6905	  33.000	  31.521	-244.271	  29.301
     22.7239	  35.000	  31.520	-242.270	  29.275
     22.7574	  36.000	  31.522	-241.272	  29.248
     22.7908	  31.000	  31.525	-246.275	  29.222
     22.8242	  35.000	  31.530	-242.280	  29.196
     22.8576	  45.000	  31.537	-232.287	  29.169
     22.8911	  32.000	  31.547	-245.297	  29.143
     22.9245	  22.000	  31.558	-255.308	  29.117
     22.9579	  31.000	  31.573	-246.323	  29.091
     22.9913	  45.000	  31.590	-232.340	  29.064
     23.0247	  21.000	  31.610	-256.360	  29.038
     23.0582	  29.000	  31.633	-248.383	  29.012
     23.0916	  32.000	  31.661	-245.411	  28.986
     23.1250	  34.000	  31.692	-243.442	  28.960
     23.1584	  45.000	  31.728	-232.478	  28.933
     23.1919	  45.000	  31.769	-232.519	  28.907
     23.2253	  49.000	  31.816	-228.566	  28.881
     23.2587	  54.000	  31.869	-223.619	  28.855
     23.2921	  40.000	  31.928	-237.678	  28.829
     23.3255	  66.000	  31.996	-211.746	  28.803
     23.3590	  57.000	  32.072	-220.822	  28.777
     23.3924	  88.000	  32.158	-189.908	  28.750
     23.4258	  60.000	  32.255	-218.005	  28.724
     23.4592	  52.000	  32.365	-226.115	  28.698
     23.4927	  50.000	  32.490	-228.240	  28.672
     23.5261	  52.000	  32.631	-226.381	  28.646
     23.5595	  32.000	  32.791	-246.541	  28.620
     23.5929	  38.000	  32.973	-240.723	  28.594
     23.6263	  42.000	  33.181	-236.931	  28.568
     23.6598	  34.000	  33.420	-245.170	  28.542
     23.6932	  37.000	  33.694	-242.444	  28.516
     23.7266	  23.000	  34.010	-256.760	  28.490
     23.7600	  34.000	  34.377	-246.127	  28.464
     23.7935	  37.000	  34.805	-243.555	  28.439
     23.8269	  35.000	  35.308	-246.058	  28.413
     23.8603	  43.000	  35.902	-238.652	  28.387
     23.8937	  35.000	  36.610	-247.360	  28.361
     23.9271	  37.000	  37.463	-246.213	  28.335
     23.9606	  32.000	  38.498	-252.248	  28.309
     23.9940	  45.000	  39.772	-240.522	  28.283
     24.0274	  44.000	  41.361	-243.111	  28.258
     24.0608	  44.000	  43.373	-245.123	  28.232
     24.0943	  45.000	  45.969	-246.719	  28.206
     24.1277	  70.000	  49.395	-225.145	  28.180
     24.1611	  80.000	  54.049	-219.799	  28.154
     24.1945	  60.000	  60.700	-246.450	  28.129
     24.2280	  88.000	  71.274	-229.024	  28.103
     24.2614	  86.000	  91.203	-250.953	  28.077
     24.2948	 153.000	 133.669	-226.419	  28.052
     24.3282	 205.000	 221.092	-261.842	  28.026
     24.3616	 415.000	 372.827	-203.577	  28.000
     24.3951	 585.000	 571.945	-232.695	  27.975
     24.4285	 764.000	 718.762	-200.512	  27.949
     24.4619	 736.000	 708.262	-218.012	  27.923
     24.4953	 604.000	 577.306	-219.056	  27.898
     24.5288	 352.000	 396.128	-289.878	  27.872
     24.5622	 209.000	 243.468	-280.218	  27.846
     24.5956	 140.000	 148.345	-254.095	  27.821
     24.6290	  87.000	  98.609	-257.359	  27.795
     24.6624	  77.000	  74.480	-243.230	  27.770
     24.6959	  87.000	  62.081	-220.831	  27.744
     24.7293	  59.000	  54.677	-241.427	  27.719
     24.7627	  59.000	  49.641	-236.391	  27.693
     24.7961	  45.000	  45.969	-246.719	  27.668
     24.8296	  49.000	  43.191	-239.941	  27.642
     24.8630	  53.000	  41.036	-233.786	  27.617
     24.8964	  45.000	  39.330	-240.080	  27.591
     24.9298	  47.000	  37.956	-236.706	  27.566
     24.9632	  38.000	  36.832	-244.582	  27.541
     24.9967	  44.000	  35.901	-237.651	  27.515
     25.0301	  31.000	  35.119	-249.869	  27.490
     25.0635	  48.000	  34.456	-232.206	  27.464
     25.0969	  34.000	  33.887	-245.637	  27.439
     25.1304	  26.000	  33.397	-253.147	  27.414
     25.1638	  33.000	  32.969	-245.719	  27.388
     25.1972	  25.000	  32.593	-253.343	  27.363
     25.2306	  25.000	  32.262	-253.012	  27.338
     25.2640	  25.000	  31.967	-252.717	  27.312
     25.2975	  35.000	  31.703	-242.453	  27.287
     25.3309	  27.000	  31.465	-250.215	  27.262
     25.3643	  38.000	  31.250	-239.000	  27.237
     25.3977	  19.000	  31.055	-257.805	  27.211
     25.4312	  26.000	  30.877	-250.627	  27.186
     25.4646	  33.000	  30.713	-243.463	  27.161
     25.4980	  37.000	  30.563	-239.313	  27.136
     25.5314	  40.000	  30.424	-236.174	  27.111
     25.5649	  38.000	  30.295	-238.045	  27.085
     25.5983	  36.000	  30.174	-239.924	  27.060
     25.6317	  32.000	  30.062	-243.812	  27.035
     25.6651	  23.000	  29.957	-252.707	  27.010
     25.6985	  34.000	  29.858	-241.608	  26.985
     25.7320	  23.000	  29.765	-252.515	  26.960
     25.7654	  40.000	  29.677	-235.427	  26.935
     25.7988	  27.000	  29.594	-248.344	  26.910
     25.8322	  28.000	  29.515	-247.265	  26.885
     25.8657	  28.000	  29.439	-247.189	  26.860
     25.8991	  23.000	  29.367	-252.117	  26.835
     25.9325	  19.000	  29.298	-256.048	  26.809
     25.9659	  29.000	  29.232	-245.982	  26.784
     25.9993	  15.000	  29.169	-259.919	  26.760
     26.0328	  29.000	  29.108	-245.858	  26.735
     26.0662	  40.000	  29.049	-234.799	  26.710
     26.0996	  34.000	  28.993	-240.743	  26.685
     26.1330	  19.000	  28.938	-255.688	  26.660
     26.1665	  26.000	  28.885	-248.635	  26.635
     26.1999	  31.000	  28.833	-243.583	  26.610
     26.2333	  31.000	  28.784	-243.534	  26.585
     26.2667	  23.000	  28.735	-251.485	  26.560
     26.3001	  31.000	  28.688	-243.438	  26.535
     26.3336	  31.000	  28.642	-243.392	  26.510
     26.3670	  27.000	  28.597	-247.347	  26.486
     26.4004	  23.000	  28.553	-251.303	  26.461
     26.4338	  33.000	  28.510	-241.260	  26.436
     26.4673	  21.000	  28.468	-253.218	  26.411
     26.5007	  32.000	  28.426	-242.176	  26.386
     26.5341	  26.000	  28.386	-248.136	  26.362
     26.5675	  29.000	  28.346	-245.096	  26.337
     26.6010	  27.000	  28.307	-247.057	  26.312
     26.6344	  28.000	  28.269	-246.019	  26.288
     26.6678	  33.000	  28.231	-240.981	  26.263
     26.7012	  32.000	  28.194	-241.944	  26.238
     26.7346	  23.000	  28.158	-250.908	  26.213
     26.7681	  35.000	  28.122	-238.872	  26.189
     26.8015	  17.000	  28.086	-256.836	  26.164
     26.8349	   9.000	  28.051	-264.801	  26.140
     26.8683	  27.000	  28.017	-246.767	  26.115
     26.9018	  25.000	  27.982	-248.732	  26.090
     26.9352	  34.000	  27.949	-239.699	  26.066
     26.9686	  27.000	  27.915	-246.665	  26.041
     27.0020	  17.000	  27.882	-256.632	  26.017
     27.0354	  34.000	  27.849	-239.599	  25.992
     27.0689	  23.000	  27.817	-250.567	  25.968
     27.1023	  15.000	  27.785	-258.535	  25.943
     27.1357	  27.000	  27.753	-246.503	  25.919
     27.1691	  21.000	  27.722	-252.472	  25.894
     27.2026	  38.000	  27.690	-235.440	  25.870
     27.2360	  23.000	  27.659	-250.409	  25.845
     27.2694	  19.000	  27.629	-254.379	  25.821
     27.3028	  29.000	  27.598	-244.348	  25.796
     27.3362	  26.000	  27.568	-247.318	  25.772
     27.3697	  28.000	  27.538	-245.288	  25.747
     27.4031	  23.000	  27.508	-250.258	  25.723
     27.4365	  22.000	  27.478	-251.228	  25.699
     27.4699	  18.000	  27.449	-255.199	  25.674
     27.5034	  32.000	  27.420	-241.170	  25.650
     27.5368	  27.000	  27.390	-246.140	  25.626
     27.5702	  28.000	  27.361	-245.111	  25.601
     27.6036	  28.000	  27.333	-245.083	  25.577
     27.6371	  21.000	  27.304	-252.054	  25.553
     27.6705	  22.000	  27.276	-251.026	  25.528
     27.7039	  18.000	  27.247	-254.997	  25.504
     27.7373	  35.000	  27.027	-237.777	  25.480
     27.7707	  23.000	  27.003	-249.753	  25.456
     27.8042	  31.000	  26.979	-241.729	  25.431
     27.8376	  36.000	  26.954	-236.704	  25.407
     27.8710	  24.000	  26.930	-248.680	  25.383
     27.9044	  36.000	  26.906	-236.656	  25.359
     27.9379	  27.000	  26.882	-245.632	  25.335
     27.9713	  32.000	  26.858	-240.608	  25.311
     28.0047	  32.000	  26.834	-240.583	  25.286
     28.0381	  26.000	  26.809	-246.559	  25.262
     28.0715	  33.000	  26.785	-239.535	  25.238
     28.1050	  27.000	  26.761	-245.511	  25.214
     28.1384	  39.000	  26.737	-233.487	  25.190
     28.1718	  26.000	  26.713	-246.463	  25.166
     28.2052	  26.000	  26.689	-246.439	  25.142
     28.2387	  24.000	  26.665	-248.415	  25.118
     28.2721	  29.000	  26.641	-243.391	  25.094
     28.3055	  27.000	  26.617	-245.367	  25.070
     28.3389	  34.000	  26.593	-238.343	  25.046
     28.3723	  26.000	  26.569	-246.319	  25.022
     28.4058	  26.000	  26.545	-246.295	  24.998
     28.4392	  26.000	  26.521	-246.271	  24.974
     28.4726	  28.000	  26.497	-244.247	  24.950
     28.5060	  37.000	  26.473	-235.223	  24.926
     28.5395	  23.000	  26.449	-249.199	  24.902
     28.5729	  17.000	  26.425	-255.175	  24.878
     28.6063	  25.000	  26.401	-247.151	  24.854
     28.6397	  28.000	  26.378	-244.128	  24.830
     28.6731	  38.000	  26.354	-234.104	  24.807
     28.7066	  26.000	  26.330	-246.080	  24.783
     28.7400	  25.000	  26.306	-247.056	  24.759
     28.7734	  25.000	  26.282	-247.032	  24.735
     28.8068	  26.000	  26.258	-246.008	  24.711
     28.8403	  34.000	  26.235	-237.985	  24.688
     28.8737	  35.000	  26.211	-236.961	  24.664
     28.9071	  32.000	  26.187	-239.937	  24.640
     28.9405	  32.000	  26.163	-239.913	  24.616
     28.9740	  24.000	  26.140	-247.890	  24.593
     29.0074	  38.000	  26.116	-233.866	  24.569
     29.0408	  27.000	  26.092	-244.842	  24.545
     29.0742	  33.000	  26.069	-238.819	  24.521
     29.1076	  27.000	  26.045	-244.795	  24.498
     29.1411	  29.000	  26.021	-242.771	  24.474
     29.1745	  35.000	  25.998	-236.748	  24.451
     29.2079	  32.000	  25.974	-239.724	  24.427
     29.2413	  34.000	  25.950	-237.700	  24.403
     29.2748	  33.000	  25.927	-238.677	  24.380
     29.3082	  42.000	  25.903	-229.653	  24.356
     29.3416	  33.000	  25.880	-238.630	  24.333
     29.3750	  34.000	  25.856	-237.606	  24.309
     29.4084	  39.000	  25.833	-232.583	  24.285
     29.4419	  32.000	  25.809	-239.559	  24.262
     29.4753	  36.000	  25.785	-235.535	  24.238
     29.5087	  39.000	  25.762	-232.512	  24.215
     29.5421	  22.000	  25.738	-249.488	  24.191
     29.5756	  35.000	  25.715	-236.465	  24.168
     29.6090	  39.000	  25.692	-232.442	  24.144
     29.6424	  35.000	  25.668	-236.418	  24.121
     29.6758	  34.000	  25.645	-237.395	  24.098
     29.7092	  33.000	  25.621	-238.371	  24.074
     29.7427	  47.000	  25.598	-224.348	  24.051
     29.7761	  39.000	  25.574	-232.324	  24.027
     29.8095	  45.000	  25.551	-226.301	  24.004
     29.8429	  45.000	  25.528	-226.278	  23.981
     29.8764	  36.000	  25.504	-235.254	  23.957
     29.9098	  43.000	  25.481	-228.231	  23.934
     29.9432	  22.000	  25.458	-249.208	  23.911
     29.9766	  49.000	  25.434	-222.184	  23.887
     30.0101	  54.000	  25.411	-217.161	  23.864
     30.0435	  36.000	  25.388	-235.138	  23.841
     30.0769	  54.000	  25.365	-217.115	  23.817
     30.1103	  44.000	  25.341	-227.091	  23.794
     30.1437	  62.000	  25.318	-209.068	  23.771
     30.1772	  54.000	  25.295	-217.045	  23.748
     30.2106	  63.000	  25.272	-208.022	  23.725
     30.2440	  62.000	  25.249	-208.999	  23.701
     30.2774	  49.000	  25.225	-221.975	  23.678
     30.3109	  60.000	  25.202	-210.952	  23.655
     30.3443	  55.000	  25.425	-216.175	  23.632
     30.3777	  50.000	  25.407	-221.157	  23.609
     30.4111	  58.000	  25.390	-213.140	  23.586
     30.4445	  48.000	  25.496	-223.246	  23.563
     30.4780	  48.000	  25.481	-223.231	  23.539
     30.5114	  36.000	  25.467	-235.217	  23.516
     30.5448	  50.000	  25.453	-221.203	  23.493
     30.5782	  50.000	  25.439	-221.189	  23.470
     30.6117	  49.000	  25.426	-222.176	  23.447
     30.6451	  55.000	  25.413	-216.163	  23.424
     30.6785	  50.000	  25.400	-221.150	  23.401
     30.7119	  48.000	  25.388	-223.138	  23.378
     30.7453	  38.000	  25.376	-233.126	  23.355
     30.7788	  39.000	  25.364	-232.114	  23.332
     30.8122	  34.000	  25.353	-237.103	  23.309
     30.8456	  42.000	  25.342	-229.092	  23.286
     30.8790	  50.000	  25.332	-221.082	  23.263
     30.9125	  36.000	  25.323	-235.073	  23.241
     30.9459	  34.000	  25.314	-237.064	  23.218
     30.9793	  42.000	  25.305	-229.055	  23.195
     31.0127	  26.000	  25.297	-245.047	  23.172
     31.0462	  29.000	  25.290	-242.040	  23.149
     31.0796	  43.000	  25.283	-228.033	  23.126
     31.1130	  31.000	  25.277	-240.027	  23.103
     31.1464	  32.000	  25.272	-239.022	  23.081
     31.1798	  26.000	  25.267	-245.017	  23.058
     31.2133	  35.000	  25.263	-236.013	  23.035
     31.2467	  36.000	  25.260	-235.010	  23.012
     31.2801	  25.000	  25.258	-246.008	  22.989
     31.3135	  25.000	  25.257	-246.007	  22.967
     31.3470	  33.000	  25.257	-238.007	  22.944
     31.3804	  29.000	  25.258	-242.008	  22.921
     31.4138	  37.000	  25.260	-234.010	  22.899
     31.4472	  34.000	  25.264	-237.014	  22.876
     31.4806	  33.000	  25.268	-238.018	  22.853
     31.5141	  34.000	  25.274	-237.024	  22.831
     31.5475	  39.000	  25.281	-232.031	  22.808
     31.5809	  32.000	  25.290	-239.040	  22.785
     31.6143	  34.000	  25.301	-237.051	  22.763
     31.6478	  34.000	  25.313	-237.063	  22.740
     31.6812	  37.000	  25.328	-234.078	  22.717
     31.7146	  36.000	  25.344	-235.094	  22.695
     31.7480	  33.000	  25.363	-238.113	  22.672
     31.7814	  38.000	  25.383	-233.133	  22.650
     31.8149	  34.000	  25.407	-237.157	  22.627
     31.8483	  28.000	  25.433	-243.183	  22.605
     31.8817	  28.000	  25.462	-243.212	  22.582
     31.9151	  39.000	  25.494	-232.244	  22.560
     31.9486	  40.000	  25.530	-231.280	  22.537
     31.9820	  39.000	  25.570	-232.320	  22.515
     32.0154	  54.000	  25.613	-217.363	  22.492
     32.0488	  66.000	  25.661	-205.411	  22.470
     32.0822	  74.000	  25.714	-197.464	  22.448
     32.1157	  65.000	  25.772	-206.522	  22.425
     32.1491	  67.000	  25.836	-204.586	  22.403
     32.1825	  42.000	  25.907	-229.657	  22.380
     32.2159	  39.000	  25.984	-232.734	  22.358
     32.2494	  31.000	  26.069	-240.819	  22.336
     32.2828	  50.000	  26.163	-221.913	  22.313
     32.3162	  38.000	  26.266	-234.016	  22.291
     32.3496	  43.000	  26.380	-229.130	  22.269
     32.3830	  34.000	  26.505	-238.255	  22.246
     32.4165	  31.000	  26.644	-241.394	  22.224
     32.4499	  40.000	  26.798	-232.548	  22.202
     32.4833	  31.000	  26.968	-241.718	  22.180
     32.5167	  38.000	  27.157	-234.907	  22.157
     32.5502	  32.000	  27.367	-241.117	  22.135
     32.5836	  46.000	  27.602	-227.352	  22.113
     32.6170	  40.000	  27.864	-233.614	  22.091
     32.6504	  35.000	  28.158	-238.908	  22.069
     32.6839	  33.000	  28.490	-241.240	  22.047
     32.7173	  39.000	  28.864	-235.614	  22.024
     32.7507	  46.000	  29.288	-229.038	  22.002
     32.7841	  35.000	  29.771	-240.521	  21.980
     32.8175	  43.000	  30.324	-233.074	  21.958
     32.8510	  26.000	  30.960	-250.710	  21.936
     32.8844	  42.000	  31.695	-235.445	  21.914
     32.9178	  40.000	  32.552	-238.302	  21.892
     32.9512	  36.000	  33.794	-243.544	  21.870
     32.9847	  25.000	  34.988	-255.738	  21.848
     33.0181	  38.000	  36.411	-244.161	  21.826
     33.0515	  32.000	  38.244	-251.994	  21.804
     33.0849	  42.000	  40.336	-244.086	  21.782
     33.1183	  64.000	  42.919	-224.669	  21.760
     33.1518	  52.000	  46.157	-239.907	  21.738
     33.1852	  50.000	  50.286	-246.036	  21.716
     33.2186	  78.000	  55.665	-223.415	  21.694
     33.2520	  74.000	  62.882	-234.632	  21.672
     33.2855	 104.000	  73.060	-214.810	  21.650
     33.3189	  93.000	  88.844	-241.594	  21.628
     33.3523	 139.000	 116.755	-223.505	  21.606
     33.3857	 173.000	 170.646	-243.396	  21.584
     33.4192	 230.000	 272.163	-287.913	  21.563
     33.4526	 417.000	 440.410	-269.160	  21.541
     33.4860	 723.000	 666.140	-188.890	  21.519
     33.5194	 975.000	 865.627	-136.377	  21.497
     33.5528	 983.000	 909.801	-172.551	  21.475
     33.5863	 841.000	 822.065	-226.815	  21.453
     33.6197	 718.000	 674.102	-201.852	  21.432
     33.6531	 487.000	 486.703	-245.453	  21.410
     33.6865	 321.000	 318.987	-243.737	  21.388
     33.7200	 198.000	 203.740	-251.490	  21.366
     33.7534	 136.000	 135.534	-245.284	  21.345
     33.7868	 124.000	  98.322	-220.072	  21.323
     33.8202	  84.000	  77.940	-239.690	  21.301
     33.8536	  69.000	  65.735	-242.485	  21.280
     33.8871	  76.000	  57.549	-227.299	  21.258
     33.9205	  46.000	  51.610	-251.360	  21.236
     33.9539	  44.000	  47.109	-248.859	  21.215
     33.9873	  55.000	  43.609	-234.359	  21.193
     34.0208	  50.000	  40.832	-236.582	  21.172
     34.0542	  47.000	  38.595	-237.345	  21.150
     34.0876	  31.000	  36.765	-251.515	  21.128
     34.1210	  39.000	  35.252	-242.002	  21.107
     34.1544	  45.000	  33.987	-234.737	  21.085
     34.1879	  44.000	  32.919	-234.669	  21.064
     34.2213	  38.000	  32.011	-239.761	  21.042
     34.2547	  35.000	  31.233	-241.983	  21.021
     34.2881	  28.000	  30.562	-248.312	  20.999
     34.3216	  48.000	  29.981	-227.731	  20.978
     34.3550	  35.000	  29.475	-240.225	  20.956
     34.3884	  42.000	  29.033	-232.783	  20.935
     34.4218	  40.000	  28.646	-234.396	  20.914
     34.4552	  45.000	  28.307	-229.057	  20.892
     34.4887	  52.000	  28.009	-221.759	  20.871
     34.5221	  73.000	  27.747	-200.497	  20.849
     34.5555	  58.000	  27.518	-215.268	  20.828
     34.5889	  68.000	  27.317	-205.067	  20.807
     34.6224	  46.000	  27.142	-226.892	  20.785
     34.6558	  53.000	  26.991	-219.741	  20.764
     34.6892	  39.000	  26.862	-233.612	  20.743
     34.7226	  33.000	  26.754	-239.504	  20.721
     34.7561	  42.000	  26.664	-230.414	  20.700
     34.7895	  40.000	  26.593	-232.343	  20.679
     34.8229	  44.000	  26.539	-228.289	  20.657
     34.8563	  33.000	  26.503	-239.253	  20.636
     34.8897	  34.000	  26.484	-238.234	  20.615
     34.9232	  39.000	  26.482	-233.232	  20.594
     34.9566	  33.000	  26.497	-239.247	  20.573
     34.9900	  32.000	  26.530	-240.280	  20.551
     35.0234	  39.000	  26.582	-233.332	  20.530
     35.0569	  32.000	  26.653	-240.403	  20.509
     35.0903	  44.000	  26.746	-228.496	  20.488
     35.1237	  35.000	  26.861	-237.611	  20.467
     35.1571	  29.000	  27.001	-243.751	  20.446
     35.1905	  33.000	  27.168	-239.918	  20.425
     35.2240	  26.000	  27.365	-247.115	  20.403
     35.2574	  38.000	  27.597	-235.347	  20.382
     35.2908	  33.000	  27.867	-240.617	  20.361
     35.3242	  37.000	  28.182	-236.932	  20.340
     35.3577	  29.000	  28.548	-245.298	  20.319
     35.3911	  31.000	  28.972	-243.722	  20.298
     35.4245	  43.000	  29.467	-232.217	  20.277
     35.4579	  39.000	  30.044	-236.794	  20.256
     35.4913	  44.000	  30.719	-232.469	  20.235
     35.5248	  31.000	  31.514	-246.264	  20.214
     35.5582	  38.000	  32.454	-240.204	  20.193
     35.5916	  38.000	  33.573	-241.323	  20.172
     35.6250	  55.000	  34.916	-225.666	  20.151
     35.6585	  31.000	  36.544	-251.294	  20.131
     35.6919	  33.000	  38.536	-251.286	  20.110
     35.7253	  43.000	  41.008	-243.758	  20.089
     35.7587	  35.000	  44.118	-254.868	  20.068
     35.7921	  65.000	  48.097	-228.847	  20.047
     35.8256	  57.000	  53.304	-242.054	  20.026
     35.8590	  73.000	  60.328	-233.078	  20.005
     35.8924	  87.000	  70.361	-229.111	  19.985
     35.9258	  97.000	  86.195	-234.945	  19.964
     35.9593	 117.000	 114.371	-243.121	  19.943
     35.9927	 157.000	 167.728	-256.478	  19.922
     36.0261	 211.000	 264.357	-299.107	  19.902
     36.0595	 365.000	 417.636	-298.386	  19.881
     36.0930	 575.000	 613.281	-284.031	  19.860
     36.1264	 715.000	 771.427	-302.177	  19.839
     36.1598	 729.000	 791.843	-308.593	  19.819
     36.1932	 654.000	 713.492	-305.242	  19.798
     36.2266	 542.000	 595.829	-299.579	  19.777
     36.2601	 357.000	 443.490	-332.240	  19.757
     36.2935	 253.000	 299.077	-291.827	  19.736
     36.3269	 153.000	 195.062	-287.812	  19.715
     36.3603	 106.000	 130.818	-270.568	  19.695
     36.3938	 101.000	  94.498	-239.248	  19.674
     36.4272	  83.000	  74.281	-237.031	  19.654
     36.4606	  71.000	  62.251	-237.001	  19.633
     36.4940	  55.000	  54.275	-245.025	  19.612
     36.5274	  55.000	  48.527	-239.277	  19.592
     36.5609	  39.000	  44.185	-250.935	  19.571
     36.5943	  46.000	  40.798	-240.548	  19.551
     36.6277	  45.000	  38.106	-238.856	  19.530
     36.6611	  39.000	  35.930	-242.680	  19.510
     36.6946	  29.000	  34.145	-250.895	  19.489
     36.7280	  38.000	  32.661	-240.411	  19.469
     36.7614	  22.000	  31.415	-255.165	  19.449
     36.7948	  32.000	  30.356	-244.106	  19.428
     36.8282	  21.000	  29.220	-253.970	  19.408
     36.8617	  37.000	  28.441	-237.191	  19.387
     36.8951	  26.000	  27.648	-247.398	  19.367
     36.9285	  36.000	  27.056	-236.806	  19.347
     36.9619	  22.000	  26.535	-250.285	  19.326
     36.9954	  19.000	  26.073	-252.823	  19.306
     37.0288	  13.000	  25.661	-258.411	  19.286
     37.0622	  25.000	  25.292	-246.042	  19.265
     37.0956	  18.000	  24.960	-252.710	  19.245
     37.1291	  15.000	  24.660	-255.410	  19.225
     37.1625	  24.000	  24.388	-246.138	  19.204
     37.1959	  24.000	  24.140	-245.890	  19.184
     37.2293	  26.000	  23.913	-243.663	  19.164
     37.2627	  25.000	  23.705	-244.455	  19.144
     37.2962	  31.000	  23.513	-238.263	  19.123
     37.3296	  21.000	  23.336	-248.086	  19.103
     37.3630	  26.000	  23.172	-242.922	  19.083
     37.3964	  18.000	  23.020	-250.770	  19.063
     37.4299	  13.000	  22.878	-255.628	  19.043
     37.4633	  25.000	  22.746	-243.496	  19.023
     37.4967	  26.000	  22.622	-242.372	  19.002
     37.5301	  14.000	  22.506	-254.256	  18.982
     37.5635	  15.000	  22.397	-253.147	  18.962
     37.5970	  21.000	  22.295	-247.045	  18.942
     37.6304	  28.000	  22.198	-239.948	  18.922
     37.6638	  18.000	  22.106	-249.856	  18.902
     37.6972	  18.000	  22.019	-249.769	  18.882
     37.7307	  17.000	  21.937	-250.687	  18.862
     37.7641	  11.000	  21.859	-256.609	  18.842
     37.7975	  14.000	  21.785	-253.535	  18.822
     37.8309	  18.000	  21.714	-249.464	  18.802
     37.8643	  16.000	  21.646	-251.396	  18.782
     37.8978	  18.000	  21.582	-249.332	  18.762
     37.9312	  21.000	  21.520	-246.270	  18.742
     37.9646	  28.000	  21.461	-239.211	  18.722
     37.9980	  23.000	  21.404	-244.154	  18.702
     38.0315	  18.000	  21.350	-249.100	  18.682
     38.0649	  25.000	  21.298	-242.048	  18.662
     38.0983	  16.000	  21.248	-250.998	  18.642
     38.1317	   8.000	  21.200	-258.950	  18.623
     38.1651	  19.000	  21.154	-247.904	  18.603
     38.1986	   7.000	  21.194	-259.944	  18.583
     38.2320	  18.000	  21.154	-248.904	  18.563
     38.2654	  22.000	  21.115	-244.865	  18.543
     38.2988	  19.000	  21.119	-247.869	  18.523
     38.3323	  16.000	  21.084	-250.834	  18.504
     38.3657	   6.000	  21.051	-260.801	  18.484
     38.3991	  18.000	  21.020	-248.770	  18.464
     38.4325	  18.000	  20.990	-248.740	  18.444
     38.4660	  18.000	  20.962	-248.712	  18.425
     38.4994	  13.000	  20.936	-253.686	  18.405
     38.5328	  11.000	  20.911	-255.661	  18.385
     38.5662	  17.000	  20.889	-249.639	  18.366
     38.5996	  16.000	  20.868	-250.618	  18.346
     38.6331	  16.000	  20.849	-250.599	  18.326
     38.6665	  17.000	  20.832	-249.582	  18.307
     38.6999	  11.000	  20.817	-255.567	  18.287
     38.7333	   7.000	  20.805	-259.555	  18.267
     38.7668	   8.000	  20.795	-258.545	  18.248
     38.8002	  13.000	  20.789	-253.539	  18.228
     38.8336	  18.000	  20.785	-248.535	  18.209
     38.8670	  17.000	  20.785	-249.535	  18.189
     38.9004	  13.000	  20.789	-253.539	  18.170
     38.9339	  14.000	  20.798	-252.548	  18.150
     38.9673	  15.000	  20.812	-251.562	  18.131
     39.0007	  13.000	  20.832	-253.582	  18.111
     39.0341	  24.000	  20.860	-242.610	  18.092
     39.0676	  14.000	  20.897	-252.647	  18.072
     39.1010	  16.000	  20.944	-250.694	  18.053
     39.1344	  23.000	  21.004	-243.754	  18.033
     39.1678	  15.000	  21.081	-251.831	  18.014
     39.2012	  18.000	  21.177	-248.927	  17.994
     39.2347	  15.000	  21.300	-252.050	  17.975
     39.2681	  17.000	  21.456	-250.206	  17.956
     39.3015	  15.000	  21.657	-252.407	  17.936
     39.3349	  23.000	  21.919	-244.669	  17.917
     39.3684	  16.000	  22.266	-252.016	  17.898
     39.4018	  21.000	  22.739	-247.489	  17.878
     39.4352	  27.000	  23.203	-241.953	  17.859
     39.4686	  18.000	  24.294	-252.044	  17.840
     39.5021	  23.000	  26.209	-248.959	  17.820
     39.5355	  29.000	  29.622	-246.372	  17.801
     39.5689	  53.000	  35.789	-228.539	  17.782
     39.6023	  56.000	  45.320	-235.070	  17.763
     39.6357	  67.000	  57.326	-236.076	  17.743
     39.6692	  88.000	  67.099	-224.849	  17.724
     39.7026	  84.000	  68.576	-230.326	  17.705
     39.7360	  73.000	  64.008	-236.758	  17.686
     39.7694	  58.000	  57.787	-245.537	  17.667
     39.8029	  54.000	  49.533	-241.283	  17.647
     39.8363	  31.000	  40.484	-255.234	  17.628
     39.8697	  26.000	  33.207	-252.957	  17.609
     39.9031	  19.000	  28.339	-255.089	  17.590
     39.9365	  15.000	  25.415	-256.165	  17.571
     39.9700	  19.000	  23.745	-250.495	  17.552
     40.0034	  11.000	  22.771	-257.521	  17.533
     40.0368	  22.000	  22.154	-245.904	  17.514
     40.0702	  16.000	  21.727	-251.477	  17.495
     40.1037	  18.000	  21.416	-249.166	  17.476
     40.1371	  18.000	  21.182	-248.932	  17.457
     40.1705	  16.000	  21.004	-250.754	  17.438
     40.2039	  17.000	  20.868	-249.618	  17.419
     40.2373	  11.000	  20.766	-255.516	  17.400
     40.2708	  13.000	  20.690	-253.440	  17.381
     40.3042	  13.000	  20.637	-253.387	  17.362
     40.3376	  15.000	  20.602	-251.352	  17.343
     40.3710	  16.000	  20.585	-250.335	  17.324
     40.4045	  32.000	  20.583	-234.333	  17.305
     40.4379	   9.000	  20.596	-257.346	  17.286
     40.4713	  16.000	  20.624	-250.374	  17.267
     40.5047	  16.000	  20.667	-250.417	  17.248
     40.5382	   8.000	  20.724	-258.474	  17.229
     40.5716	  15.000	  20.799	-251.549	  17.211
     40.6050	  19.000	  20.891	-247.641	  17.192
     40.6384	  11.000	  21.003	-255.753	  17.173
     40.6718	  16.000	  21.138	-250.888	  17.154
     40.7053	  19.000	  21.298	-248.048	  17.135
     40.7387	  13.000	  21.489	-254.239	  17.117
     40.7721	  17.000	  21.716	-250.466	  17.098
     40.8055	  21.000	  21.986	-246.736	  17.079
     40.8390	  19.000	  22.307	-249.057	  17.060
     40.8724	  18.000	  22.693	-250.443	  17.042
     40.9058	  18.000	  23.173	-250.923	  17.023
     40.9392	  27.000	  23.739	-242.489	  17.004
     40.9726	  31.000	  24.433	-239.183	  16.986
     41.0061	  22.000	  25.303	-249.053	  16.967
     41.0395	  23.000	  26.390	-249.140	  16.948
     41.0729	  22.000	  27.779	-251.529	  16.930
     41.1063	  42.000	  29.598	-233.348	  16.911
     41.1398	  33.000	  32.063	-244.813	  16.893
     41.1732	  31.000	  35.610	-250.360	  16.874
     41.2066	  46.000	  41.231	-240.981	  16.855
     41.2400	  42.000	  51.047	-254.797	  16.837
     41.2734	  67.000	  68.783	-247.533	  16.818
     41.3069	  94.000	  99.185	-250.935	  16.800
     41.3403	 131.000	 145.164	-259.914	  16.781
     41.3737	 208.000	 201.779	-239.529	  16.763
     41.4071	 300.000	 246.259	-192.009	  16.744
     41.4406	 245.000	 251.326	-252.076	  16.726
     41.4740	 239.000	 229.335	-236.085	  16.707
     41.5074	 231.000	 201.481	-216.231	  16.689
     41.5408	 201.000	 165.050	-209.800	  16.671
     41.5742	 124.000	 122.971	-244.721	  16.652
     41.6077	  89.000	  87.576	-244.326	  16.634
     41.6411	  56.000	  63.107	-252.857	  16.615
     41.6745	  44.000	  47.979	-249.729	  16.597
     41.7079	  40.000	  39.153	-244.903	  16.579
     41.7414	  32.000	  33.951	-247.701	  16.560
     41.7748	  47.000	  30.657	-229.407	  16.542
     41.8082	  16.000	  28.371	-258.121	  16.524
     41.8416	  26.000	  26.675	-246.425	  16.505
     41.8751	  26.000	  25.367	-245.117	  16.487
     41.9085	  24.000	  24.331	-246.081	  16.469
     41.9419	  31.000	  23.496	-238.246	  16.451
     41.9753	  17.000	  22.812	-251.562	  16.432
     42.0087	  26.000	  22.244	-241.994	  16.414
     42.0422	  15.000	  21.767	-252.517	  16.396
     42.0756	  18.000	  21.362	-249.112	  16.378
     42.1090	  24.000	  21.014	-242.764	  16.359
     42.1424	  19.000	  20.714	-247.464	  16.341
     42.1759	  18.000	  20.451	-248.201	  16.323
     42.2093	  13.000	  20.221	-252.971	  16.305
     42.2427	  23.000	  20.017	-242.767	  16.287
     42.2761	  13.000	  19.835	-252.585	  16.269
     42.3095	  16.000	  19.673	-249.423	  16.251
     42.3430	  12.000	  19.527	-253.277	  16.233
     42.3764	   7.000	  19.395	-258.145	  16.214
     42.4098	  12.000	  19.275	-253.025	  16.196
     42.4432	   9.000	  19.165	-255.915	  16.178
     42.4767	  15.000	  19.065	-249.815	  16.160
     42.5101	  15.000	  18.973	-249.723	  16.142
     42.5435	  12.000	  18.888	-252.638	  16.124
     42.5769	  13.000	  18.809	-251.559	  16.106
     42.6103	  13.000	  18.736	-251.486	  16.088
     42.6438	  14.000	  18.669	-250.419	  16.070
     42.6772	  12.000	  18.606	-252.356	  16.052
     42.7106	  15.000	  18.547	-249.297	  16.035
     42.7440	  18.000	  18.492	-246.242	  16.017
     42.7775	   7.000	  18.441	-257.191	  15.999
     42.8109	  17.000	  18.393	-247.143	  15.981
     42.8443	  16.000	  18.348	-248.098	  15.963
     42.8777	  14.000	  18.306	-250.056	  15.945
     42.9111	  13.000	  18.266	-251.016	  15.927
     42.9446	   8.000	  18.229	-255.979	  15.909
     42.9780	  15.000	  18.195	-248.945	  15.892
     43.0114	  14.000	  18.148	-249.898	  15.874
     43.0448	  15.000	  18.119	-248.869	  15.856
     43.0783	  22.000	  18.092	-241.842	  15.838
     43.1117	  17.000	  18.060	-246.810	  15.820
     43.1451	  15.000	  18.038	-248.788	  15.803
     43.1785	  11.000	  18.019	-252.769	  15.785
     43.2120	  19.000	  18.003	-244.753	  15.767
     43.2454	  11.000	  17.990	-252.740	  15.750
     43.2788	   9.000	  17.979	-254.729	  15.732
     43.3122	  12.000	  17.972	-251.722	  15.714
     43.3456	  11.000	  17.969	-252.719	  15.697
     43.3791	  11.000	  17.970	-252.720	  15.679
     43.4125	  15.000	  17.976	-248.726	  15.661
     43.4459	  14.000	  17.988	-249.738	  15.644
     43.4793	  14.000	  18.006	-249.756	  15.626
     43.5128	  17.000	  18.032	-246.782	  15.608
     43.5462	  21.000	  18.067	-242.817	  15.591
     43.5796	  13.000	  18.114	-250.864	  15.573
     43.6130	  15.000	  18.175	-248.925	  15.556
     43.6464	  13.000	  18.253	-251.003	  15.538
     43.6799	  18.000	  18.353	-246.103	  15.521
     43.7133	  11.000	  18.482	-253.232	  15.503
     43.7467	  18.000	  18.649	-246.399	  15.486
     43.7801	   7.000	  18.867	-257.617	  15.468
     43.8136	  11.000	  19.155	-253.905	  15.451
     43.8470	  12.000	  19.548	-253.298	  15.433
     43.8804	  17.000	  20.109	-248.859	  15.416
     43.9138	  19.000	  20.980	-247.730	  15.398
     43.9473	  19.000	  22.459	-249.209	  15.381
     43.9807	  19.000	  25.089	-251.839	  15.364
     44.0141	   9.000	  29.612	-266.362	  15.346
     44.0475	  32.000	  36.633	-250.383	  15.329
     44.0809	  45.000	  45.867	-246.617	  15.311
     44.1144	  49.000	  54.595	-251.345	  15.294
     44.1478	  55.000	  57.747	-248.497	  15.277
     44.1812	  43.000	  54.926	-257.676	  15.259
     44.2146	  36.000	  50.591	-260.341	  15.242
     44.2481	  35.000	  45.709	-256.459	  15.225
     44.2815	  27.000	  39.190	-257.940	  15.208
     44.3149	  24.000	  32.479	-254.229	  15.190
     44.3483	  27.000	  27.229	-245.979	  15.173
     44.3817	  15.000	  23.695	-254.445	  15.156
     44.4152	  18.000	  21.515	-249.265	  15.139
     44.4486	  14.000	  20.216	-251.966	  15.122
     44.4820	  14.000	  19.416	-251.166	  15.104
     44.5154	  13.000	  18.883	-251.633	  15.087
     44.5489	  15.000	  18.498	-249.248	  15.070
     44.5823	  17.000	  18.203	-246.953	  15.053
     44.6157	  14.000	  17.969	-249.719	  15.036
     44.6491	  15.000	  17.779	-248.529	  15.019
     44.6825	  11.000	  17.621	-252.371	  15.002
     44.7160	  18.000	  17.489	-245.239	  14.984
     44.7494	   3.000	  17.297	-260.047	  14.967
     44.7828	  13.000	  17.200	-249.950	  14.950
     44.8162	  12.000	  17.115	-250.865	  14.933
     44.8497	  18.000	  17.001	-244.751	  14.916
     44.8831	  17.000	  16.934	-245.684	  14.899
     44.9165	  15.000	  16.874	-247.624	  14.882
     44.9499	  12.000	  16.820	-250.570	  14.865
     44.9833	  14.000	  16.770	-248.520	  14.848
     45.0168	  13.000	  16.724	-249.474	  14.831
     45.0502	  14.000	  16.681	-248.431	  14.814
     45.0836	  25.000	  16.641	-237.391	  14.797
     45.1170	  19.000	  16.604	-243.354	  14.780
     45.1505	  13.000	  16.568	-249.318	  14.764
     45.1839	   6.000	  16.535	-256.285	  14.747
     45.2173	  13.000	  16.503	-249.253	  14.730
     45.2507	  12.000	  16.472	-250.222	  14.713
     45.2841	   9.000	  16.443	-253.193	  14.696
     45.3176	  12.000	  16.414	-250.164	  14.679
     45.3510	  18.000	  16.387	-244.137	  14.662
     45.3844	  11.000	  16.361	-251.111	  14.646
     45.4178	  14.000	  16.335	-248.085	  14.629
     45.4513	  15.000	  16.310	-247.060	  14.612
     45.4847	  13.000	  16.286	-249.036	  14.595
     45.5181	  11.000	  16.262	-251.012	  14.579
     45.5515	   7.000	  16.239	-254.989	  14.562
     45.5850	  12.000	  16.216	-249.966	  14.545
     45.6184	  14.000	  16.193	-247.943	  14.528
     45.6518	  16.000	  16.171	-245.921	  14.512
     45.6852	   8.000	  16.150	-253.900	  14.495
     45.7186	  12.000	  16.129	-249.879	  14.478
     45.7521	  12.000	  16.108	-249.858	  14.462
     45.7855	  17.000	  16.087	-244.837	  14.445
     45.8189	  17.000	  16.067	-244.817	  14.428
     45.8523	   8.000	  16.046	-253.796	  14.412
     45.8858	  14.000	  16.026	-247.776	  14.395
     45.9192	  15.000	  16.007	-246.757	  14.379
     45.9526	  14.000	  15.987	-247.737	  14.362
     45.9860	   4.000	  15.968	-257.718	  14.346
     46.0194	   9.000	  15.948	-252.698	  14.329
     46.0529	   8.000	  15.929	-253.679	  14.313
     46.0863	   6.000	  15.910	-255.660	  14.296
     46.1197	  13.000	  15.892	-248.642	  14.280
     46.1531	  17.000	  15.873	-244.623	  14.263
     46.1866	  16.000	  15.854	-245.604	  14.247
     46.2200	  18.000	  15.836	-243.586	  14.230
     46.2534	  18.000	  15.818	-243.568	  14.214
     46.2868	  11.000	  15.800	-250.550	  14.197
     46.3203	  17.000	  15.781	-244.531	  14.181
     46.3537	  12.000	  15.763	-249.513	  14.164
     46.3871	  15.000	  15.745	-246.495	  14.148
     46.4205	   9.000	  15.728	-252.478	  14.132
     46.4539	  14.000	  15.710	-247.460	  14.115
     46.4874	  15.000	  15.692	-246.442	  14.099
     46.5208	  14.000	  15.675	-247.425	  14.083
     46.5542	   9.000	  15.657	-252.407	  14.066
     46.5876	  11.000	  15.639	-250.389	  14.050
     46.6211	   7.000	  15.622	-254.372	  14.034
     46.6545	  11.000	  15.605	-250.355	  14.018
     46.6879	  17.000	  15.587	-244.337	  14.001
     46.7213	   9.000	  15.570	-252.320	  13.985
     46.7547	   9.000	  15.553	-252.303	  13.969
     46.7882	   9.000	  15.536	-252.286	  13.953
     46.8216	   9.000	  15.519	-252.269	  13.936
     46.8550	  17.000	  15.623	-244.373	  13.920
     46.8884	  22.000	  15.608	-239.358	  13.904
     46.9219	  12.000	  15.594	-249.344	  13.888
     46.9553	   8.000	  15.579	-253.329	  13.872
     46.9887	  14.000	  15.626	-247.376	  13.856
     47.0221	  13.000	  15.613	-248.363	  13.840
     47.0555	  15.000	  15.600	-246.350	  13.823
     47.0890	  16.000	  15.588	-245.338	  13.807
     47.1224	  14.000	  15.576	-247.326	  13.791
     47.1558	   6.000	  15.564	-255.314	  13.775
     47.1892	   7.000	  15.552	-254.302	  13.759
     47.2227	  13.000	  15.540	-248.290	  13.743
     47.2561	  13.000	  15.529	-248.279	  13.727
     47.2895	  16.000	  15.517	-245.267	  13.711
     47.3229	   9.000	  15.506	-252.256	  13.695
     47.3563	  11.000	  15.495	-250.245	  13.679
     47.3898	  12.000	  15.485	-249.235	  13.663
     47.4232	  12.000	  15.474	-249.224	  13.647
     47.4566	  21.000	  15.464	-240.214	  13.631
     47.4900	  16.000	  15.440	-245.190	  13.615
     47.5235	  14.000	  15.431	-247.181	  13.600
     47.5569	  15.000	  15.422	-246.172	  13.584
     47.5903	  16.000	  15.406	-245.156	  13.568
     47.6237	  16.000	  15.397	-245.147	  13.552
     47.6572	   9.000	  15.389	-252.139	  13.536
     47.6906	  12.000	  15.382	-249.132	  13.520
     47.7240	  22.000	  15.375	-239.125	  13.504
     47.7574	  16.000	  15.368	-245.118	  13.489
     47.7908	  18.000	  15.361	-243.111	  13.473
     47.8243	  16.000	  15.355	-245.105	  13.457
     47.8577	  16.000	  15.349	-245.099	  13.441
     47.8911	  15.000	  15.344	-246.094	  13.426
     47.9245	  25.000	  15.339	-236.089	  13.410
     47.9580	  28.000	  15.335	-233.085	  13.394
     47.9914	  15.000	  15.332	-246.082	  13.378
     48.0248	  14.000	  15.329	-247.079	  13.363
     48.0582	  12.000	  15.326	-249.076	  13.347
     48.0916	  16.000	  15.324	-245.074	  13.331
     48.1251	  14.000	  15.323	-247.073	  13.316
     48.1585	  16.000	  15.323	-245.073	  13.300
     48.1919	  17.000	  15.323	-244.073	  13.284
     48.2253	   7.000	  15.324	-254.074	  13.269
     48.2588	  15.000	  15.326	-246.076	  13.253
     48.2922	  15.000	  15.329	-246.079	  13.238
     48.3256	  21.000	  15.334	-240.084	  13.222
     48.3590	  15.000	  15.339	-246.089	  13.207
     48.3924	  17.000	  15.345	-244.095	  13.191
     48.4259	  22.000	  15.353	-239.103	  13.176
     48.4593	  14.000	  15.362	-247.112	  13.160
     48.4927	  14.000	  15.372	-247.122	  13.145
     48.5261	  15.000	  15.384	-246.134	  13.129
     48.5596	  19.000	  15.398	-242.148	  13.114
     48.5930	  21.000	  15.414	-240.164	  13.098
     48.6264	  18.000	  15.431	-243.181	  13.083
     48.6598	  15.000	  15.451	-246.201	  13.067
     48.6932	  13.000	  15.473	-248.223	  13.052
     48.7267	  18.000	  15.498	-243.248	  13.036
     48.7601	  17.000	  15.526	-244.276	  13.021
     48.7935	  14.000	  15.557	-247.307	  13.006
     48.8269	  18.000	  15.591	-243.341	  12.990
     48.8604	  14.000	  15.629	-247.379	  12.975
     48.8938	  11.000	  15.672	-250.422	  12.960
     48.9272	  14.000	  15.719	-247.469	  12.944
     48.9606	  11.000	  15.771	-250.521	  12.929
     48.9940	  16.000	  15.829	-245.579	  12.914
     49.0275	  11.000	  15.893	-250.643	  12.899
     49.0609	  16.000	  15.964	-245.714	  12.883
     49.0943	  21.000	  16.044	-240.794	  12.868
     49.1277	  16.000	  16.132	-245.882	  12.853
     49.1612	  26.000	  16.231	-235.981	  12.838
     49.1946	  32.000	  16.341	-230.091	  12.822
     49.2280	  25.000	  16.465	-237.215	  12.807
     49.2614	  17.000	  16.603	-245.353	  12.792
     49.2949	  21.000	  16.760	-241.510	  12.777
     49.3283	  18.000	  16.936	-244.686	  12.762
     49.3617	  26.000	  17.136	-236.886	  12.747
     49.3951	  25.000	  17.364	-238.114	  12.732
     49.4285	  17.000	  17.624	-246.374	  12.716
     49.4620	  21.000	  17.922	-242.672	  12.701
     49.4954	  29.000	  18.267	-235.017	  12.686
     49.5288	  25.000	  18.667	-239.417	  12.671
     49.5622	  24.000	  19.135	-240.885	  12.656
     49.5957	  21.000	  19.686	-244.436	  12.641
     49.6291	  34.000	  20.339	-232.089	  12.626
     49.6625	  19.000	  21.122	-247.872	  12.611
     49.6959	  25.000	  22.070	-242.820	  12.596
     49.7293	  31.000	  23.232	-237.982	  12.581
     49.7628	  22.000	  24.675	-248.425	  12.566
     49.7962	  29.000	  26.496	-243.246	  12.551
     49.8296	  34.000	  28.846	-240.596	  12.536
     49.8630	  34.000	  31.983	-243.733	  12.521
     49.8965	  39.000	  36.403	-243.153	  12.507
     49.9299	  36.000	  43.134	-252.884	  12.492
     49.9633	  45.000	  54.171	-254.921	  12.477
     49.9967	  66.000	  72.808	-252.558	  12.462
     50.0302	  77.000	 103.186	-271.936	  12.447
     50.0636	 129.000	 148.417	-265.167	  12.432
     50.0970	 214.000	 206.395	-238.145	  12.417
     50.1304	 302.000	 261.307	-205.057	  12.403
     50.1638	 295.000	 283.168	-233.918	  12.388
     50.1973	 233.000	 266.331	-279.081	  12.373
     50.2307	 239.000	 239.042	-245.792	  12.358
     50.2641	 183.000	 215.285	-278.035	  12.344
     50.2975	 217.000	 185.489	-214.239	  12.329
     50.3310	 151.000	 145.744	-240.494	  12.314
     50.3644	 101.000	 107.367	-252.117	  12.299
     50.3978	  76.000	  77.860	-247.610	  12.285
     50.4312	  60.000	  57.761	-243.511	  12.270
     50.4646	  44.000	  45.001	-246.751	  12.255
     50.4981	  52.000	  37.110	-230.860	  12.241
     50.5315	  48.000	  32.091	-229.841	  12.226
     50.5649	  52.000	  28.683	-222.433	  12.212
     50.5983	  36.000	  26.207	-235.957	  12.197
     50.6318	  32.000	  24.315	-238.065	  12.182
     50.6652	  34.000	  22.823	-234.573	  12.168
     50.6986	  28.000	  21.621	-239.371	  12.153
     50.7320	  19.000	  20.638	-247.388	  12.139
     50.7654	  33.000	  19.823	-232.573	  12.124
     50.7989	  21.000	  19.138	-243.888	  12.110
     50.8323	  26.000	  18.558	-238.308	  12.095
     50.8657	  29.000	  18.061	-234.811	  12.081
     50.8991	  25.000	  17.632	-238.382	  12.066
     50.9326	  33.000	  17.259	-230.009	  12.052
     50.9660	  22.000	  16.932	-240.682	  12.037
     50.9994	  18.000	  16.643	-244.393	  12.023
     51.0328	  32.000	  16.387	-230.137	  12.008
     51.0662	  15.000	  16.158	-246.908	  11.994
     51.0997	  26.000	  15.953	-235.703	  11.980
     51.1331	  25.000	  15.768	-236.518	  11.965
     51.1665	  31.000	  15.600	-230.350	  11.951
     51.1999	  19.000	  15.447	-242.197	  11.936
     51.2334	  26.000	  15.308	-235.058	  11.922
     51.2668	  16.000	  15.181	-244.931	  11.908
     51.3002	  29.000	  15.063	-231.813	  11.894
     51.3336	  18.000	  14.955	-242.705	  11.879
     51.3671	  21.000	  14.854	-239.604	  11.865
     51.4005	  19.000	  14.761	-241.511	  11.851
     51.4339	  28.000	  14.674	-232.424	  11.836
     51.4673	  16.000	  14.890	-244.640	  11.822
     51.5007	  29.000	  14.820	-231.570	  11.808
     51.5342	  18.000	  14.754	-242.504	  11.794
     51.5676	  22.000	  14.693	-238.443	  11.780
     51.6010	  21.000	  14.783	-239.533	  11.765
     51.6344	  16.000	  14.733	-244.483	  11.751
     51.6679	  13.000	  14.686	-247.436	  11.737
     51.7013	  14.000	  14.642	-246.392	  11.723
     51.7347	  18.000	  14.602	-242.352	  11.709
     51.7681	  21.000	  14.564	-239.314	  11.695
     51.8015	  21.000	  14.528	-239.278	  11.681
     51.8350	  25.000	  14.495	-235.245	  11.666
     51.8684	  18.000	  14.464	-242.214	  11.652
     51.9018	  13.000	  14.436	-247.186	  11.638
     51.9352	  18.000	  14.409	-242.159	  11.624
     51.9687	  16.000	  14.384	-244.134	  11.610
     52.0021	   8.000	  14.362	-252.112	  11.596
     52.0355	  21.000	  14.341	-239.091	  11.582
     52.0689	  26.000	  14.321	-234.071	  11.568
     52.1023	  33.000	  14.304	-227.054	  11.554
     52.1358	  21.000	  14.288	-239.038	  11.540
     52.1692	  24.000	  14.273	-236.023	  11.526
     52.2026	  36.000	  14.260	-224.010	  11.513
     52.2360	  40.000	  14.249	-219.999	  11.499
     52.2695	  44.000	  14.239	-215.989	  11.485
     52.3029	  54.000	  14.230	-205.980	  11.471
     52.3363	  33.000	  14.224	-226.974	  11.457
     52.3697	  33.000	  14.218	-226.968	  11.443
     52.4032	  31.000	  14.214	-228.964	  11.429
     52.4366	  25.000	  14.212	-234.962	  11.415
     52.4700	  15.000	  14.211	-244.961	  11.402
     52.5034	  19.000	  14.212	-240.962	  11.388
     52.5368	  14.000	  14.214	-245.964	  11.374
     52.5703	  17.000	  14.218	-242.968	  11.360
     52.6037	  14.000	  14.224	-245.974	  11.346
     52.6371	  23.000	  14.231	-236.981	  11.333
     52.6705	  16.000	  14.241	-243.991	  11.319
     52.7040	  17.000	  14.252	-243.002	  11.305
     52.7374	  33.000	  14.265	-227.015	  11.292
     52.7708	  23.000	  14.280	-237.030	  11.278
     52.8042	  13.000	  14.298	-247.048	  11.264
     52.8376	  16.000	  14.317	-244.067	  11.251
     52.8711	  19.000	  14.339	-241.089	  11.237
     52.9045	  23.000	  14.364	-237.114	  11.223
     52.9379	  13.000	  14.391	-247.141	  11.210
     52.9713	  18.000	  14.421	-242.171	  11.196
     53.0048	  17.000	  14.454	-243.204	  11.182
     53.0382	  25.000	  14.490	-235.240	  11.169
     53.0716	  18.000	  14.530	-242.280	  11.155
     53.1050	  21.000	  14.573	-239.323	  11.142
     53.1384	  19.000	  14.621	-241.371	  11.128
     53.1719	  17.000	  14.672	-243.422	  11.115
     53.2053	  19.000	  14.728	-241.478	  11.101
     53.2387	  19.000	  14.789	-241.539	  11.088
     53.2721	  21.000	  14.856	-239.606	  11.074
     53.3056	  18.000	  14.928	-242.678	  11.061
     53.3390	  24.000	  15.007	-236.757	  11.047
     53.3724	  16.000	  15.092	-244.842	  11.034
     53.4058	  19.000	  15.185	-241.935	  11.021
     53.4393	  16.000	  15.286	-245.036	  11.007
     53.4727	  18.000	  15.396	-243.146	  10.994
     53.5061	  13.000	  15.517	-248.267	  10.980
     53.5395	  24.000	  15.533	-237.283	  10.967
     53.5729	  13.000	  15.679	-248.429	  10.954
     53.6064	  16.000	  15.838	-245.588	  10.940
     53.6398	   8.000	  16.012	-253.762	  10.927
     53.6732	  14.000	  16.145	-247.895	  10.914
     53.7066	  15.000	  16.359	-247.109	  10.900
     53.7401	  18.000	  16.590	-244.340	  10.887
     53.7735	  22.000	  16.846	-240.596	  10.874
     53.8069	  29.000	  17.128	-233.878	  10.861
     53.8403	  16.000	  17.442	-247.192	  10.847
     53.8737	  21.000	  17.791	-242.541	  10.834
     53.9072	  16.000	  18.179	-247.929	  10.821
     53.9406	  18.000	  18.614	-246.364	  10.808
     53.9740	  23.000	  19.103	-241.853	  10.795
     54.0074	  18.000	  19.654	-247.404	  10.781
     54.0409	  31.000	  20.280	-235.030	  10.768
     54.0743	  36.000	  20.993	-230.743	  10.755
     54.1077	  29.000	  21.811	-238.561	  10.742
     54.1411	  24.000	  22.753	-244.503	  10.729
     54.1745	  39.000	  23.846	-230.596	  10.716
     54.2080	  36.000	  25.125	-234.875	  10.703
     54.2414	  29.000	  26.631	-243.381	  10.690
     54.2748	  42.000	  28.424	-232.174	  10.677
     54.3082	  32.000	  30.577	-244.327	  10.664
     54.3417	  44.000	  33.194	-234.944	  10.651
     54.3751	  56.000	  36.417	-226.167	  10.637
     54.4085	  52.000	  40.446	-234.196	  10.624
     54.4419	  58.000	  45.590	-233.340	  10.612
     54.4753	  70.000	  52.359	-228.109	  10.599
     54.5088	  74.000	  61.704	-233.454	  10.586
     54.5422	 101.000	  75.509	-220.259	  10.573
     54.5756	 117.000	  97.300	-226.050	  10.560
     54.6090	 132.000	 132.894	-246.644	  10.547
     54.6425	 191.000	 189.896	-244.646	  10.534
     54.6759	 235.000	 275.077	-285.827	  10.521
     54.7093	 376.000	 388.415	-258.165	  10.508
     54.7427	 622.000	 509.779	-133.529	  10.495
     54.7761	 675.000	 585.742	-156.492	  10.482
     54.8096	 601.000	 575.675	-220.425	  10.470
     54.8430	 527.000	 518.242	-236.992	  10.457
     54.8764	 460.000	 466.536	-252.286	  10.444
     54.9098	 490.000	 424.407	-180.157	  10.431
     54.9433	 445.000	 364.888	-165.638	  10.418
     54.9767	 296.000	 285.388	-235.138	  10.406
     55.0101	 240.000	 209.303	-215.053	  10.393
     55.0435	 158.000	 150.240	-237.990	  10.380
     55.0770	 114.000	 109.130	-240.880	  10.368
     55.1104	  83.000	  82.293	-245.043	  10.355
     55.1438	  73.000	  65.208	-237.958	  10.342
     55.1772	  47.000	  54.090	-252.840	  10.329
     55.2106	  44.000	  46.453	-248.203	  10.317
     55.2441	  45.000	  40.874	-241.624	  10.304
     55.2775	  48.000	  36.599	-234.349	  10.292
     55.3109	  45.000	  33.219	-233.969	  10.279
     55.3443	  33.000	  30.489	-243.239	  10.266
     55.3778	  27.000	  28.250	-247.000	  10.254
     55.4112	  31.000	  26.390	-241.140	  10.241
     55.4446	  29.000	  24.828	-241.578	  10.229
     55.4780	  19.000	  23.502	-250.252	  10.216
     55.5114	  19.000	  22.367	-249.117	  10.204
     55.5449	  21.000	  21.388	-246.138	  10.191
     55.5783	  39.000	  20.537	-227.287	  10.178
     55.6117	  23.000	  19.792	-242.542	  10.166
     55.6451	  29.000	  19.137	-235.887	  10.154
     55.6786	  15.000	  18.557	-249.307	  10.141
     55.7120	  16.000	  18.041	-247.791	  10.129
     55.7454	  24.000	  17.580	-239.330	  10.116
     55.7788	  28.000	  17.167	-234.917	  10.104
     55.8122	  33.000	  16.794	-229.544	  10.091
     55.8457	  26.000	  16.457	-236.207	  10.079
     55.8791	  18.000	  16.151	-243.901	  10.067
     55.9125	  16.000	  15.873	-245.623	  10.054
     55.9459	  18.000	  15.618	-243.368	  10.042
     55.9794	  29.000	  15.386	-232.136	  10.030
     56.0128	  19.000	  15.172	-241.922	  10.017
     56.0462	  17.000	  14.976	-243.726	  10.005
     56.0796	  16.000	  14.795	-244.545	   9.993
     56.1131	  18.000	  14.628	-242.378	   9.980
     56.1465	  22.000	  14.473	-238.223	   9.968
     56.1799	  12.000	  14.330	-248.080	   9.956
     56.2133	  15.000	  14.197	-244.947	   9.944
     56.2467	  16.000	  14.074	-243.824	   9.931
     56.2802	  21.000	  13.960	-238.710	   9.919
     56.3136	  15.000	  13.855	-244.605	   9.907
     56.3470	  21.000	  13.757	-238.507	   9.895
     56.3804	   5.000	  13.667	-254.417	   9.883
     56.4139	  16.000	  13.583	-243.333	   9.870
     56.4473	  19.000	  13.507	-240.257	   9.858
     56.4807	  18.000	  13.438	-241.188	   9.846
     56.5141	  15.000	  13.376	-244.126	   9.834
     56.5475	  22.000	  13.321	-237.071	   9.822
     56.5810	  17.000	  13.274	-242.024	   9.810
     56.6144	   9.000	  13.235	-249.985	   9.798
     56.6478	  22.000	  13.207	-236.957	   9.786
     56.6812	  11.000	  13.190	-247.940	   9.774
     56.7147	  22.000	  13.189	-236.939	   9.762
     56.7481	  22.000	  13.209	-236.959	   9.750
     56.7815	  17.000	  13.262	-242.012	   9.738
     56.8149	  14.000	  13.369	-245.119	   9.726
     56.8483	   8.000	  13.569	-251.319	   9.714
     56.8818	   5.000	  13.920	-254.670	   9.702
     56.9152	   9.000	  14.488	-251.238	   9.690
     56.9486	  26.000	  15.320	-235.070	   9.678
     56.9820	  18.000	  16.372	-244.122	   9.666
     57.0155	  18.000	  17.373	-245.123	   9.654
     57.0489	  14.000	  17.804	-249.554	   9.642
     57.0823	  24.000	  17.491	-239.241	   9.630
     57.1157	  18.000	  16.912	-244.662	   9.619
     57.1492	  13.000	  16.458	-249.208	   9.607
     57.1826	  18.000	  16.082	-243.832	   9.595
     57.2160	  15.000	  15.531	-246.281	   9.583
     57.2494	  14.000	  14.804	-246.554	   9.571
     57.2828	   6.000	  14.112	-253.862	   9.560
     57.3163	  11.000	  13.571	-248.321	   9.548
     57.3497	  15.000	  13.191	-243.941	   9.536
     57.3831	  21.000	  12.941	-237.691	   9.524
     57.4165	   7.000	  12.783	-251.533	   9.513
     57.4500	  14.000	  12.684	-244.434	   9.501
     57.4834	   8.000	  12.621	-250.371	   9.489
     57.5168	  12.000	  12.584	-246.334	   9.477
     57.5502	  17.000	  12.565	-241.315	   9.466
     57.5836	  16.000	  12.562	-242.312	   9.454
     57.6171	  15.000	  12.573	-243.323	   9.442
     57.6505	  17.000	  12.599	-241.349	   9.431
     57.6839	  13.000	  12.639	-245.389	   9.419
     57.7173	  12.000	  12.696	-246.446	   9.408
     57.7508	  11.000	  12.772	-247.522	   9.396
     57.7842	  14.000	  12.870	-244.620	   9.384
     57.8176	  13.000	  12.994	-245.744	   9.373
     57.8510	  13.000	  13.151	-245.901	   9.361
     57.8844	  18.000	  13.350	-241.100	   9.350
     57.9179	  18.000	  13.602	-241.352	   9.338
     57.9513	  16.000	  13.926	-243.676	   9.327
     57.9847	  15.000	  14.348	-245.098	   9.315
     58.0181	  14.000	  14.917	-246.667	   9.304
     58.0516	  19.000	  15.719	-242.469	   9.292
     58.0850	  16.000	  16.911	-246.661	   9.281
     58.1184	  25.000	  18.761	-239.511	   9.270
     58.1518	  24.000	  21.667	-243.417	   9.258
     58.1852	  34.000	  26.112	-237.862	   9.247
     58.2187	  35.000	  32.197	-242.947	   9.235
     58.2521	  43.000	  40.274	-243.024	   9.224
     58.2855	  50.000	  48.704	-244.454	   9.213
     58.3189	  57.000	  55.173	-243.923	   9.201
     58.3524	  76.000	  57.050	-226.800	   9.190
     58.3858	  53.000	  54.283	-247.033	   9.179
     58.4192	  48.000	  49.808	-247.558	   9.167
     58.4526	  32.000	  45.855	-259.605	   9.156
     58.4861	  52.000	  42.162	-235.912	   9.145
     58.5195	  48.000	  37.441	-235.191	   9.133
     58.5529	  37.000	  31.611	-240.361	   9.122
     58.5863	  24.000	  26.059	-247.809	   9.111
     58.6197	  17.000	  21.685	-250.435	   9.100
     58.6532	  17.000	  18.573	-247.323	   9.089
     58.6866	  19.000	  16.480	-243.230	   9.077
     58.7200	  19.000	  15.105	-241.855	   9.066
     58.7534	  15.000	  14.186	-244.936	   9.055
     58.7869	  21.000	  13.543	-238.293	   9.044
     58.8203	  23.000	  13.069	-235.819	   9.033
     58.8537	  23.000	  12.702	-235.452	   9.022
     58.8871	  16.000	  12.408	-242.158	   9.010
     58.9205	  12.000	  12.168	-245.918	   8.999
     58.9540	  14.000	  11.969	-243.719	   8.988
     58.9874	   7.000	  11.801	-250.551	   8.977
     59.0208	  18.000	  11.657	-239.407	   8.966
     59.0542	  18.000	  11.534	-239.284	   8.955
     59.0877	  16.000	  11.426	-241.176	   8.944
     59.1211	  19.000	  11.331	-238.081	   8.933
     59.1545	  13.000	  11.248	-243.998	   8.922
     59.1879	  18.000	  11.173	-238.923	   8.911
     59.2213	  15.000	  11.106	-241.856	   8.900
     59.2548	  12.000	  11.045	-244.795	   8.889
     59.2882	  14.000	  10.990	-242.740	   8.878
     59.3216	  19.000	  10.940	-237.690	   8.867
     59.3550	  22.000	  10.893	-234.643	   8.856
     59.3885	  13.000	  10.851	-243.601	   8.846
     59.4219	  17.000	  10.811	-239.561	   8.835
     59.4553	  15.000	  10.774	-241.524	   8.824
     59.4887	  16.000	  10.739	-240.489	   8.813
     59.5222	  13.000	  10.706	-243.456	   8.802
     59.5556	  22.000	  10.675	-234.425	   8.791
     59.5890	  14.000	  10.646	-242.396	   8.780
     59.6224	  16.000	  10.619	-240.369	   8.770
     59.6558	   9.000	  10.592	-247.342	   8.759
     59.6893	  15.000	  10.567	-241.317	   8.748
     59.7227	  21.000	  10.543	-235.293	   8.737
     59.7561	  23.000	  10.520	-233.270	   8.727
     59.7895	  16.000	  10.498	-240.248	   8.716
     59.8230	  21.000	  10.477	-235.227	   8.705
     59.8564	  15.000	  10.456	-241.206	   8.695
     59.8898	  18.000	  10.436	-238.186	   8.684
     59.9232	  22.000	  10.416	-234.166	   8.673
     59.9566	  23.000	  10.398	-233.148	   8.662
     59.9901	  16.000	  10.491	-240.241	   8.652
     60.0235	  19.000	  10.476	-237.226	   8.641
     60.0569	  16.000	  10.461	-240.211	   8.631
     60.0903	  11.000	  10.446	-245.196	   8.620
     60.1238	  13.000	  10.432	-243.182	   8.609
     60.1572	  23.000	  10.474	-233.224	   8.599
     60.1906	  24.000	  10.462	-232.212	   8.588
     60.2240	  23.000	  10.450	-233.200	   8.578
     60.2574	  23.000	  10.438	-233.188	   8.567
     60.2909	  24.000	  10.427	-232.177	   8.557
     60.3243	  18.000	  10.417	-238.167	   8.546
     60.3577	  23.000	  10.406	-233.156	   8.536
     60.3911	  22.000	  10.397	-234.147	   8.525
     60.4246	  25.000	  10.387	-231.137	   8.515
     60.4580	  25.000	  10.378	-231.128	   8.504
     60.4914	  27.000	  10.366	-229.116	   8.494
     60.5248	  19.000	  10.358	-237.108	   8.483
     60.5583	  16.000	  10.349	-240.099	   8.473
     60.5917	  11.000	  10.342	-245.092	   8.463
     60.6251	  17.000	  10.334	-239.084	   8.452
     60.6585	  23.000	  10.326	-233.076	   8.442
     60.6919	  21.000	  10.319	-235.069	   8.432
     60.7254	  17.000	  10.313	-239.063	   8.421
     60.7588	  14.000	  10.306	-242.056	   8.411
     60.7922	  21.000	  10.301	-235.051	   8.401
     60.8256	  15.000	  10.295	-241.045	   8.390
     60.8591	  16.000	  10.290	-240.040	   8.380
     60.8925	  12.000	  10.286	-244.036	   8.370
     60.9259	  17.000	  10.282	-239.032	   8.360
     60.9593	  16.000	  10.278	-240.028	   8.349
     60.9927	  18.000	  10.274	-238.024	   8.339
     61.0262	  14.000	  10.271	-242.021	   8.329
     61.0596	  13.000	  10.269	-243.019	   8.319
     61.0930	  16.000	  10.267	-240.017	   8.309
     61.1264	  19.000	  10.265	-237.015	   8.298
     61.1599	  12.000	  10.264	-244.014	   8.288
     61.1933	  19.000	  10.264	-237.014	   8.278
     61.2267	  12.000	  10.264	-244.014	   8.268
     61.2601	  18.000	  10.265	-238.015	   8.258
     61.2935	  13.000	  10.266	-243.016	   8.248
     61.3270	  21.000	  10.268	-235.018	   8.238
     61.3604	  13.000	  10.271	-243.021	   8.228
     61.3938	  13.000	  10.274	-243.024	   8.218
     61.4272	   7.000	  10.278	-249.028	   8.208
     61.4607	  16.000	  10.283	-240.033	   8.198
     61.4941	  13.000	  10.289	-243.039	   8.188
     61.5275	  16.000	  10.296	-240.046	   8.178
     61.5609	   9.000	  10.304	-247.054	   8.168
     61.5943	   8.000	  10.313	-248.063	   8.158
     61.6278	   9.000	  10.473	-247.223	   8.148
     61.6612	   9.000	  10.487	-247.237	   8.138
     61.6946	  16.000	  10.502	-240.252	   8.128
     61.7280	  14.000	  10.519	-242.269	   8.118
     61.7615	  13.000	  10.532	-243.282	   8.108
     61.7949	  26.000	  10.627	-230.377	   8.098
     61.8283	  11.000	  10.632	-245.382	   8.088
     61.8617	  15.000	  10.658	-241.408	   8.078
     61.8952	  11.000	  10.684	-245.434	   8.069
     61.9286	  22.000	  10.715	-234.465	   8.059
     61.9620	  19.000	  10.739	-237.489	   8.049
     61.9954	  22.000	  10.776	-234.526	   8.039
     62.0288	  27.000	  10.815	-229.565	   8.029
     62.0623	  23.000	  10.859	-233.609	   8.020
     62.0957	  32.000	  10.905	-224.655	   8.010
     62.1291	  21.000	  10.956	-235.706	   8.000
     62.1625	  19.000	  11.012	-237.762	   7.990
     62.1960	  13.000	  11.072	-243.822	   7.981
     62.2294	  24.000	  11.138	-232.888	   7.971
     62.2628	   9.000	  11.210	-247.960	   7.961
     62.2962	  17.000	  11.289	-240.039	   7.952
     62.3296	  11.000	  11.376	-246.126	   7.942
     62.3631	  12.000	  11.471	-245.221	   7.932
     62.3965	  13.000	  11.575	-244.325	   7.923
     62.4299	  19.000	  11.691	-238.441	   7.913
     62.4633	  15.000	  11.819	-242.569	   7.903
     62.4968	  13.000	  11.961	-244.711	   7.894
     62.5302	  22.000	  12.119	-235.869	   7.884
     62.5636	  16.000	  12.296	-242.046	   7.875
     62.5970	  23.000	  12.494	-235.244	   7.865
     62.6304	  26.000	  12.717	-232.467	   7.856
     62.6639	  17.000	  12.970	-241.720	   7.846
     62.6973	  18.000	  13.257	-241.007	   7.837
     62.7307	  18.000	  13.585	-241.335	   7.827
     62.7641	  13.000	  13.963	-246.713	   7.818
     62.7976	  12.000	  14.399	-248.149	   7.808
     62.8310	  17.000	  14.908	-243.658	   7.799
     62.8644	  22.000	  15.507	-239.257	   7.789
     62.8978	  15.000	  16.216	-246.966	   7.780
     62.9313	  29.000	  17.065	-233.815	   7.771
     62.9647	  18.000	  18.095	-245.845	   7.761
     62.9981	  31.000	  19.358	-234.108	   7.752
     63.0315	  19.000	  20.936	-247.686	   7.742
     63.0649	  25.000	  22.955	-243.705	   7.733
     63.0984	  28.000	  25.633	-243.383	   7.724
     63.1318	  27.000	  29.367	-248.117	   7.714
     63.1652	  32.000	  34.866	-248.616	   7.705
     63.1986	  43.000	  43.296	-246.046	   7.696
     63.2321	  57.000	  56.295	-245.045	   7.687
     63.2655	  58.000	  75.696	-263.446	   7.677
     63.2989	 102.000	 102.782	-246.532	   7.668
     63.3323	 129.000	 136.577	-253.327	   7.659
     63.3657	 190.000	 170.270	-226.020	   7.650
     63.3992	 199.000	 189.282	-236.032	   7.640
     63.4326	 186.000	 184.407	-244.157	   7.631
     63.4660	 147.000	 166.216	-264.966	   7.622
     63.4994	 142.000	 149.833	-253.583	   7.613
     63.5329	 106.000	 139.878	-279.628	   7.604
     63.5663	 118.000	 130.736	-258.486	   7.595
     63.5997	 130.000	 114.819	-230.569	   7.586
     63.6331	  90.000	  93.261	-249.011	   7.576
     63.6665	  64.000	  72.373	-254.123	   7.567
     63.7000	  39.000	  55.628	-262.378	   7.558
     63.7334	  48.000	  43.462	-241.212	   7.549
     63.7668	  28.000	  35.112	-252.862	   7.540
     63.8002	  27.000	  29.543	-248.293	   7.531
     63.8337	  19.000	  25.811	-252.561	   7.522
     63.8671	  23.000	  23.231	-245.981	   7.513
     63.9005	  22.000	  21.365	-245.115	   7.504
     63.9339	  22.000	  19.961	-243.711	   7.495
     63.9674	  19.000	  18.877	-245.627	   7.486
     64.0008	  18.000	  18.028	-245.778	   7.477
     64.0342	  22.000	  17.361	-241.111	   7.468
     64.0676	  23.000	  16.838	-239.588	   7.459
     64.1010	  24.000	  16.435	-238.185	   7.450
     64.1345	  15.000	  16.132	-246.882	   7.442
     64.1679	  19.000	  15.916	-242.666	   7.433
     64.2013	  19.000	  15.778	-242.528	   7.424
     64.2347	  17.000	  15.712	-244.462	   7.415
     64.2682	  21.000	  15.715	-240.465	   7.406
     64.3016	  15.000	  15.786	-246.536	   7.397
     64.3350	  16.000	  15.926	-245.676	   7.388
     64.3684	  21.000	  16.140	-240.890	   7.380
     64.4018	  17.000	  16.433	-245.183	   7.371
     64.4353	  18.000	  16.815	-244.565	   7.362
     64.4687	  18.000	  17.300	-245.050	   7.353
     64.5021	  19.000	  17.904	-244.654	   7.345
     64.5355	  26.000	  18.653	-238.403	   7.336
     64.5690	  17.000	  19.579	-248.329	   7.327
     64.6024	  23.000	  20.726	-243.476	   7.319
     64.6358	  29.000	  22.157	-238.907	   7.310
     64.6692	  32.000	  23.957	-237.707	   7.301
     64.7026	  33.000	  26.264	-239.014	   7.293
     64.7361	  37.000	  29.304	-238.054	   7.284
     64.7695	  39.000	  33.479	-240.229	   7.275
     64.8029	  39.000	  39.516	-246.266	   7.267
     64.8363	  49.000	  48.619	-245.369	   7.258
     64.8698	  74.000	  62.596	-234.346	   7.249
     64.9032	  71.000	  83.667	-258.417	   7.241
     64.9366	 100.000	 113.834	-259.584	   7.232
     64.9700	 120.000	 153.454	-279.204	   7.224
     65.0034	 213.000	 197.918	-230.668	   7.215
     65.0369	 211.000	 232.923	-267.673	   7.207
     65.0703	 250.000	 240.576	-236.326	   7.198
     65.1037	 191.000	 222.476	-277.226	   7.190
     65.1371	 176.000	 198.317	-268.067	   7.181
     65.1706	 158.000	 181.452	-269.202	   7.173
     65.2040	 181.000	 171.278	-236.028	   7.164
     65.2374	 163.000	 157.876	-240.626	   7.156
     65.2708	 148.000	 134.741	-232.491	   7.148
     65.3042	  94.000	 107.011	-258.761	   7.139
     65.3377	  77.000	  81.964	-250.714	   7.131
     65.3711	  50.000	  62.485	-258.235	   7.122
     65.4045	  36.000	  48.476	-258.226	   7.114
     65.4379	  40.000	  38.855	-244.605	   7.106
     65.4714	  31.000	  32.351	-247.100	   7.097
     65.5048	  21.000	  27.887	-252.637	   7.089
     65.5382	  27.000	  24.703	-243.453	   7.081
     65.5716	  28.000	  22.323	-240.073	   7.072
     65.6051	  17.000	  20.469	-249.219	   7.064
     65.6385	  25.000	  18.983	-239.733	   7.056
     65.6719	  18.000	  17.767	-245.517	   7.048
     65.7053	  24.000	  16.756	-238.506	   7.039
     65.7387	  14.000	  15.907	-247.657	   7.031
     65.7722	  12.000	  15.185	-248.935	   7.023
     65.8056	   9.000	  14.567	-251.317	   7.015
     65.8390	  18.000	  14.032	-241.782	   7.007
     65.8724	  19.000	  13.566	-240.316	   6.999
     65.9059	  15.000	  13.158	-243.908	   6.990
     65.9393	  16.000	  12.798	-242.548	   6.982
     65.9727	  12.000	  12.479	-246.229	   6.974
     66.0061	  19.000	  12.194	-238.944	   6.966
     66.0396	  17.000	  11.939	-240.689	   6.958
     66.0730	  14.000	  11.709	-243.459	   6.950
     66.1064	  14.000	  11.502	-243.252	   6.942
     66.1398	  11.000	  11.314	-246.064	   6.934
     66.1732	  18.000	  11.143	-238.893	   6.926
     66.2067	   4.000	  10.987	-252.737	   6.918
     66.2401	  14.000	  10.845	-242.595	   6.910
     66.2735	   9.000	  10.714	-247.464	   6.902
     66.3069	  16.000	  10.594	-240.344	   6.894
     66.3403	  11.000	  10.484	-245.234	   6.886
     66.3738	   9.000	  10.383	-247.133	   6.878
     66.4072	  11.000	  10.289	-245.039	   6.870
     66.4406	   6.000	  10.203	-249.953	   6.862
     66.4740	   6.000	  10.125	-249.874	   6.854
     66.5075	   9.000	  10.052	-246.802	   6.846
     66.5409	   8.000	   9.987	-247.737	   6.838
     66.5743	  13.000	   9.928	-242.678	   6.830
     66.6077	  12.000	   9.876	-243.626	   6.823
     66.6412	   8.000	   9.830	-247.580	   6.815
     66.6746	   9.000	   9.793	-246.543	   6.807
     66.7080	  19.000	   9.766	-236.516	   6.799
     66.7414	   9.000	   9.751	-246.501	   6.791
     66.7748	  14.000	   9.753	-241.503	   6.784
     66.8083	  13.000	   9.784	-242.534	   6.776
     66.8417	  14.000	   9.856	-241.606	   6.768
     66.8751	  13.000	   9.991	-242.741	   6.760
     66.9085	   6.000	  10.211	-249.961	   6.753
     66.9420	  12.000	  10.427	-244.177	   6.745
     66.9754	  13.000	  10.836	-243.586	   6.737
     67.0088	   6.000	  11.248	-250.998	   6.729
     67.0422	   8.000	  11.484	-249.234	   6.722
     67.0756	  11.000	  11.410	-246.160	   6.714
     67.1091	  15.000	  11.086	-241.836	   6.706
     67.1425	  14.000	  10.818	-242.568	   6.699
     67.1759	   9.000	  10.643	-247.393	   6.691
     67.2093	  12.000	  10.522	-244.272	   6.684
     67.2428	  13.000	  10.349	-243.099	   6.676
     67.2762	   6.000	  10.073	-249.823	   6.669
     67.3096	   7.000	   9.762	-248.512	   6.661
     67.3430	   7.000	   9.485	-248.235	   6.653
     67.3764	   9.000	   9.265	-246.015	   6.646
     67.4099	   5.000	   9.101	-249.851	   6.638
     67.4433	   7.000	   8.982	-247.732	   6.631
     67.4767	  11.000	   8.894	-243.644	   6.623
     67.5101	   9.000	   8.827	-245.577	   6.616
     67.5436	   5.000	   8.774	-249.524	   6.608
     67.5770	   8.000	   8.729	-246.479	   6.601
     67.6104	  11.000	   8.691	-243.441	   6.594
     67.6438	   7.000	   8.657	-247.407	   6.586
     67.6772	  15.000	   8.626	-239.376	   6.579
     67.7107	   6.000	   8.597	-248.347	   6.571
     67.7441	  17.000	   8.571	-237.321	   6.564
     67.7775	  13.000	   8.547	-241.297	   6.557
     67.8109	   7.000	   8.524	-247.274	   6.549
     67.8444	   8.000	   8.502	-246.252	   6.542
     67.8778	  13.000	   8.482	-241.232	   6.535
     67.9112	  12.000	   8.462	-242.212	   6.527
     67.9446	   4.000	   8.443	-250.193	   6.520
     67.9781	   6.000	   8.425	-248.175	   6.513
     68.0115	  14.000	   8.407	-240.157	   6.506
     68.0449	   8.000	   8.390	-246.140	   6.498
     68.0783	   5.000	   8.374	-249.124	   6.491
     68.1117	   5.000	   8.358	-249.108	   6.484
     68.1452	  14.000	   8.343	-240.092	   6.477
     68.1786	   9.000	   8.327	-245.077	   6.470
     68.2120	  12.000	   8.313	-242.063	   6.462
     68.2454	   4.000	   8.298	-250.048	   6.455
     68.2789	   7.000	   8.284	-247.034	   6.448
     68.3123	   4.000	   8.271	-250.021	   6.441
     68.3457	   8.000	   8.257	-246.007	   6.434
     68.3791	   5.000	   8.244	-248.994	   6.427
     68.4125	   8.000	   8.231	-245.981	   6.420
     68.4460	   6.000	   8.218	-247.968	   6.413
     68.4794	   4.000	   8.206	-249.956	   6.405
     68.5128	   9.000	   8.194	-244.944	   6.398
     68.5462	   6.000	   8.182	-247.932	   6.391
     68.5797	   7.000	   8.170	-246.920	   6.384
     68.6131	  12.000	   8.020	-241.770	   6.377
     68.6465	   9.000	   8.011	-244.761	   6.370
     68.6799	   7.000	   8.002	-246.752	   6.363
     68.7133	  13.000	   7.993	-240.743	   6.356
     68.7468	   8.000	   7.985	-245.735	   6.349
     68.7802	   6.000	   7.906	-247.656	   6.343
     68.8136	  11.000	   7.899	-242.649	   6.336
     68.8470	  13.000	   7.892	-240.642	   6.329
     68.8805	   7.000	   7.885	-246.635	   6.322
     68.9139	  14.000	   7.878	-239.628	   6.315
     68.9473	  12.000	   7.871	-241.621	   6.308
     68.9807	  12.000	   7.864	-241.614	   6.301
     69.0142	  13.000	   7.858	-240.608	   6.294
     69.0476	   8.000	   7.851	-245.601	   6.288
     69.0810	   9.000	   7.844	-244.594	   6.281
     69.1144	   6.000	   7.837	-247.587	   6.274
     69.1478	   9.000	   7.831	-244.581	   6.267
     69.1813	  17.000	   7.824	-236.574	   6.260
     69.2147	  13.000	   7.818	-240.568	   6.254
     69.2481	  12.000	   7.811	-241.561	   6.247
     69.2815	  19.000	   7.805	-234.555	   6.240
     69.3150	  15.000	   7.859	-238.609	   6.234
     69.3484	  13.000	   7.854	-240.604	   6.227
     69.3818	  15.000	   7.849	-238.599	   6.220
     69.4152	  14.000	   7.844	-239.594	   6.213
     69.4486	  11.000	   7.840	-242.590	   6.207
     69.4821	  12.000	   7.835	-241.585	   6.200
     69.5155	   8.000	   7.861	-245.611	   6.194
     69.5489	  14.000	   7.857	-239.607	   6.187
     69.5823	   5.000	   7.853	-248.603	   6.180
     69.6158	   6.000	   7.850	-247.600	   6.174
     69.6492	   7.000	   7.847	-246.597	   6.167
     69.6826	   5.000	   7.844	-248.594	   6.161
     69.7160	  12.000	   7.854	-241.604	   6.154
     69.7495	   7.000	   7.852	-246.602	   6.148
     69.7829	  13.000	   7.850	-240.600	   6.141
     69.8163	  12.000	   7.849	-241.599	   6.135
     69.8497	   7.000	   7.848	-246.598	   6.128
     69.8831	   4.000	   7.847	-249.597	   6.122
     69.9166	  17.000	   7.854	-236.604	   6.115
     69.9500	  11.000	   7.854	-242.604	   6.109
     69.9834	  12.000	   7.856	-241.606	   6.102
     70.0168	  12.000	   7.859	-241.609	   6.096
     70.0502	   7.000	   7.862	-246.612	   6.090
     70.0837	  12.000	   7.868	-241.618	   6.083
     70.1171	   6.000	   7.875	-247.625	   6.077
     70.1505	  14.000	   7.884	-239.634	   6.070
     70.1839	   9.000	   7.896	-244.646	   6.064
     70.2174	   6.000	   7.912	-247.662	   6.058
     70.2508	   7.000	   7.934	-246.684	   6.051
     70.2842	   4.000	   7.965	-249.715	   6.045
     70.3176	   8.000	   8.010	-245.760	   6.039
     70.3511	   3.000	   8.077	-250.827	   6.033
     70.3845	   4.000	   8.177	-249.927	   6.026
     70.4179	  11.000	   8.324	-243.074	   6.020
     70.4513	  12.000	   8.526	-242.276	   6.014
     70.4847	   9.000	   8.784	-245.534	   6.008
     70.5182	  17.000	   9.063	-237.813	   6.001
     70.5516	   6.000	   9.277	-249.027	   5.995
     70.5850	   4.000	   9.322	-251.072	   5.989
     70.6184	   6.000	   9.205	-248.955	   5.983
     70.6519	   6.000	   9.043	-248.793	   5.977
     70.6853	  11.000	   8.924	-243.674	   5.971
     70.7187	  12.000	   8.862	-242.612	   5.965
     70.7521	  14.000	   8.815	-240.565	   5.958
     70.7855	   9.000	   8.719	-245.469	   5.952
     70.8190	   9.000	   8.565	-245.315	   5.946
     70.8524	  12.000	   8.398	-242.148	   5.940
     70.8858	   5.000	   8.254	-249.004	   5.934
     70.9192	   6.000	   8.143	-247.893	   5.928
     70.9527	   6.000	   8.064	-247.814	   5.922
     70.9861	  13.000	   8.010	-240.760	   5.916
     71.0195	  14.000	   7.975	-239.725	   5.910
     71.0529	   6.000	   7.953	-247.703	   5.904
     71.0863	   4.000	   7.940	-249.690	   5.898
     71.1198	   8.000	   7.932	-245.682	   5.892
     71.1532	  11.000	   7.928	-242.678	   5.886
     71.1866	   9.000	   7.928	-244.678	   5.880
     71.2200	   9.000	   7.931	-244.681	   5.874
     71.2535	   8.000	   7.935	-245.685	   5.869
     71.2869	   8.000	   7.942	-245.692	   5.863
     71.3203	  11.000	   7.951	-242.701	   5.857
     71.3537	  14.000	   7.962	-239.712	   5.851
     71.3872	   6.000	   7.975	-247.725	   5.845
     71.4206	   8.000	   7.990	-245.740	   5.839
     71.4540	   9.000	   8.007	-244.757	   5.834
     71.4874	   6.000	   8.026	-247.776	   5.828
     71.5208	   7.000	   8.047	-246.797	   5.822
     71.5543	  11.000	   8.071	-242.821	   5.816
     71.5877	   6.000	   8.097	-247.847	   5.810
     71.6211	  11.000	   8.126	-242.876	   5.805
     71.6545	   9.000	   8.158	-244.908	   5.799
     71.6880	  13.000	   8.193	-240.943	   5.793
     71.7214	   5.000	   8.232	-248.982	   5.788
     71.7548	  11.000	   8.275	-243.025	   5.782
     71.7882	  12.000	   8.322	-242.072	   5.776
     71.8216	   5.000	   8.375	-249.125	   5.771
     71.8551	   6.000	   8.432	-248.182	   5.765
     71.8885	   7.000	   8.497	-247.247	   5.759
     71.9219	   6.000	   8.568	-248.318	   5.754
     71.9553	  12.000	   8.647	-242.397	   5.748
     71.9888	   5.000	   8.736	-249.486	   5.743
     72.0222	  14.000	   8.835	-240.585	   5.737
     72.0556	   8.000	   8.946	-246.696	   5.731
     72.0890	   7.000	   9.072	-247.822	   5.726
     72.1225	   9.000	   9.214	-245.964	   5.720
     72.1559	  19.000	   9.376	-236.126	   5.715
     72.1893	   9.000	   9.560	-246.310	   5.709
     72.2227	   8.000	   9.772	-247.522	   5.704
     72.2561	  11.000	  10.017	-244.767	   5.698
     72.2896	  15.000	  10.302	-241.052	   5.693
     72.3230	   5.000	  10.636	-251.386	   5.688
     72.3564	  18.000	  11.030	-238.780	   5.682
     72.3898	  25.000	  11.501	-232.251	   5.677
     72.4232	  17.000	  12.068	-240.818	   5.671
     72.4567	  14.000	  12.762	-244.512	   5.666
     72.4901	  15.000	  13.627	-244.376	   5.661
     72.5235	  23.000	  14.732	-237.482	   5.655
     72.5569	  14.000	  16.196	-247.946	   5.650
     72.5904	  22.000	  18.216	-241.966	   5.645
     72.6238	  18.000	  21.111	-248.861	   5.639
     72.6572	  34.000	  25.340	-237.090	   5.634
     72.6906	  39.000	  31.484	-238.234	   5.629
     72.7241	  49.000	  40.136	-236.886	   5.623
     72.7575	  58.000	  51.654	-239.404	   5.618
     72.7909	  70.000	  65.559	-241.309	   5.613
     72.8243	  88.000	  79.417	-237.167	   5.608
     72.8577	 109.000	  88.133	-224.883	   5.602
     72.8912	  86.000	  87.710	-247.460	   5.597
     72.9246	  86.000	  80.588	-240.338	   5.592
     72.9580	  66.000	  72.655	-252.405	   5.587
     72.9914	  64.000	  67.494	-249.244	   5.582
     73.0249	  71.000	  65.359	-240.109	   5.577
     73.0583	  76.000	  63.913	-233.663	   5.571
     73.0917	  73.000	  60.238	-232.988	   5.566
     73.1251	  58.000	  54.125	-241.875	   5.561
     73.1585	  47.000	  47.866	-246.616	   5.556
     73.1920	  40.000	  43.121	-248.871	   5.551
     73.2254	  37.000	  40.039	-248.789	   5.546
     73.2588	  47.000	  37.528	-236.278	   5.541
     73.2922	  35.000	  34.411	-245.161	   5.536
     73.3257	  45.000	  30.761	-231.511	   5.531
     73.3591	  15.000	  27.484	-258.234	   5.526
     73.3925	  25.000	  25.163	-245.913	   5.521
     73.4259	  22.000	  23.709	-247.459	   5.516
     73.4594	  21.000	  22.596	-247.346	   5.511
     73.4928	  17.000	  21.124	-249.874	   5.506
     73.5262	   7.000	  19.112	-257.862	   5.501
     73.5596	  29.000	  16.958	-233.708	   5.496
     73.5930	  22.000	  15.045	-238.795	   5.491
     73.6265	  17.000	  13.508	-242.258	   5.486
     73.6599	  11.000	  12.334	-247.084	   5.482
     73.6933	  13.000	  11.459	-244.209	   5.477
     73.7267	  12.000	  10.809	-244.559	   5.472
     73.7601	  11.000	  10.318	-245.068	   5.467
     73.7936	  12.000	   9.936	-243.686	   5.462
     73.8270	   8.000	   9.630	-247.380	   5.457
     73.8604	   8.000	   9.376	-247.126	   5.453
     73.8938	  19.000	   9.163	-235.913	   5.448
     73.9273	  13.000	   8.980	-241.730	   5.443
     73.9607	   7.000	   8.821	-247.571	   5.438
     73.9941	   9.000	   8.681	-245.431	   5.434
     74.0275	  12.000	   8.559	-242.309	   5.429
     74.0610	   8.000	   8.450	-246.200	   5.424
     74.0944	  13.000	   8.352	-241.102	   5.419
     74.1278	   7.000	   8.265	-247.015	   5.415
     74.1612	  13.000	   8.186	-240.936	   5.410
     74.1946	   7.000	   8.114	-246.864	   5.405
     74.2281	  12.000	   8.049	-241.799	   5.401
     74.2615	  14.000	   7.990	-239.740	   5.396
     74.2949	  11.000	   7.936	-242.686	   5.392
     74.3283	   7.000	   7.886	-246.636	   5.387
     74.3618	  12.000	   7.841	-241.591	   5.382
     74.3952	   9.000	   7.798	-244.548	   5.378
     74.4286	  14.000	   7.759	-239.509	   5.373
     74.4620	   7.000	   7.723	-246.473	   5.369
     74.4955	  16.000	   7.690	-237.440	   5.364
     74.5289	   9.000	   7.660	-244.410	   5.360
     74.5623	  11.000	   7.631	-242.381	   5.355
     74.5957	  11.000	   7.604	-242.354	   5.351
     74.6291	   8.000	   7.580	-245.330	   5.346
     74.6626	   8.000	   7.557	-245.307	   5.342
     74.6960	  12.000	   7.536	-241.286	   5.337
     74.7294	  15.000	   7.516	-238.266	   5.333
     74.7628	   6.000	   7.498	-247.248	   5.329
     74.7962	  14.000	   7.481	-239.231	   5.324
     74.8297	  13.000	   7.466	-240.216	   5.320
     74.8631	  13.000	   7.451	-240.201	   5.315
     74.8965	   8.000	   7.438	-245.188	   5.311
     74.9299	   7.000	   7.426	-246.176	   5.307
     74.9634	   7.000	   7.415	-246.165	   5.302
     74.9968	  14.000	   7.406	-239.156	   5.298
     75.0302	  11.000	   7.397	-242.147	   5.294
     75.0636	  13.000	   7.389	-240.139	   5.290
     75.0971	  11.000	   7.383	-242.133	   5.285
     75.1305	   2.000	   7.377	-251.127	   5.281
     75.1639	  12.000	   7.373	-241.123	   5.277
     75.1973	   7.000	   7.369	-246.119	   5.273
     75.2307	   5.000	   7.367	-248.117	   5.268
     75.2642	  14.000	   7.366	-239.116	   5.264
     75.2976	  13.000	   7.366	-240.116	   5.260
     75.3310	   6.000	   7.367	-247.117	   5.256
     75.3644	  11.000	   7.394	-242.144	   5.252
     75.3979	   9.000	   7.398	-244.148	   5.248
     75.4313	   5.000	   7.404	-248.154	   5.243
     75.4647	   6.000	   7.411	-247.161	   5.239
     75.4981	   2.000	   7.420	-251.170	   5.235
     75.5315	   7.000	   7.431	-246.181	   5.231
     75.5650	   7.000	   7.444	-246.194	   5.227
     75.5984	  11.000	   7.471	-242.221	   5.223
     75.6318	  12.000	   7.489	-241.239	   5.219
     75.6652	   5.000	   7.509	-248.259	   5.215
     75.6987	   9.000	   7.532	-244.282	   5.211
     75.7321	  11.000	   7.559	-242.309	   5.207
     75.7655	   8.000	   7.589	-245.339	   5.203
     75.7989	   4.000	   7.624	-249.374	   5.199
     75.8324	   5.000	   7.663	-248.413	   5.195
     75.8658	   5.000	   7.709	-248.459	   5.191
     75.8992	   4.000	   7.760	-249.510	   5.187
     75.9326	   7.000	   7.820	-246.570	   5.183
     75.9660	   7.000	   7.888	-246.638	   5.179
     75.9995	   8.000	   7.968	-245.718	   5.175
     76.0329	  16.000	   8.063	-237.813	   5.171
     76.0663	   2.000	   8.176	-251.926	   5.168
     76.0997	  13.000	   8.314	-241.064	   5.164
     76.1331	   7.000	   8.486	-247.236	   5.160
     76.1666	   9.000	   8.703	-245.453	   5.156
     76.2000	  11.000	   8.978	-243.728	   5.152
     76.2334	  13.000	   9.322	-242.072	   5.149
     76.2668	  12.000	   9.739	-243.489	   5.145
     76.3003	   8.000	  10.213	-247.963	   5.141
     76.3337	  15.000	  10.692	-241.442	   5.137
     76.3671	  11.000	  11.112	-245.862	   5.134
     76.4005	  13.000	  11.488	-244.238	   5.130
     76.4340	  16.000	  11.937	-241.687	   5.126
     76.4674	  11.000	  12.599	-247.349	   5.122
     76.5008	   8.000	  13.555	-251.305	   5.119
     76.5342	  18.000	  15.050	-242.800	   5.115
     76.5676	  16.000	  17.206	-246.956	   5.111
     76.6011	  21.000	  20.248	-244.998	   5.108
     76.6345	  22.000	  24.443	-248.193	   5.104
     76.6679	  28.000	  29.971	-247.721	   5.101
     76.7013	  46.000	  36.639	-236.389	   5.097
     76.7348	  47.000	  43.333	-242.083	   5.093
     76.7682	  38.000	  47.804	-255.554	   5.090
     76.8016	  39.000	  47.972	-254.722	   5.086
     76.8350	  45.000	  44.551	-245.301	   5.083
     76.8684	  42.000	  40.217	-243.967	   5.079
     76.9019	  34.000	  36.950	-248.700	   5.076
     76.9353	  38.000	  35.254	-243.004	   5.072
     76.9687	  29.000	  34.457	-251.207	   5.069
     77.0021	  27.000	  33.080	-251.830	   5.065
     77.0356	  25.000	  30.114	-250.864	   5.062
     77.0690	  26.000	  26.031	-245.781	   5.058
     77.1024	  29.000	  21.921	-238.671	   5.055
     77.1358	  21.000	  18.418	-243.168	   5.052
     77.1693	  12.000	  15.698	-249.448	   5.048
     77.2027	   9.000	  13.683	-250.433	   5.045
     77.2361	   8.000	  12.230	-249.980	   5.041
     77.2695	  11.000	  11.191	-245.941	   5.038
     77.3029	  13.000	  10.439	-243.189	   5.035
     77.3364	  12.000	   9.881	-243.631	   5.031
     77.3698	  11.000	   9.454	-244.204	   5.028
     77.4032	  13.000	   9.116	-241.866	   5.025
     77.4366	   9.000	   8.842	-245.592	   5.022
     77.4701	  14.000	   8.616	-240.366	   5.018
     77.5035	  11.000	   8.428	-243.178	   5.015
     77.5369	  16.000	   8.270	-238.020	   5.012
     77.5703	  12.000	   8.135	-241.885	   5.009
     77.6037	   7.000	   8.021	-246.771	   5.005
     77.6372	   7.000	   7.923	-246.673	   5.002
     77.6706	   5.000	   7.839	-248.589	   4.999
     77.7040	  11.000	   7.767	-242.517	   4.996
     77.7374	   8.000	   7.705	-245.455	   4.993
     77.7709	  11.000	   7.652	-242.402	   4.989
     77.8043	   7.000	   7.607	-246.357	   4.986
     77.8377	  12.000	   7.570	-241.320	   4.983
     77.8711	   6.000	   7.538	-247.288	   4.980
     77.9045	   6.000	   7.513	-247.263	   4.977
     77.9380	  14.000	   7.493	-239.243	   4.974
     77.9714	  11.000	   7.479	-242.229	   4.971
     78.0048	   6.000	   7.470	-247.220	   4.968
     78.0382	   6.000	   7.466	-247.216	   4.965
     78.0717	  14.000	   7.467	-239.217	   4.962
     78.1051	  11.000	   7.474	-242.224	   4.959
     78.1385	   8.000	   7.486	-245.236	   4.956
     78.1719	  11.000	   7.504	-242.254	   4.953
     78.2054	  14.000	   7.528	-239.278	   4.950
     78.2388	  11.000	   7.560	-242.310	   4.947
     78.2722	   9.000	   7.601	-244.351	   4.944
     78.3056	   6.000	   7.650	-247.400	   4.941
     78.3390	   6.000	   7.723	-247.473	   4.938
     78.3725	   8.000	   7.794	-245.544	   4.935
     78.4059	  15.000	   7.878	-238.628	   4.933
     78.4393	   6.000	   7.980	-247.730	   4.930
     78.4727	   4.000	   8.102	-249.852	   4.927
     78.5061	   5.000	   8.250	-249.000	   4.924
     78.5396	  15.000	   8.428	-239.178	   4.921
     78.5730	  14.000	   8.654	-240.404	   4.918
     78.6064	   7.000	   8.925	-247.675	   4.916
     78.6398	  21.000	   9.269	-234.019	   4.913
     78.6733	  12.000	   9.716	-243.466	   4.910
     78.7067	  12.000	  10.317	-244.067	   4.907
     78.7401	  16.000	  11.151	-240.901	   4.905
     78.7735	   9.000	  12.333	-249.083	   4.902
     78.8070	  24.000	  14.014	-235.764	   4.899
     78.8404	  19.000	  16.365	-243.115	   4.896
     78.8738	  22.000	  19.534	-243.284	   4.894
     78.9072	  26.000	  23.556	-243.306	   4.891
     78.9406	  37.000	  28.146	-236.896	   4.888
     78.9741	  33.000	  32.357	-245.107	   4.886
     79.0075	  49.000	  34.608	-231.358	   4.883
     79.0409	  52.000	  33.974	-227.724	   4.881
     79.0743	  44.000	  31.394	-233.144	   4.878
     79.1078	  32.000	  28.582	-242.332	   4.875
     79.1412	  26.000	  26.603	-246.353	   4.873
     79.1746	  22.000	  25.654	-249.404	   4.870
     79.2080	  29.000	  25.232	-241.982	   4.868
     79.2414	  26.000	  24.393	-244.143	   4.865
     79.2749	  32.000	  22.507	-236.257	   4.863
     79.3083	  21.000	  19.868	-244.618	   4.860
     79.3417	  19.000	  17.171	-243.921	   4.858
     79.3751	  16.000	  14.851	-244.601	   4.855
     79.4086	  16.000	  13.027	-242.777	   4.853
     79.4420	  11.000	  11.663	-246.413	   4.850
     79.4754	   9.000	  10.676	-247.426	   4.848
     79.5088	  14.000	   9.972	-241.722	   4.846
     79.5423	  14.000	   9.469	-241.219	   4.843
     79.5757	  13.000	   9.107	-241.857	   4.841
     79.6091	  11.000	   8.843	-243.593	   4.838
     79.6425	  12.000	   8.649	-242.399	   4.836
     79.6759	   6.000	   8.510	-248.260	   4.834
     79.7094	  19.000	   8.416	-235.166	   4.831
     79.7428	   6.000	   8.364	-248.114	   4.829
     79.7762	   7.000	   8.354	-247.104	   4.827
     79.8096	   8.000	   8.390	-246.140	   4.825
     79.8430	  12.000	   8.483	-242.233	   4.822
     79.8765	  18.000	   8.653	-236.403	   4.820
     79.9099	  16.000	   8.930	-238.680	   4.818
     79.9433	  17.000	   9.357	-238.107	   4.816
     79.9767	  18.000	   9.984	-237.734	   4.813
     80.0102	  15.000	  10.861	-241.611	   4.811
     80.0436	   7.000	  12.017	-250.767	   4.809
     80.0770	  16.000	  13.404	-243.154	   4.807
     80.1104	  15.000	  14.817	-245.566	   4.805
     80.1439	  22.000	  15.808	-239.558	   4.803
     80.1773	  15.000	  15.940	-246.690	   4.800
     80.2107	  17.000	  15.272	-244.022	   4.798
     80.2441	  14.000	  14.317	-246.067	   4.796
     80.2775	  11.000	  13.519	-248.269	   4.794
     80.3110	  11.000	  13.055	-247.805	   4.792
     80.3444	  13.000	  12.866	-245.616	   4.790
     80.3778	   5.000	  12.705	-253.455	   4.788
     80.4112	  15.000	  12.320	-243.070	   4.786
     80.4447	   8.000	  11.577	-249.327	   4.784
     80.4781	  13.000	  10.663	-243.413	   4.782
     80.5115	  13.000	   9.837	-242.587	   4.780
     80.5449	   7.000	   9.157	-247.907	   4.778
     80.5784	  11.000	   8.634	-243.384	   4.776
     80.6118	   9.000	   8.249	-244.999	   4.774
     80.6452	   7.000	   7.977	-246.727	   4.772
     80.6786	  16.000	   7.806	-237.556	   4.770
     80.7120	   9.000	   7.668	-244.418	   4.768
     80.7455	   6.000	   7.595	-247.345	   4.766
     80.7789	   9.000	   7.564	-244.314	   4.765
     80.8123	   6.000	   7.566	-247.316	   4.763
     80.8457	   6.000	   7.591	-247.341	   4.761
     80.8792	   8.000	   7.619	-245.369	   4.759
     80.9126	   6.000	   7.623	-247.373	   4.757
     80.9460	  16.000	   7.586	-237.336	   4.755
     80.9794	  13.000	   7.522	-240.272	   4.754
     81.0128	   4.000	   7.460	-249.210	   4.752
     81.0463	   5.000	   7.416	-248.166	   4.750
     81.0797	   3.000	   7.396	-250.146	   4.748
     81.1131	   5.000	   7.391	-248.141	   4.747
     81.1465	  13.000	   7.388	-240.138	   4.745
     81.1800	   8.000	   7.373	-245.123	   4.743
     81.2134	  12.000	   7.347	-241.097	   4.742
     81.2468	   5.000	   7.323	-248.073	   4.740
     81.2802	   9.000	   7.310	-244.060	   4.738
     81.3136	  11.000	   7.312	-242.062	   4.737
     81.3471	  11.000	   7.329	-242.079	   4.735
     81.3805	  11.000	   7.363	-242.113	   4.733
     81.4139	   8.000	   7.412	-245.162	   4.732
     81.4473	   6.000	   7.477	-247.227	   4.730
     81.4808	  14.000	   7.560	-239.310	   4.729
     81.5142	   9.000	   7.663	-244.413	   4.727
     81.5476	  16.000	   7.790	-237.540	   4.725
     81.5810	  11.000	   7.948	-242.698	   4.724
     81.6144	  13.000	   8.145	-240.895	   4.722
     81.6479	   9.000	   8.396	-245.146	   4.721
     81.6813	  11.000	   8.724	-243.474	   4.719
     81.7147	   6.000	   9.164	-248.914	   4.718
     81.7481	   8.000	   9.769	-247.519	   4.716
     81.7816	   8.000	  10.613	-248.363	   4.715
     81.8150	   9.000	  11.791	-248.541	   4.714
     81.8484	  11.000	  13.412	-248.162	   4.712
     81.8818	   7.000	  15.541	-254.291	   4.711
     81.9153	  32.000	  18.187	-231.937	   4.709
     81.9487	  18.000	  21.147	-248.897	   4.708
     81.9821	  34.000	  23.887	-235.637	   4.707
     82.0155	  28.000	  25.568	-243.318	   4.705
     82.0489	  25.000	  25.553	-246.303	   4.704
     82.0824	  26.000	  24.115	-243.865	   4.703
     82.1158	  23.000	  22.220	-244.970	   4.701
     82.1492	  14.000	  20.679	-252.429	   4.700
     82.1826	  15.000	  19.783	-250.533	   4.699
     82.2160	  18.000	  19.381	-247.131	   4.697
     82.2495	  24.000	  19.024	-240.774	   4.696
     82.2829	  18.000	  18.205	-245.955	   4.695
     82.3163	  19.000	  16.755	-243.505	   4.694
     82.3497	  16.000	  14.973	-244.723	   4.693
     82.3832	  21.000	  13.252	-238.002	   4.691
     82.4166	  19.000	  11.799	-238.549	   4.690
     82.4500	  11.000	  10.658	-245.408	   4.689
     82.4834	  14.000	   9.799	-241.549	   4.688
     82.5169	   5.000	   9.167	-249.917	   4.687
     82.5503	   9.000	   8.706	-245.456	   4.686
     82.5837	   7.000	   8.367	-247.117	   4.684
     82.6171	   9.000	   8.113	-244.863	   4.683
     82.6505	   9.000	   7.918	-244.668	   4.682
     82.6840	   9.000	   7.801	-244.551	   4.681
     82.7174	   9.000	   7.679	-244.429	   4.680
     82.7508	   5.000	   7.558	-248.308	   4.679
     82.7842	  18.000	   7.478	-235.228	   4.678
     82.8177	  11.000	   7.414	-242.164	   4.677
     82.8511	   7.000	   7.361	-246.111	   4.676
     82.8845	   5.000	   7.319	-248.069	   4.675
     82.9179	   6.000	   7.304	-247.054	   4.674
     82.9514	   8.000	   7.279	-245.029	   4.673
     82.9848	   8.000	   7.250	-245.000	   4.672
     83.0182	   8.000	   7.239	-244.989	   4.671
     83.0516	   5.000	   7.234	-247.984	   4.670
     83.0850	  18.000	   7.235	-234.985	   4.670
     83.1185	   9.000	   7.242	-243.992	   4.669
     83.1519	  13.000	   7.254	-240.004	   4.668
     83.1853	  18.000	   7.271	-235.021	   4.667
     83.2187	  13.000	   7.295	-240.045	   4.666
     83.2522	   7.000	   7.324	-246.074	   4.665
     83.2856	  11.000	   7.360	-242.110	   4.664
     83.3190	  12.000	   7.403	-241.153	   4.664
     83.3524	  11.000	   7.454	-242.204	   4.663
     83.3858	  19.000	   7.514	-234.264	   4.662
     83.4193	  11.000	   7.583	-242.333	   4.661
     83.4527	   5.000	   7.664	-248.414	   4.661
     83.4861	  11.000	   7.757	-242.507	   4.660
     83.5195	  12.000	   7.866	-241.616	   4.659
     83.5530	  11.000	   7.993	-242.743	   4.658
     83.5864	  12.000	   8.142	-241.892	   4.658
     83.6198	  13.000	   8.317	-241.067	   4.657
     83.6532	  16.000	   8.524	-238.274	   4.656
     83.6866	  16.000	   8.772	-238.522	   4.656
     83.7201	   9.000	   9.070	-245.820	   4.655
     83.7535	   8.000	   9.435	-247.185	   4.655
     83.7869	  22.000	   9.891	-233.641	   4.654
     83.8203	  18.000	  10.474	-238.224	   4.653
     83.8538	  15.000	  11.241	-241.991	   4.653
     83.8872	  11.000	  12.279	-247.029	   4.652
     83.9206	  23.000	  13.706	-236.456	   4.652
     83.9540	  15.000	  15.691	-246.441	   4.651
     83.9874	  26.000	  18.412	-238.162	   4.651
     84.0209	  31.000	  22.040	-236.790	   4.650
     84.0543	  21.000	  26.657	-251.407	   4.650
     84.0877	  35.000	  32.096	-242.846	   4.649
     84.1211	  33.000	  37.592	-250.342	   4.649
     84.1546	  47.000	  41.593	-240.343	   4.648
     84.1880	  40.000	  42.495	-248.245	   4.648
     84.2214	  64.000	  40.302	-222.052	   4.647
     84.2548	  37.000	  36.699	-245.449	   4.647
     84.2883	  25.000	  33.408	-254.158	   4.647
     84.3217	  33.000	  31.286	-244.036	   4.646
     84.3551	  28.000	  30.376	-248.126	   4.646
     84.3885	  38.000	  30.077	-237.827	   4.645
     84.4219	  37.000	  29.350	-238.100	   4.645
     84.4554	  36.000	  27.396	-237.146	   4.645
     84.4888	  37.000	  24.386	-233.136	   4.645
     84.5222	  19.000	  21.088	-247.838	   4.644
     84.5556	  28.000	  18.096	-235.846	   4.644
     84.5891	  18.000	  15.647	-243.397	   4.644
     84.6225	  19.000	  13.748	-240.498	   4.643
     84.6559	  15.000	  12.324	-243.074	   4.643
     84.6893	  12.000	  11.275	-245.025	   4.643
     84.7227	   8.000	  10.504	-248.254	   4.643
     84.7562	   7.000	   9.935	-248.685	   4.643
     84.7896	  16.000	   9.506	-239.256	   4.642
     84.8230	  13.000	   9.176	-241.926	   4.642
     84.8564	  16.000	   8.918	-238.668	   4.642
     84.8899	   9.000	   8.714	-245.464	   4.642
     84.9233	  12.000	   8.553	-242.303	   4.642
     84.9567	   9.000	   8.426	-245.176	   4.642
     84.9901	   9.000	   8.329	-245.079	   4.642
     85.0235	  14.000	   8.258	-240.008	   4.642
     85.0570	  17.000	   8.211	-236.961	   4.641
     85.0904	  11.000	   8.187	-242.937	   4.641
     85.1238	   5.000	   8.185	-248.935	   4.641
     85.1572	  19.000	   8.208	-234.958	   4.641
     85.1907	  13.000	   8.258	-241.008	   4.641
     85.2241	  13.000	   8.339	-241.089	   4.641
     85.2575	   8.000	   8.461	-246.211	   4.641
     85.2909	  13.000	   8.638	-241.388	   4.641
     85.3244	  14.000	   8.890	-240.640	   4.641
     85.3578	  14.000	   9.248	-240.998	   4.642
     85.3912	  16.000	   9.750	-239.500	   4.642
     85.4246	  15.000	  10.443	-241.193	   4.642
     85.4580	  13.000	  11.369	-244.119	   4.642
     85.4915	  18.000	  12.550	-240.300	   4.642
     85.5249	  16.000	  13.953	-243.703	   4.642
     85.5583	  21.000	  15.405	-240.155	   4.642
     85.5917	  17.000	  16.538	-245.288	   4.642
     85.6252	  18.000	  16.928	-244.678	   4.643
     85.6586	  17.000	  16.506	-245.256	   4.643
     85.6920	  17.000	  15.655	-244.405	   4.643
     85.7254	  18.000	  14.832	-242.582	   4.643
     85.7589	  14.000	  14.294	-246.044	   4.643
     85.7923	  16.000	  14.091	-243.841	   4.644
     85.8257	  17.000	  14.106	-242.856	   4.644
     85.8591	  25.000	  14.130	-234.880	   4.644
     85.8925	  17.000	  13.908	-242.658	   4.644
     85.9259	  17.000	  13.402	-242.152	   4.645
     85.9594	  16.000	  12.784	-242.534	   4.645
     85.9928	  13.000	  12.243	-244.993	   4.645
     86.0262	  14.000	  11.882	-243.632	   4.646
     86.0596	  13.000	  11.741	-244.491	   4.646
     86.0931	  14.000	  11.829	-243.579	   4.646
     86.1265	   7.000	  12.180	-250.930	   4.647
     86.1599	  11.000	  12.830	-247.580	   4.647
     86.1933	  15.000	  13.854	-244.604	   4.648
     86.2268	  14.000	  15.368	-247.118	   4.648
     86.2602	  27.000	  17.589	-236.339	   4.648
     86.2936	  25.000	  20.538	-241.288	   4.649
     86.3270	  33.000	  24.413	-237.163	   4.649
     86.3604	  40.000	  29.219	-234.969	   4.650
     86.3939	  26.000	  34.627	-254.377	   4.650
     86.4273	  40.000	  39.652	-245.402	   4.651
     86.4607	  37.000	  42.675	-251.425	   4.651
     86.4941	  42.000	  42.516	-246.266	   4.652
     86.5276	  38.000	  39.770	-247.520	   4.653
     86.5610	  40.000	  36.113	-241.863	   4.653
     86.5944	  32.000	  33.025	-246.775	   4.654
     86.6278	  36.000	  31.125	-240.875	   4.654
     86.6613	  26.000	  30.364	-250.114	   4.655
     86.6947	  23.000	  30.140	-252.890	   4.655
     86.7281	  35.000	  29.470	-240.220	   4.656
     86.7615	  40.000	  27.613	-233.363	   4.657
     86.7949	  26.000	  24.708	-244.458	   4.657
     86.8284	  17.000	  21.470	-250.220	   4.658
     86.8618	  12.000	  18.490	-252.240	   4.659
     86.8952	   8.000	  16.011	-253.761	   4.660
     86.9286	   9.000	  14.059	-250.809	   4.660
     86.9621	  14.000	  12.570	-244.320	   4.661
     86.9955	  22.000	  11.453	-235.203	   4.662
     87.0289	  11.000	  10.619	-245.369	   4.663
     87.0623	  18.000	   9.991	-237.741	   4.663
     87.0957	  11.000	   9.509	-244.259	   4.664
     87.1292	  11.000	   9.129	-243.879	   4.665
     87.1626	   6.000	   8.824	-248.574	   4.666
     87.1960	  11.000	   8.572	-243.322	   4.667
     87.2294	   2.000	   8.362	-252.112	   4.667
     87.2629	  13.000	   8.183	-240.933	   4.668
     87.2963	   5.000	   8.031	-248.781	   4.669
     87.3297	   5.000	   7.900	-248.650	   4.670
     87.3631	   8.000	   7.787	-245.537	   4.671
     87.3965	   5.000	   7.688	-248.438	   4.672
     87.4300	   7.000	   7.601	-246.351	   4.673
     87.4634	   6.000	   7.525	-247.275	   4.674
     87.4968	  19.000	   7.458	-234.208	   4.675
     87.5302	  16.000	   7.398	-237.148	   4.676
     87.5637	   9.000	   7.346	-244.096	   4.677
     87.5971	   7.000	   7.299	-246.049	   4.678
     87.6305	  11.000	   7.257	-242.007	   4.679
     87.6639	  15.000	   7.220	-237.970	   4.680
     87.6974	   8.000	   7.187	-244.937	   4.681
     87.7308	   8.000	   7.158	-244.908	   4.682
     87.7642	  15.000	   7.132	-237.882	   4.683
     87.7976	   9.000	   7.109	-243.859	   4.684
     87.8310	   8.000	   7.089	-244.839	   4.685
     87.8645	  11.000	   7.072	-241.822	   4.686
     87.8979	  15.000	   7.056	-237.806	   4.687
     87.9313	  11.000	   7.043	-241.793	   4.689
     87.9647	   6.000	   7.032	-246.782	   4.690
     87.9982	   5.000	   7.022	-247.772	   4.691
     88.0316	   5.000	   6.983	-247.733	   4.692
     88.0650	   6.000	   6.978	-246.728	   4.693
     88.0984	   9.000	   6.974	-243.724	   4.694
     88.1318	   4.000	   6.972	-248.722	   4.696
     88.1653	   9.000	   6.971	-243.721	   4.697
     88.1987	  12.000	   6.972	-240.722	   4.698
     88.2321	   5.000	   6.974	-247.724	   4.699
     88.2655	   6.000	   6.978	-246.728	   4.701
     88.2990	   8.000	   6.967	-244.717	   4.702
     88.3324	   9.000	   6.974	-243.724	   4.703
     88.3658	  11.000	   6.982	-241.732	   4.705
     88.3992	   8.000	   6.991	-244.741	   4.706
     88.4326	   6.000	   7.002	-246.752	   4.707
     88.4661	   6.000	   7.015	-246.765	   4.709
     88.4995	   2.000	   7.029	-250.779	   4.710
     88.5329	   7.000	   7.045	-245.795	   4.712
     88.5663	   4.000	   7.062	-248.812	   4.713
     88.5998	   6.000	   7.082	-246.832	   4.714
     88.6332	   9.000	   7.103	-243.853	   4.716
     88.6666	  11.000	   7.126	-241.876	   4.717
     88.7000	   5.000	   7.151	-247.901	   4.719
     88.7334	   8.000	   7.179	-244.929	   4.720
     88.7669	  13.000	   7.209	-239.959	   4.722
     88.8003	   8.000	   7.242	-244.992	   4.723
     88.8337	  13.000	   7.278	-240.028	   4.725
     88.8671	   7.000	   7.317	-246.067	   4.726
     88.9006	   7.000	   7.360	-246.110	   4.728
     88.9340	   6.000	   7.406	-247.156	   4.729
     88.9674	   6.000	   7.456	-247.206	   4.731
     89.0008	  21.000	   7.512	-232.262	   4.733
     89.0343	   8.000	   7.572	-245.322	   4.734
     89.0677	   7.000	   7.638	-246.388	   4.736
     89.1011	  13.000	   7.710	-240.460	   4.738
     89.1345	  15.000	   7.790	-238.540	   4.739
     89.1679	  14.000	   7.886	-239.636	   4.741
     89.2014	   8.000	   7.983	-245.733	   4.743
     89.2348	   5.000	   8.091	-248.841	   4.744
     89.2682	   9.000	   8.210	-244.960	   4.746
     89.3016	   8.000	   8.344	-246.094	   4.748
     89.3351	   7.000	   8.493	-247.243	   4.749
     89.3685	  15.000	   8.661	-239.411	   4.751
     89.4019	   9.000	   8.851	-245.601	   4.753
     89.4353	   7.000	   9.066	-247.816	   4.755
     89.4688	   3.000	   9.317	-252.067	   4.756
     89.5022	  11.000	   9.592	-244.342	   4.758
     89.5356	  14.000	   9.921	-241.671	   4.760
     89.5690	  12.000	  10.306	-244.056	   4.762
     89.6024	  16.000	  10.757	-240.507	   4.764
     89.6359	   6.000	  11.293	-251.043	   4.766
     89.6693	   9.000	  11.933	-248.683	   4.768
     89.7027	  19.000	  12.703	-239.453	   4.769
     89.7361	  18.000	  13.639	-241.389	   4.771
     89.7695	  15.000	  14.787	-245.537	   4.773
     89.8030	  24.000	  16.241	-237.991	   4.775
     89.8364	  22.000	  18.136	-241.886	   4.777
     89.8698	  28.000	  20.675	-238.425	   4.779
     89.9032	  24.000	  24.115	-245.865	   4.781
     89.9367	  24.000	  28.738	-250.488	   4.783
     89.9701	  29.000	  34.824	-251.574	   4.785
     90.0035	  26.000	  42.558	-262.308	   4.787
     90.0369	  55.000	  51.830	-242.580	   4.789
     90.0703	  55.000	  61.864	-252.614	   4.791
     90.1038	  74.000	  70.734	-242.484	   4.793
     90.1372	  63.000	  75.618	-258.368	   4.795
     90.1706	  73.000	  74.793	-247.543	   4.797
     90.2040	  59.000	  69.475	-256.225	   4.800
     90.2375	  52.000	  62.662	-256.412	   4.802
     90.2709	  43.000	  56.804	-259.554	   4.804
     90.3043	  46.000	  53.031	-252.781	   4.806
     90.3377	  54.000	  51.398	-243.148	   4.808
     90.3712	  42.000	  51.076	-254.826	   4.810
     90.4046	  58.000	  50.602	-238.352	   4.812
     90.4380	  44.000	  48.351	-250.101	   4.815
     90.4714	  39.000	  43.892	-250.642	   4.817
     90.5048	  45.000	  38.165	-238.915	   4.819
     90.5383	  33.000	  32.396	-245.146	   4.821
     90.5717	  24.000	  27.320	-249.070	   4.824
     90.6051	  12.000	  23.161	-256.911	   4.826
     90.6385	  22.000	  19.878	-243.628	   4.828
     90.6720	  19.000	  17.372	-244.122	   4.830
     90.7054	  13.000	  15.470	-248.220	   4.833
     90.7388	  13.000	  14.030	-246.780	   4.835
     90.7722	  14.000	  12.927	-244.677	   4.837
     90.8056	   6.000	  12.067	-251.817	   4.840
     90.8391	  14.000	  11.381	-243.131	   4.842
     90.8725	  16.000	  10.823	-240.573	   4.845
     90.9059	   6.000	  10.360	-250.110	   4.847
     90.9393	   9.000	   9.970	-246.720	   4.849
     90.9728	  22.000	   9.638	-233.388	   4.852
     91.0062	  15.000	   9.353	-240.103	   4.854
     91.0396	  19.000	   9.105	-235.855	   4.857
     91.0730	  17.000	   8.889	-237.639	   4.859
     91.1064	  11.000	   8.700	-243.450	   4.862
     91.1399	  11.000	   8.533	-243.283	   4.864
     91.1733	   4.000	   8.385	-250.135	   4.867
     91.2067	  12.000	   8.254	-242.004	   4.869
     91.2401	   6.000	   8.193	-247.943	   4.872
     91.2736	   7.000	   8.088	-246.838	   4.874
     91.3070	   7.000	   7.995	-246.745	   4.877
     91.3404	   7.000	   7.910	-246.660	   4.879
     91.3738	  12.000	   7.834	-241.584	   4.882
     91.4073	  11.000	   7.766	-242.516	   4.885
     91.4407	   6.000	   7.703	-247.453	   4.887
     91.4741	   6.000	   7.647	-247.397	   4.890
     91.5075	  15.000	   7.596	-238.346	   4.893
     91.5409	   7.000	   7.578	-246.328	   4.895
     91.5744	  12.000	   7.536	-241.286	   4.898
     91.6078	   7.000	   7.498	-246.248	   4.901
     91.6412	   6.000	   7.463	-247.213	   4.903
     91.6746	   7.000	   7.432	-246.182	   4.906
     91.7081	  11.000	   7.404	-242.154	   4.909
     91.7415	  11.000	   7.379	-242.129	   4.912
     91.7749	   9.000	   7.356	-244.106	   4.914
     91.8083	   5.000	   7.335	-248.085	   4.917
     91.8418	   8.000	   7.317	-245.067	   4.920
     91.8752	   4.000	   7.301	-249.051	   4.923
     91.9086	  11.000	   7.287	-242.037	   4.926
     91.9420	   4.000	   7.275	-249.025	   4.928
     91.9754	  15.000	   7.265	-238.015	   4.931
     92.0089	   9.000	   7.257	-244.007	   4.934
     92.0423	   7.000	   7.251	-246.001	   4.937
     92.0757	   9.000	   7.246	-243.996	   4.940
     92.1091	   7.000	   7.244	-245.994	   4.943
     92.1425	  11.000	   7.243	-241.993	   4.946
     92.1760	   8.000	   7.244	-244.994	   4.949
     92.2094	   9.000	   7.247	-243.997	   4.952
     92.2428	  11.000	   7.253	-242.003	   4.955
     92.2762	   6.000	   7.261	-247.011	   4.958
     92.3097	   9.000	   7.271	-244.021	   4.961
     92.3431	   8.000	   7.284	-245.034	   4.964
     92.3765	   6.000	   7.300	-247.050	   4.967
     92.4099	  12.000	   7.319	-241.069	   4.970
     92.4433	  12.000	   7.342	-241.092	   4.973
     92.4768	   6.000	   7.370	-247.120	   4.976
     92.5102	   7.000	   7.402	-246.152	   4.979
     92.5436	   8.000	   7.441	-245.191	   4.982
     92.5770	   5.000	   7.487	-248.237	   4.985
     92.6105	  13.000	   7.542	-240.292	   4.988
     92.6439	  11.000	   7.613	-242.363	   4.991
     92.6773	  14.000	   7.694	-239.444	   4.994
     92.7107	   6.000	   7.793	-247.543	   4.998
     92.7442	   7.000	   7.918	-246.668	   5.001
     92.7776	   4.000	   8.079	-249.829	   5.004
     92.8110	  12.000	   8.289	-242.039	   5.007
     92.8444	   7.000	   8.567	-247.317	   5.010
     92.8778	  17.000	   8.938	-237.688	   5.014
     92.9113	   8.000	   9.427	-247.177	   5.017
     92.9447	   6.000	  10.064	-249.814	   5.020
     92.9781	  11.000	  10.862	-245.612	   5.023
     93.0115	  17.000	  11.816	-240.566	   5.027
     93.0450	  19.000	  12.859	-239.609	   5.030
     93.0784	  22.000	  13.818	-237.568	   5.033
     93.1118	  18.000	  14.423	-242.173	   5.037
     93.1452	  13.000	  14.468	-247.218	   5.040
     93.1786	  14.000	  14.008	-245.758	   5.043
     93.2121	  21.000	  13.316	-238.066	   5.047
     93.2455	   9.000	  12.659	-249.409	   5.050
     93.2789	   9.000	  12.187	-248.937	   5.054
     93.3123	  15.000	  11.941	-242.691	   5.057
     93.3458	  13.000	  11.881	-244.631	   5.060
     93.3792	  11.000	  11.895	-246.645	   5.064
     93.4126	   9.000	  11.820	-248.570	   5.067
     93.4460	  13.000	  11.530	-244.280	   5.071
     93.4794	   8.000	  11.046	-248.796	   5.074
     93.5129	  11.000	  10.459	-245.210	   5.078
     93.5463	   8.000	   9.893	-247.643	   5.081
     93.5797	   6.000	   9.403	-249.153	   5.085
     93.6131	  11.000	   9.007	-243.757	   5.088
     93.6466	   4.000	   8.699	-250.449	   5.092
     93.6800	   6.000	   8.466	-248.216	   5.095
     93.7134	  11.000	   8.293	-243.043	   5.099
     93.7468	   5.000	   8.167	-248.917	   5.103
     93.7803	   7.000	   8.081	-246.831	   5.106
     93.8137	  12.000	   8.017	-241.767	   5.110
     93.8471	   4.000	   7.972	-249.722	   5.113
     93.8805	   8.000	   7.942	-245.692	   5.117
     93.9139	  13.000	   7.924	-240.674	   5.121
     93.9474	   9.000	   7.916	-244.666	   5.125
     93.9808	  14.000	   7.917	-239.667	   5.128
     94.0142	   8.000	   7.926	-245.676	   5.132
     94.0476	   6.000	   7.941	-247.691	   5.136
     94.0811	   5.000	   7.964	-248.714	   5.139
     94.1145	   8.000	   7.924	-245.674	   5.143
     94.1479	   6.000	   7.961	-247.711	   5.147
     94.1813	   9.000	   8.004	-244.754	   5.151
     94.2148	   5.000	   8.055	-248.805	   5.154
     94.2482	   7.000	   8.112	-246.862	   5.158
     94.2816	  14.000	   8.178	-239.928	   5.162
     94.3150	   8.000	   8.252	-246.002	   5.166
     94.3484	  15.000	   8.335	-239.085	   5.170
     94.3819	   9.000	   8.429	-245.179	   5.174
     94.4153	  12.000	   8.500	-242.251	   5.178
     94.4487	  12.000	   8.620	-242.370	   5.181
     94.4821	   8.000	   8.755	-246.505	   5.185
     94.5155	  11.000	   8.908	-243.658	   5.189
     94.5490	  14.000	   9.081	-240.831	   5.193
     94.5824	  13.000	   9.278	-242.028	   5.197
     94.6158	   4.000	   9.504	-251.254	   5.201
     94.6492	  16.000	   9.765	-239.515	   5.205
     94.6827	  12.000	  10.066	-243.816	   5.209
     94.7161	   9.000	  10.418	-247.168	   5.213
     94.7495	  22.000	  10.833	-234.583	   5.217
     94.7829	   8.000	  11.328	-249.078	   5.221
     94.8163	  11.000	  11.927	-246.677	   5.225
     94.8498	  18.000	  12.667	-240.417	   5.229
     94.8832	  15.000	  13.597	-244.347	   5.233
     94.9166	  12.000	  14.791	-248.541	   5.237
     94.9500	  21.000	  16.352	-241.102	   5.242
     94.9835	  24.000	  18.407	-240.157	   5.246
     95.0169	  26.000	  21.116	-240.866	   5.250
     95.0503	  24.000	  24.648	-246.398	   5.254
     95.0837	  24.000	  29.161	-250.911	   5.258
     95.1172	  36.000	  34.740	-244.490	   5.262
     95.1506	  52.000	  41.253	-235.003	   5.267
     95.1840	  55.000	  48.134	-238.884	   5.271
     95.2174	  66.000	  54.108	-233.858	   5.275
     95.2508	  66.000	  57.437	-237.187	   5.279
     95.2843	  83.000	  57.051	-219.801	   5.283
     95.3177	  55.000	  53.592	-244.342	   5.288
     95.3511	  35.000	  48.858	-259.608	   5.292
     95.3845	  53.000	  44.473	-237.223	   5.296
     95.4180	  40.000	  41.320	-247.070	   5.301
     95.4514	  40.000	  39.634	-245.384	   5.305
     95.4848	  39.000	  39.180	-245.930	   5.309
     95.5182	  46.000	  39.283	-239.033	   5.314
     95.5517	  53.000	  38.926	-231.676	   5.318
     95.5851	  55.000	  37.237	-227.987	   5.322
     95.6185	  43.000	  34.121	-236.871	   5.327
     95.6519	  28.000	  30.223	-247.973	   5.331
     95.6853	  24.000	  26.299	-248.049	   5.336
     95.7188	  22.000	  22.799	-246.549	   5.340
     95.7522	  24.000	  19.885	-241.635	   5.344
     95.7856	  11.000	  17.549	-252.299	   5.349
     95.8190	  14.000	  15.720	-247.470	   5.353
     95.8524	  12.000	  14.307	-248.057	   5.358
     95.8859	  14.000	  13.221	-244.971	   5.362
     95.9193	  11.000	  12.381	-247.131	   5.367
     95.9527	  13.000	  11.726	-244.476	   5.371
     95.9861	  16.000	  11.206	-240.956	   5.376
     96.0196	  17.000	  10.788	-239.538	   5.380
     96.0530	  15.000	  10.448	-241.198	   5.385
     96.0864	  15.000	  10.168	-240.918	   5.390
     96.1198	   9.000	   9.936	-246.686	   5.394
     96.1533	  15.000	   9.746	-240.496	   5.399
     96.1867	  12.000	   9.591	-243.341	   5.403
     96.2201	   9.000	   9.467	-246.217	   5.408
     96.2535	   8.000	   9.374	-247.124	   5.413
     96.2869	  12.000	   9.309	-243.059	   5.417
     96.3204	   5.000	   9.276	-250.026	   5.422
     96.3538	  11.000	   9.277	-244.027	   5.427
     96.3872	   8.000	   9.320	-247.070	   5.432
     96.4206	   9.000	   9.412	-246.162	   5.436
     96.4541	  21.000	   9.565	-234.315	   5.441
     96.4875	  13.000	   9.791	-242.541	   5.446
     96.5209	  14.000	  10.103	-241.853	   5.451
     96.5543	   9.000	  10.506	-247.256	   5.455
     96.5877	  16.000	  10.995	-240.745	   5.460
     96.6212	  12.000	  11.530	-245.280	   5.465
     96.6546	  11.000	  12.018	-246.768	   5.470
     96.6880	  17.000	  12.325	-241.075	   5.475
     96.7214	  11.000	  12.344	-247.094	   5.479
     96.7549	  15.000	  12.097	-242.847	   5.484
     96.7883	  22.000	  11.715	-235.465	   5.489
     96.8217	  12.000	  11.339	-245.089	   5.494
     96.8551	   8.000	  11.054	-248.804	   5.499
     96.8885	  15.000	  10.894	-241.644	   5.504
     96.9220	   3.000	  10.851	-253.601	   5.509
     96.9554	  11.000	  10.887	-245.637	   5.514
     96.9888	  14.000	  10.930	-242.680	   5.519
     97.0222	  12.000	  10.901	-244.651	   5.524
     97.0557	  18.000	  10.765	-238.515	   5.529
     97.0891	  15.000	  10.554	-241.304	   5.534
     97.1225	  16.000	  10.334	-240.084	   5.539
     97.1559	   8.000	  10.164	-247.914	   5.544
     97.1893	  13.000	  10.068	-242.818	   5.549
     97.2228	   6.000	  10.083	-249.833	   5.554
     97.2562	  12.000	  10.214	-243.964	   5.559
     97.2896	  11.000	  10.482	-245.232	   5.564
     97.3230	  24.000	  10.905	-232.655	   5.569
     97.3565	  17.000	  11.506	-240.256	   5.574
     97.3899	  22.000	  12.306	-236.056	   5.580
     97.4233	  17.000	  13.307	-242.057	   5.585
     97.4567	  13.000	  14.473	-247.223	   5.590
     97.4902	  14.000	  15.679	-247.429	   5.595
     97.5236	  17.000	  16.693	-245.443	   5.600
     97.5570	  24.000	  17.208	-238.958	   5.605
     97.5904	  16.000	  17.061	-246.811	   5.611
     97.6238	  18.000	  16.383	-244.133	   5.616
     97.6573	  13.000	  15.488	-248.238	   5.621
     97.6907	  22.000	  14.657	-238.407	   5.626
     97.7241	  15.000	  14.044	-244.794	   5.632
     97.7575	  12.000	  13.695	-247.445	   5.637
     97.7910	   8.000	  13.579	-251.329	   5.642
     97.8244	  11.000	  13.594	-248.344	   5.648
     97.8578	  14.000	  13.572	-245.322	   5.653
     97.8912	  14.000	  13.345	-245.095	   5.658
     97.9247	  12.000	  12.849	-246.599	   5.664
     97.9581	   8.000	  12.166	-249.916	   5.669
     97.9915	   9.000	  11.433	-248.183	   5.674
     98.0249	  11.000	  10.751	-245.501	   5.680
     98.0583	  16.000	  10.166	-239.916	   5.685
     98.0918	   5.000	   9.687	-250.437	   5.691
     98.1252	   4.000	   9.305	-251.055	   5.696
     98.1586	  12.000	   9.006	-242.756	   5.702
     98.1920	   7.000	   8.773	-247.523	   5.707
     98.2254	  11.000	   8.593	-243.343	   5.713
     98.2589	   8.000	   8.452	-246.202	   5.718
     98.2923	  13.000	   8.342	-241.092	   5.724
     98.3257	  12.000	   8.256	-242.006	   5.729
     98.3591	   8.000	   8.187	-245.937	   5.735
     98.3926	   9.000	   8.134	-244.884	   5.740
     98.4260	   9.000	   8.094	-244.844	   5.746
     98.4594	   5.000	   8.066	-248.816	   5.751
     98.4928	   7.000	   8.049	-246.799	   5.757
     98.5262	   9.000	   8.042	-244.792	   5.763
     98.5597	   4.000	   8.042	-249.792	   5.768
     98.5931	   5.000	   8.044	-248.794	   5.774
     98.6265	   7.000	   8.041	-246.791	   5.779
     98.6599	   6.000	   8.027	-247.777	   5.785
     98.6934	   9.000	   7.999	-244.749	   5.791
     98.7268	   7.000	   7.964	-246.714	   5.797
     98.7602	   6.000	   7.929	-247.679	   5.802
     98.7936	  13.000	   7.898	-240.648	   5.808
     98.8271	   8.000	   7.875	-245.625	   5.814
     98.8605	   9.000	   7.859	-244.609	   5.819
     98.8939	  17.000	   7.850	-236.600	   5.825
     98.9273	  11.000	   7.844	-242.594	   5.831
     98.9607	  18.000	   7.836	-235.586	   5.837
     98.9942	   6.000	   7.824	-247.574	   5.843
     99.0276	  12.000	   7.806	-241.556	   5.848
     99.0610	   6.000	   7.784	-247.534	   5.854
     99.0944	   8.000	   7.763	-245.513	   5.860
     99.1279	  17.000	   7.744	-236.494	   5.866
     99.1613	   8.000	   7.728	-245.478	   5.872
     99.1947	   7.000	   7.715	-246.465	   5.878
     99.2281	   2.000	   7.705	-251.455	   5.884
     99.2616	  14.000	   7.697	-239.447	   5.890
     99.2950	   7.000	   7.691	-246.441	   5.896
     99.3284	   8.000	   7.686	-245.436	   5.902
     99.3618	   4.000	   7.629	-249.379	   5.908
     99.3952	   7.000	   7.627	-246.377	   5.914
     99.4287	   4.000	   7.626	-249.376	   5.920
     99.4621	   8.000	   7.626	-245.376	   5.926
     99.4955	  11.000	   7.626	-242.376	   5.932
     99.5289	  11.000	   7.627	-242.377	   5.938
     99.5623	   3.000	   7.628	-250.378	   5.944
     99.5958	   9.000	   7.630	-244.380	   5.950
     99.6292	   8.000	   7.632	-245.382	   5.956
     99.6626	   3.000	   7.634	-250.384	   5.962
     99.6960	   7.000	   7.609	-246.359	   5.968
     99.7295	   5.000	   7.612	-248.362	   5.974
     99.7629	  12.000	   7.616	-241.366	   5.980
     99.7963	   8.000	   7.619	-245.369	   5.986
     99.8297	   9.000	   7.623	-244.373	   5.993
     99.8632	   8.000	   7.626	-245.376	   5.999
     99.8966	   8.000	   7.630	-245.380	   6.005
     99.9300	  14.000	   7.634	-239.384	   6.011
     99.9634	   6.000	   7.643	-247.393	   6.017
     99.9968	   7.000	   7.675	-246.425	   6.024
     24.4271	        	        	        	        	       0	(  0  1  2)	  0  1
     24.4883	        	        	        	        	       0	(  0  1  2)	  0  2
     33.5286	        	        	        	        	       0	(  1  0  4)	  0  1
     33.6138	        	        	        	        	       0	(  1  0  4)	  0  2
     36.1322	        	        	        	        	       0	(  1  1  0)	  0  1
     36.2244	        	        	        	        	       0	(  1  1  0)	  0  2
     39.6767	        	        	        	        	       0	(  0  0  6)	  0  1
     39.7786	        	        	        	        	       0	(  0  0  6)	  0  2
     41.4136	        	        	        	        	       0	(  1  1  3)	  0  1
     41.5204	        	        	        	        	       0	(  1  1  3)	  0  2
     44.1324	        	        	        	        	       0	(  2  0  2)	  0  1
     44.2469	        	        	        	        	       0	(  2  0  2)	  0  2
     50.1516	        	        	        	        	       0	(  0  2  4)	  0  1
     50.2838	        	        	        	        	       0	(  0  2  4)	  0  2
     54.7775	        	        	        	        	       0	(  1  1  6)	  0  1
     54.9238	        	        	        	        	       0	(  1  1  6)	  0  2
     57.0406	        	        	        	        	       0	(  2  1  1)	  0  1
     57.1941	        	        	        	        	       0	(  2  1  1)	  0  2
     58.2827	        	        	        	        	       0	(  0  1  8)	  0  1
     58.3458	        	        	        	        	       0	(  1  2  2)	  0  1
     58.4402	        	        	        	        	       0	(  0  1  8)	  0  2
     58.5035	        	        	        	        	       0	(  1  2  2)	  0  2
     63.3990	        	        	        	        	       0	(  2  1  4)	  0  1
     63.5734	        	        	        	        	       0	(  2  1  4)	  0  2
     65.0525	        	        	        	        	       0	(  3  0  0)	  0  1
     65.2326	        	        	        	        	       0	(  3  0  0)	  0  2
     67.0452	        	        	        	        	       0	(  1  2  5)	  0  1
     67.2323	        	        	        	        	       0	(  1  2  5)	  0  2
     70.5675	        	        	        	        	       0	(  2  0  8)	  0  1
     70.7674	        	        	        	        	       0	(  2  0  8)	  0  2
     72.8638	        	        	        	        	       0	(  1  0 10)	  0  1
     73.0723	        	        	        	        	       0	(  1  0 10)	  0  2
     73.2670	        	        	        	        	       0	(  1  1  9)	  0  1
     73.4771	        	        	        	        	       0	(  1  1  9)	  0  2
     76.3541	        	        	        	        	       0	(  2  1  7)	  0  1
     76.5762	        	        	        	        	       0	(  2  1  7)	  0  2
     76.7784	        	        	        	        	       0	(  2  2  0)	  0  1
     77.0022	        	        	        	        	       0	(  2  2  0)	  0  2
     79.0087	        	        	        	        	       0	(  0  3  6)	  0  1
     79.0087	        	        	        	        	       0	(  3  0  6)	  0  1
     79.2416	        	        	        	        	       0	(  0  3  6)	  0  2
     79.2416	        	        	        	        	       0	(  3  0  6)	  0  2
     80.1583	        	        	        	        	       0	(  2  2  3)	  0  1
     80.3960	        	        	        	        	       0	(  2  2  3)	  0  2
     80.9134	        	        	        	        	       0	(  1  3  1)	  0  1
     81.1543	        	        	        	        	       0	(  1  3  1)	  0  2
     81.9753	        	        	        	        	       0	(  1  2  8)	  0  1
     82.0295	        	        	        	        	       0	(  3  1  2)	  0  1
     82.2208	        	        	        	        	       0	(  1  2  8)	  0  2
     82.2753	        	        	        	        	       0	(  3  1  2)	  0  2
     84.1723	        	        	        	        	       0	(  0  2 10)	  0  1
     84.4275	        	        	        	        	       0	(  0  2 10)	  0  2
     85.6141	        	        	        	        	       0	(  0  0 12)	  0  1
     85.8758	        	        	        	        	       0	(  0  0 12)	  0  2
     86.4685	        	        	        	        	       0	(  1  3  4)	  0  1
     86.7342	        	        	        	        	       0	(  1  3  4)	  0  2
     89.7826	        	        	        	        	       0	(  3  1  5)	  0  1
     90.0642	        	        	        	        	       0	(  3  1  5)	  0  2
     90.1417	        	        	        	        	       0	(  2  2  6)	  0  1
     90.4250	        	        	        	        	       0	(  2  2  6)	  0  2
     93.1232	        	        	        	        	       0	(  0  4  2)	  0  1
     93.4217	        	        	        	        	       0	(  0  4  2)	  0  2
     95.2566	        	        	        	        	       0	(  2  1 10)	  0  1
     95.5665	        	        	        	        	       0	(  2  1 10)	  0  2
     96.7008	        	        	        	        	       0	(  1  1 12)	  0  1
     97.0187	        	        	        	        	       0	(  1  1 12)	  0  2
     97.5600	        	        	        	        	       0	(  4  0  4)	  0  1
     97.8828	        	        	        	        	       0	(  4  0  4)	  0  2
     98.6482	        	        	        	        	       0	(  1  3  7)	  0  1
     98.9772	        	        	        	        	       0	(  1  3  7)	  0  2
    103.0922	        	        	        	        	       0	(  1  2 11)	  0  1
    103.2026	        	        	        	        	       0	(  3  2  1)	  0  1
    103.4484	        	        	        	        	       0	(  1  2 11)	  0  2
    103.5595	        	        	        	        	       0	(  3  2  1)	  0  2
    104.2842	        	        	        	        	       0	(  3  1  8)	  0  1
    104.3396	        	        	        	        	       0	(  2  3  2)	  0  1
    104.6481	        	        	        	        	       0	(  3  1  8)	  0  2
    104.7039	        	        	        	        	       0	(  2  3  2)	  0  2
    106.9506	        	        	        	        	       0	(  2  2  9)	  0  1
    107.3326	        	        	        	        	       0	(  2  2  9)	  0  2
    108.7810	        	        	        	        	       0	(  0  1 14)	  0  1
    108.9514	        	        	        	        	       0	(  3  2  4)	  0  1
    109.1761	        	        	        	        	       0	(  0  1 14)	  0  2
    109.3478	        	        	        	        	       0	(  3  2  4)	  0  2
    110.5350	        	        	        	        	       0	(  4  1  0)	  0  1
    110.9432	        	        	        	        	       0	(  4  1  0)	  0  2
    112.4943	        	        	        	        	       0	(  2  3  5)	  0  1
    112.9179	        	        	        	        	       0	(  2  3  5)	  0  2
