 Cr2O3   Chi2:  1.9362  CELL:    4.95821   4.95821  13.59570   90.0000   90.0000  120.0000   SPGR: R -3 c                 TEMP:      0.00
  1   2394     1.54060     1.54439     0.00000    -0.03104     0.00000    0
    86     0     1
       0.00000      20.00000
 2Theta	Yobs	Ycal	Yobs-Ycal	Backg	Posr	(hkl)	K
     20.0167	  35.000	  26.841	-229.624	  25.714
     20.0501	  34.000	  26.819	-230.601	  25.692
     20.0836	  37.000	  26.796	-227.579	  25.669
     20.1170	  33.000	  26.774	-231.556	  25.647
     20.1504	  36.000	  26.751	-228.534	  25.624
     20.1838	  28.000	  26.729	-236.511	  25.602
     20.2172	  27.000	  26.706	-237.489	  25.579
     20.2507	  35.000	  26.684	-229.466	  25.557
     20.2841	  33.000	  26.661	-231.444	  25.534
     20.3175	  32.000	  26.639	-232.421	  25.512
     20.3509	  39.000	  26.616	-225.399	  25.489
     20.3844	  32.000	  26.594	-232.376	  25.467
     20.4178	  37.000	  26.571	-227.354	  25.444
     20.4512	  43.000	  26.549	-221.331	  25.422
     20.4846	  38.000	  26.526	-226.309	  25.399
     20.5181	  22.000	  26.504	-242.286	  25.377
     20.5515	  35.000	  26.482	-229.264	  25.354
     20.5849	  37.000	  26.459	-227.242	  25.332
     20.6183	  28.000	  26.437	-236.219	  25.310
     20.6517	  31.000	  26.414	-233.197	  25.287
     20.6852	  31.000	  26.392	-233.175	  25.265
     20.7186	  23.000	  26.370	-241.152	  25.243
     20.7520	  33.000	  26.347	-231.130	  25.220
     20.7854	  35.000	  26.325	-229.108	  25.198
     20.8189	  33.000	  26.303	-231.085	  25.176
     20.8523	  34.000	  26.280	-230.063	  25.153
     20.8857	  22.000	  26.258	-242.041	  25.131
     20.9191	  34.000	  26.236	-230.018	  25.109
     20.9525	  33.000	  26.214	-230.996	  25.086
     20.9860	  33.000	  26.191	-230.974	  25.064
     21.0194	  28.000	  26.169	-235.952	  25.042
     21.0528	  34.000	  26.147	-229.929	  25.020
     21.0862	  33.000	  26.125	-230.907	  24.997
     21.1197	  28.000	  26.102	-235.885	  24.975
     21.1531	  39.000	  26.080	-224.863	  24.953
     21.1865	  19.000	  26.058	-244.841	  24.931
     21.2199	  17.000	  26.036	-246.818	  24.909
     21.2533	  25.000	  26.014	-238.796	  24.886
     21.2868	  24.000	  25.991	-239.774	  24.864
     21.3202	  19.000	  25.969	-244.752	  24.842
     21.3536	  42.000	  25.947	-221.730	  24.820
     21.3870	  16.000	  25.925	-247.708	  24.798
     21.4205	  33.000	  25.903	-230.685	  24.776
     21.4539	  21.000	  25.881	-242.663	  24.754
     21.4873	  21.000	  25.859	-242.641	  24.732
     21.5207	  24.000	  25.837	-239.619	  24.710
     21.5541	  25.000	  25.815	-238.597	  24.687
     21.5876	  23.000	  25.965	-240.747	  24.665
     21.6210	  18.000	  25.947	-245.729	  24.643
     21.6544	  31.000	  26.015	-232.797	  24.621
     21.6878	  26.000	  25.999	-237.782	  24.599
     21.7213	  27.000	  25.984	-236.766	  24.577
     21.7547	  34.000	  25.969	-229.751	  24.555
     21.7881	  45.000	  25.954	-218.736	  24.533
     21.8215	  21.000	  25.939	-242.722	  24.511
     21.8550	  21.000	  25.925	-242.707	  24.489
     21.8884	  26.000	  25.911	-237.693	  24.467
     21.9218	  27.000	  25.897	-236.680	  24.446
     21.9552	  29.000	  25.884	-234.666	  24.424
     21.9886	  34.000	  25.871	-229.653	  24.402
     22.0221	  29.000	  25.858	-234.641	  24.380
     22.0555	  36.000	  25.846	-227.629	  24.358
     22.0889	  25.000	  25.834	-238.617	  24.336
     22.1223	  37.000	  25.823	-226.606	  24.314
     22.1558	  34.000	  25.812	-229.595	  24.292
     22.1892	  31.000	  25.802	-232.584	  24.270
     22.2226	  36.000	  25.792	-227.575	  24.249
     22.2560	  25.000	  25.783	-238.565	  24.227
     22.2894	  35.000	  25.774	-228.557	  24.205
     22.3229	  38.000	  25.766	-225.548	  24.183
     22.3563	  25.000	  25.758	-238.541	  24.161
     22.3897	  23.000	  25.752	-240.534	  24.140
     22.4231	  34.000	  25.746	-229.528	  24.118
     22.4566	  24.000	  25.741	-239.523	  24.096
     22.4900	  25.000	  25.736	-238.519	  24.074
     22.5234	  33.000	  25.733	-230.515	  24.053
     22.5568	  26.000	  25.730	-237.513	  24.031
     22.5902	  21.000	  25.729	-242.511	  24.009
     22.6237	  32.000	  25.729	-231.511	  23.987
     22.6571	  26.000	  25.729	-237.512	  23.966
     22.6905	  37.000	  25.732	-226.514	  23.944
     22.7239	  32.000	  25.735	-231.518	  23.922
     22.7574	  29.000	  25.740	-234.523	  23.901
     22.7908	  42.000	  25.747	-221.529	  23.879
     22.8242	  23.000	  25.755	-240.538	  23.857
     22.8576	  28.000	  25.765	-235.548	  23.836
     22.8911	  29.000	  25.778	-234.560	  23.814
     22.9245	  35.000	  25.792	-228.575	  23.793
     22.9579	  28.000	  25.809	-235.591	  23.771
     22.9913	  27.000	  25.828	-236.611	  23.749
     23.0247	  25.000	  25.850	-238.633	  23.728
     23.0582	  39.000	  25.876	-224.658	  23.706
     23.0916	  25.000	  25.905	-238.687	  23.685
     23.1250	  37.000	  25.937	-226.720	  23.663
     23.1584	  33.000	  25.974	-230.756	  23.642
     23.1919	  18.000	  26.015	-245.797	  23.620
     23.2253	  32.000	  26.061	-231.844	  23.599
     23.2587	  29.000	  26.113	-234.895	  23.577
     23.2921	  31.000	  26.171	-232.953	  23.556
     23.3255	  42.000	  26.236	-222.018	  23.534
     23.3590	  34.000	  26.308	-230.091	  23.513
     23.3924	  35.000	  26.390	-229.172	  23.491
     23.4258	  66.000	  26.481	-198.263	  23.470
     23.4592	  60.000	  26.583	-204.366	  23.449
     23.4927	  38.000	  26.698	-226.480	  23.427
     23.5261	  39.000	  26.827	-225.609	  23.406
     23.5595	  37.000	  26.972	-227.755	  23.384
     23.5929	  33.000	  27.137	-231.920	  23.363
     23.6263	  28.000	  27.323	-237.106	  23.342
     23.6598	  40.000	  27.535	-225.318	  23.320
     23.6932	  31.000	  27.776	-234.559	  23.299
     23.7266	  33.000	  28.053	-232.835	  23.278
     23.7600	  38.000	  28.371	-228.153	  23.256
     23.7935	  33.000	  28.738	-233.521	  23.235
     23.8269	  26.000	  29.165	-240.948	  23.214
     23.8603	  38.000	  29.665	-229.447	  23.193
     23.8937	  33.000	  30.253	-235.035	  23.171
     23.9271	  34.000	  30.951	-234.733	  23.150
     23.9606	  32.000	  31.787	-237.570	  23.129
     23.9940	  40.000	  32.799	-230.582	  23.108
     24.0274	  39.000	  34.038	-232.821	  23.086
     24.0608	  36.000	  35.575	-237.358	  23.065
     24.0943	  40.000	  37.511	-235.293	  23.044
     24.1277	  44.000	  39.992	-233.775	  23.023
     24.1611	  47.000	  43.241	-234.024	  23.002
     24.1945	  48.000	  47.609	-237.392	  22.980
     24.2280	  69.000	  53.734	-222.516	  22.959
     24.2614	  70.000	  63.101	-230.884	  22.938
     24.2948	  98.000	  79.838	-219.621	  22.917
     24.3282	 131.000	 114.559	-221.342	  22.896
     24.3616	 189.000	 187.452	-236.235	  22.875
     24.3951	 322.000	 321.145	-236.928	  22.854
     24.4285	 497.000	 513.953	-254.736	  22.833
     24.4619	 692.000	 692.751	-238.534	  22.811
     24.4953	 776.000	 730.958	-192.741	  22.790
     24.5288	 603.000	 627.951	-262.734	  22.769
     24.5622	 392.000	 451.593	-297.375	  22.748
     24.5956	 224.000	 282.662	-296.445	  22.727
     24.6290	 180.000	 169.027	-226.810	  22.706
     24.6624	 107.000	 106.696	-237.479	  22.685
     24.6959	  95.000	  75.983	-218.766	  22.664
     24.7293	  55.000	  60.626	-243.409	  22.643
     24.7627	  69.000	  51.875	-220.657	  22.622
     24.7961	  32.000	  46.115	-251.898	  22.601
     24.8296	  42.000	  41.984	-237.766	  22.580
     24.8630	  33.000	  38.888	-243.670	  22.560
     24.8964	  28.000	  36.504	-246.286	  22.539
     24.9298	  45.000	  34.628	-227.411	  22.518
     24.9632	  45.000	  33.126	-225.908	  22.497
     24.9967	  49.000	  31.903	-220.686	  22.476
     25.0301	  28.000	  30.894	-240.677	  22.455
     25.0635	  32.000	  30.051	-235.834	  22.434
     25.0969	  28.000	  29.339	-239.122	  22.413
     25.1304	  29.000	  28.732	-237.514	  22.392
     25.1638	  32.000	  28.209	-233.991	  22.372
     25.1972	  24.000	  27.755	-241.537	  22.351
     25.2306	  14.000	  27.358	-251.141	  22.330
     25.2640	  22.000	  27.009	-242.791	  22.309
     25.2975	  28.000	  26.699	-236.482	  22.288
     25.3309	  27.000	  26.423	-237.206	  22.268
     25.3643	  39.000	  26.176	-224.958	  22.247
     25.3977	  22.000	  25.953	-241.735	  22.226
     25.4312	  33.000	  25.751	-230.534	  22.205
     25.4646	  23.000	  25.568	-240.350	  22.185
     25.4980	  23.000	  25.400	-240.183	  22.164
     25.5314	  26.000	  25.246	-237.029	  22.143
     25.5649	  36.000	  25.105	-226.887	  22.123
     25.5983	  21.000	  24.974	-241.757	  22.102
     25.6317	  27.000	  24.853	-235.635	  22.081
     25.6651	  19.000	  24.740	-243.523	  22.060
     25.6985	  36.000	  24.635	-226.417	  22.040
     25.7320	  29.000	  24.536	-233.319	  22.019
     25.7654	  29.000	  24.444	-233.226	  21.999
     25.7988	  26.000	  24.357	-236.139	  21.978
     25.8322	  21.000	  24.275	-241.057	  21.957
     25.8657	  23.000	  24.197	-238.979	  21.937
     25.8991	  23.000	  24.123	-238.906	  21.916
     25.9325	  26.000	  24.053	-235.836	  21.896
     25.9659	  22.000	  23.987	-239.769	  21.875
     25.9993	  29.000	  23.923	-232.705	  21.855
     26.0328	  27.000	  23.862	-234.645	  21.834
     26.0662	  16.000	  23.804	-245.586	  21.813
     26.0996	  34.000	  23.748	-227.530	  21.793
     26.1330	  15.000	  23.694	-246.477	  21.772
     26.1665	  28.000	  23.642	-233.425	  21.752
     26.1999	  22.000	  23.592	-239.375	  21.731
     26.2333	  21.000	  23.544	-240.326	  21.711
     26.2667	  27.000	  23.497	-234.280	  21.691
     26.3001	  11.000	  23.452	-250.234	  21.670
     26.3336	  19.000	  23.408	-242.190	  21.650
     26.3670	  33.000	  23.365	-228.148	  21.629
     26.4004	  32.000	  23.324	-229.106	  21.609
     26.4338	  21.000	  23.283	-240.066	  21.588
     26.4673	  23.000	  23.244	-238.026	  21.568
     26.5007	  12.000	  23.205	-248.988	  21.548
     26.5341	  32.000	  23.168	-228.950	  21.527
     26.5675	  28.000	  23.131	-232.914	  21.507
     26.6010	  33.000	  23.095	-227.878	  21.487
     26.6344	  26.000	  23.060	-234.842	  21.466
     26.6678	  15.000	  23.025	-245.808	  21.446
     26.7012	  17.000	  22.991	-243.774	  21.426
     26.7346	  22.000	  22.958	-238.741	  21.405
     26.7681	  21.000	  22.925	-239.708	  21.385
     26.8015	  24.000	  22.893	-236.676	  21.365
     26.8349	  22.000	  22.862	-238.644	  21.345
     26.8683	  33.000	  22.831	-227.613	  21.324
     26.9018	  27.000	  22.800	-233.582	  21.304
     26.9352	  17.000	  22.770	-243.552	  21.284
     26.9686	  23.000	  22.740	-237.522	  21.264
     27.0020	  29.000	  22.710	-231.493	  21.243
     27.0354	  15.000	  22.681	-245.464	  21.223
     27.0689	  24.000	  22.653	-236.435	  21.203
     27.1023	  18.000	  22.624	-242.407	  21.183
     27.1357	  23.000	  22.596	-237.379	  21.163
     27.1691	  28.000	  22.568	-232.351	  21.143
     27.2026	  31.000	  22.541	-229.324	  21.122
     27.2360	  17.000	  22.514	-243.296	  21.102
     27.2694	  16.000	  22.487	-244.269	  21.082
     27.3028	  25.000	  22.460	-235.243	  21.062
     27.3362	  19.000	  22.434	-241.216	  21.042
     27.3697	  24.000	  22.408	-236.190	  21.022
     27.4031	  16.000	  22.382	-244.164	  21.002
     27.4365	  28.000	  22.356	-232.138	  20.982
     27.4699	  14.000	  22.330	-246.113	  20.962
     27.5034	  21.000	  22.305	-239.088	  20.942
     27.5368	  36.000	  22.128	-223.910	  20.922
     27.5702	  26.000	  22.029	-233.811	  20.902
     27.6036	  22.000	  22.009	-237.791	  20.882
     27.6371	  15.000	  21.989	-244.771	  20.862
     27.6705	  21.000	  21.969	-238.751	  20.842
     27.7039	  21.000	  21.949	-238.731	  20.822
     27.7373	  23.000	  21.929	-236.711	  20.802
     27.7707	  26.000	  21.909	-233.692	  20.782
     27.8042	  29.000	  21.889	-230.672	  20.762
     27.8376	  18.000	  21.869	-241.652	  20.742
     27.8710	  21.000	  21.849	-238.632	  20.722
     27.9044	  16.000	  21.829	-243.612	  20.702
     27.9379	  19.000	  21.809	-240.592	  20.682
     27.9713	  19.000	  21.790	-240.572	  20.662
     28.0047	  29.000	  21.770	-230.552	  20.643
     28.0381	  23.000	  21.750	-236.532	  20.623
     28.0715	  16.000	  21.730	-243.513	  20.603
     28.1050	  34.000	  21.710	-225.493	  20.583
     28.1384	  16.000	  21.690	-243.473	  20.563
     28.1718	  19.000	  21.671	-240.453	  20.543
     28.2052	  26.000	  21.651	-233.433	  20.524
     28.2387	  17.000	  21.631	-242.414	  20.504
     28.2721	  21.000	  21.611	-238.394	  20.484
     28.3055	  25.000	  21.591	-234.374	  20.464
     28.3389	  31.000	  21.572	-228.354	  20.445
     28.3723	  26.000	  21.552	-233.335	  20.425
     28.4058	  25.000	  21.532	-234.315	  20.405
     28.4392	  22.000	  21.513	-237.295	  20.385
     28.4726	  28.000	  21.493	-231.275	  20.366
     28.5060	  19.000	  21.473	-240.256	  20.346
     28.5395	  22.000	  21.453	-237.236	  20.326
     28.5729	  21.000	  21.434	-238.216	  20.307
     28.6063	  27.000	  21.414	-232.197	  20.287
     28.6397	  18.000	  21.394	-241.177	  20.267
     28.6731	  19.000	  21.375	-240.157	  20.248
     28.7066	  25.000	  21.355	-234.138	  20.228
     28.7400	  11.000	  21.336	-248.118	  20.209
     28.7734	  16.000	  21.316	-243.099	  20.189
     28.8068	  18.000	  21.296	-241.079	  20.169
     28.8403	  24.000	  21.277	-235.059	  20.150
     28.8737	  26.000	  21.257	-233.040	  20.130
     28.9071	  28.000	  21.238	-231.020	  20.111
     28.9405	  26.000	  21.218	-233.001	  20.091
     28.9740	  19.000	  21.199	-239.981	  20.072
     29.0074	  22.000	  21.179	-236.962	  20.052
     29.0408	  19.000	  21.160	-239.942	  20.033
     29.0742	  18.000	  21.140	-240.923	  20.013
     29.1076	  25.000	  21.121	-233.903	  19.994
     29.1411	  19.000	  21.101	-239.884	  19.974
     29.1745	  16.000	  21.082	-242.864	  19.955
     29.2079	  31.000	  21.062	-227.845	  19.935
     29.2413	  24.000	  21.043	-234.825	  19.916
     29.2748	  23.000	  21.023	-235.806	  19.896
     29.3082	  26.000	  21.004	-232.787	  19.877
     29.3416	  25.000	  20.985	-233.767	  19.857
     29.3750	  21.000	  20.965	-237.748	  19.838
     29.4084	  32.000	  20.946	-226.728	  19.819
     29.4419	  25.000	  20.926	-233.709	  19.799
     29.4753	  23.000	  20.907	-235.690	  19.780
     29.5087	  24.000	  20.888	-234.670	  19.761
     29.5421	  19.000	  20.868	-239.651	  19.741
     29.5756	  22.000	  20.849	-236.632	  19.722
     29.6090	  24.000	  20.830	-234.612	  19.703
     29.6424	  25.000	  20.810	-233.593	  19.683
     29.6758	  16.000	  20.791	-242.574	  19.664
     29.7092	  31.000	  20.772	-227.554	  19.645
     29.7427	  29.000	  20.753	-229.535	  19.626
     29.7761	  26.000	  20.733	-232.516	  19.606
     29.8095	  23.000	  20.714	-235.497	  19.587
     29.8429	  29.000	  20.695	-229.477	  19.568
     29.8764	  32.000	  20.676	-226.458	  19.549
     29.9098	  26.000	  20.656	-232.439	  19.529
     29.9432	  31.000	  20.637	-227.420	  19.510
     29.9766	  31.000	  20.618	-227.401	  19.491
     30.0101	  37.000	  20.599	-221.381	  19.472
     30.0435	  27.000	  20.580	-231.362	  19.453
     30.0769	  33.000	  20.561	-225.343	  19.433
     30.1103	  36.000	  20.541	-222.324	  19.414
     30.1437	  36.000	  20.522	-222.305	  19.395
     30.1772	  36.000	  20.503	-222.286	  19.376
     30.2106	  37.000	  20.484	-221.267	  19.357
     30.2440	  40.000	  20.465	-218.248	  19.338
     30.2774	  49.000	  20.446	-209.228	  19.319
     30.3109	  44.000	  20.427	-214.209	  19.300
     30.3443	  40.000	  20.408	-218.190	  19.281
     30.3777	  47.000	  20.389	-211.171	  19.262
     30.4111	  40.000	  20.370	-218.152	  19.243
     30.4445	  29.000	  20.351	-229.133	  19.224
     30.4780	  28.000	  20.332	-230.114	  19.205
     30.5114	  36.000	  20.313	-222.095	  19.186
     30.5448	  32.000	  20.294	-226.076	  19.167
     30.5782	  31.000	  20.275	-227.057	  19.148
     30.6117	  32.000	  20.256	-226.038	  19.129
     30.6451	  33.000	  20.237	-225.019	  19.110
     30.6785	  38.000	  20.511	-220.293	  19.091
     30.7119	  32.000	  20.499	-226.281	  19.072
     30.7453	  28.000	  20.631	-230.414	  19.053
     30.7788	  24.000	  20.623	-234.406	  19.034
     30.8122	  29.000	  20.615	-229.398	  19.015
     30.8456	  31.000	  20.608	-227.390	  18.996
     30.8790	  29.000	  20.601	-229.384	  18.977
     30.9125	  33.000	  20.595	-225.377	  18.958
     30.9459	  28.000	  20.589	-230.371	  18.939
     30.9793	  25.000	  20.583	-233.366	  18.921
     31.0127	  26.000	  20.578	-232.361	  18.902
     31.0462	  31.000	  20.574	-227.356	  18.883
     31.0796	  24.000	  20.570	-234.353	  18.864
     31.1130	  23.000	  20.567	-235.350	  18.845
     31.1464	  26.000	  20.565	-232.347	  18.827
     31.1798	  23.000	  20.563	-235.345	  18.808
     31.2133	  32.000	  20.562	-226.344	  18.789
     31.2467	  31.000	  20.561	-227.344	  18.770
     31.2801	  35.000	  20.562	-223.344	  18.752
     31.3135	  32.000	  20.563	-226.346	  18.733
     31.3470	  26.000	  20.566	-232.348	  18.714
     31.3804	  12.000	  20.569	-246.351	  18.695
     31.4138	  28.000	  20.573	-230.356	  18.677
     31.4472	  19.000	  20.579	-239.361	  18.658
     31.4806	  22.000	  20.585	-236.368	  18.639
     31.5141	  24.000	  20.593	-234.375	  18.621
     31.5475	  14.000	  20.602	-244.385	  18.602
     31.5809	  28.000	  20.612	-230.395	  18.583
     31.6143	  18.000	  20.624	-240.407	  18.565
     31.6478	  23.000	  20.638	-235.421	  18.546
     31.6812	  17.000	  20.653	-241.436	  18.528
     31.7146	  19.000	  20.670	-239.453	  18.509
     31.7480	  23.000	  20.690	-235.472	  18.490
     31.7814	  19.000	  20.711	-239.493	  18.472
     31.8149	  23.000	  20.734	-235.517	  18.453
     31.8483	  24.000	  20.760	-234.543	  18.435
     31.8817	  27.000	  20.789	-231.571	  18.416
     31.9151	  26.000	  20.820	-232.602	  18.398
     31.9486	  17.000	  20.854	-241.637	  18.379
     31.9820	  34.000	  20.892	-224.675	  18.361
     32.0154	  37.000	  20.933	-221.716	  18.342
     32.0488	  43.000	  20.979	-215.761	  18.324
     32.0822	  44.000	  21.028	-214.811	  18.305
     32.1157	  55.000	  21.082	-203.865	  18.287
     32.1491	  71.000	  21.142	-187.924	  18.268
     32.1825	  57.000	  21.207	-201.989	  18.250
     32.2159	  53.000	  21.278	-206.060	  18.231
     32.2494	  40.000	  21.355	-219.138	  18.213
     32.2828	  31.000	  21.440	-228.223	  18.195
     32.3162	  25.000	  21.534	-234.316	  18.176
     32.3496	  35.000	  21.636	-224.419	  18.158
     32.3830	  28.000	  21.748	-231.531	  18.139
     32.4165	  24.000	  21.872	-235.655	  18.121
     32.4499	  34.000	  22.008	-225.791	  18.103
     32.4833	  26.000	  22.159	-233.941	  18.084
     32.5167	  32.000	  22.325	-228.107	  18.066
     32.5502	  29.000	  22.509	-231.291	  18.048
     32.5836	  32.000	  22.713	-228.496	  18.029
     32.6170	  33.000	  22.940	-227.723	  18.011
     32.6504	  27.000	  23.194	-233.977	  17.993
     32.6839	  32.000	  23.478	-229.261	  17.975
     32.7173	  23.000	  23.797	-238.579	  17.956
     32.7507	  32.000	  24.156	-229.939	  17.938
     32.7841	  33.000	  24.563	-229.345	  17.920
     32.8175	  21.000	  25.025	-241.807	  17.902
     32.8510	  24.000	  25.552	-239.334	  17.884
     32.8844	  32.000	  26.157	-231.940	  17.865
     32.9178	  27.000	  26.856	-237.638	  17.847
     32.9512	  35.000	  27.667	-230.450	  17.829
     32.9847	  32.000	  28.617	-234.400	  17.811
     33.0181	  24.000	  29.737	-243.519	  17.793
     33.0515	  29.000	  31.069	-239.852	  17.775
     33.0849	  37.000	  32.670	-233.453	  17.756
     33.1183	  34.000	  34.616	-238.398	  17.738
     33.1518	  29.000	  37.011	-245.793	  17.720
     33.1852	  31.000	  40.001	-246.784	  17.702
     33.2186	  46.000	  43.799	-235.581	  17.684
     33.2520	  42.000	  48.993	-244.776	  17.666
     33.2855	  57.000	  55.540	-236.322	  17.648
     33.3189	  73.000	  64.605	-229.388	  17.630
     33.3523	  97.000	  78.329	-219.112	  17.612
     33.3857	 104.000	 101.555	-235.337	  17.594
     33.4192	 148.000	 146.462	-236.245	  17.576
     33.4526	 201.000	 234.621	-271.404	  17.558
     33.4860	 392.000	 390.458	-236.241	  17.540
     33.5194	 631.000	 617.667	-224.450	  17.522
     33.5528	 889.000	 853.069	-201.851	  17.504
     33.5863	 949.000	 951.130	-239.913	  17.486
     33.6197	 908.000	 883.112	-212.895	  17.468
     33.6531	 805.000	 741.410	-174.193	  17.450
     33.6865	 552.000	 549.369	-235.152	  17.432
     33.7200	 343.000	 361.485	-256.267	  17.414
     33.7534	 224.000	 226.225	-240.008	  17.396
     33.7868	 132.000	 144.782	-250.565	  17.378
     33.8202	  99.000	 100.555	-239.338	  17.361
     33.8536	 102.000	  76.996	-212.779	  17.343
     33.8871	  65.000	  63.396	-236.179	  17.325
     33.9205	  56.000	  54.523	-236.305	  17.307
     33.9539	  65.000	  48.180	-220.963	  17.289
     33.9873	  37.000	  43.419	-244.202	  17.271
     34.0208	  40.000	  39.739	-237.522	  17.254
     34.0542	  34.000	  36.837	-240.619	  17.236
     34.0876	  31.000	  34.508	-241.291	  17.218
     34.1210	  24.000	  32.613	-246.395	  17.200
     34.1544	  24.000	  31.051	-244.833	  17.182
     34.1879	  26.000	  29.749	-241.532	  17.165
     34.2213	  31.000	  28.653	-235.436	  17.147
     34.2547	  36.000	  27.724	-229.507	  17.129
     34.2881	  35.000	  26.930	-229.712	  17.111
     34.3216	  37.000	  26.247	-227.029	  17.094
     34.3550	  44.000	  25.656	-219.439	  17.076
     34.3884	  43.000	  25.143	-219.925	  17.058
     34.4218	  26.000	  24.695	-236.478	  17.041
     34.4552	  36.000	  24.304	-226.087	  17.023
     34.4887	  33.000	  23.961	-228.744	  17.005
     34.5221	  39.000	  23.661	-222.443	  16.988
     34.5555	  37.000	  23.397	-224.179	  16.970
     34.5889	  58.000	  23.166	-202.948	  16.953
     34.6224	  63.000	  22.964	-197.746	  16.935
     34.6558	  58.000	  22.788	-202.570	  16.917
     34.6892	  45.000	  22.636	-215.419	  16.900
     34.7226	  38.000	  22.506	-222.289	  16.882
     34.7561	  46.000	  22.396	-214.179	  16.865
     34.7895	  24.000	  22.306	-236.088	  16.847
     34.8229	  26.000	  22.233	-234.015	  16.830
     34.8563	  31.000	  22.178	-228.960	  16.812
     34.8897	  35.000	  22.139	-224.922	  16.795
     34.9232	  38.000	  22.118	-221.900	  16.777
     34.9566	  28.000	  22.113	-231.895	  16.760
     34.9900	  24.000	  22.125	-235.907	  16.742
     35.0234	  25.000	  22.154	-234.936	  16.725
     35.0569	  33.000	  22.201	-226.983	  16.707
     35.0903	  25.000	  22.267	-235.049	  16.690
     35.1237	  18.000	  22.353	-242.135	  16.672
     35.1571	  24.000	  22.460	-236.243	  16.655
     35.1905	  36.000	  22.591	-224.374	  16.638
     35.2240	  40.000	  22.748	-220.530	  16.620
     35.2574	  23.000	  22.933	-237.715	  16.603
     35.2908	  27.000	  23.150	-233.933	  16.585
     35.3242	  29.000	  23.403	-232.186	  16.568
     35.3577	  33.000	  23.698	-228.481	  16.551
     35.3911	  31.000	  24.040	-230.823	  16.533
     35.4245	  18.000	  24.437	-244.220	  16.516
     35.4579	  24.000	  24.899	-238.682	  16.499
     35.4913	  16.000	  25.437	-247.220	  16.481
     35.5248	  27.000	  26.066	-236.848	  16.464
     35.5582	  37.000	  26.804	-227.586	  16.447
     35.5916	  25.000	  27.675	-240.458	  16.430
     35.6250	  27.000	  28.710	-239.493	  16.412
     35.6585	  37.000	  29.949	-230.732	  16.395
     35.6919	  29.000	  31.446	-240.229	  16.378
     35.7253	  33.000	  33.273	-238.056	  16.361
     35.7587	  31.000	  35.530	-242.313	  16.343
     35.7921	  46.000	  38.358	-230.140	  16.326
     35.8256	  44.000	  41.959	-235.742	  16.309
     35.8590	  43.000	  46.638	-241.420	  16.292
     35.8924	  63.000	  52.880	-227.663	  16.275
     35.9258	  60.000	  61.587	-239.369	  16.257
     35.9593	  83.000	  74.822	-229.605	  16.240
     35.9927	 101.000	  97.711	-234.493	  16.223
     36.0261	 134.000	 141.676	-245.458	  16.206
     36.0595	 198.000	 225.779	-265.561	  16.189
     36.0930	 330.000	 369.341	-277.123	  16.172
     36.1264	 537.000	 570.849	-271.631	  16.155
     36.1598	 764.000	 768.002	-241.784	  16.138
     36.1932	 801.000	 836.337	-273.120	  16.121
     36.2266	 715.000	 770.562	-293.345	  16.104
     36.2601	 672.000	 656.106	-221.889	  16.087
     36.2935	 441.000	 501.727	-298.510	  16.069
     36.3269	 297.000	 340.244	-281.026	  16.052
     36.3603	 197.000	 217.561	-258.344	  16.035
     36.3938	 151.000	 140.329	-227.111	  16.018
     36.4272	  81.000	  96.870	-253.653	  16.001
     36.4606	  70.000	  73.365	-241.148	  15.985
     36.4940	  68.000	  59.902	-229.684	  15.968
     36.5274	  45.000	  51.260	-244.042	  15.951
     36.5609	  43.000	  45.145	-239.927	  15.934
     36.5943	  36.000	  40.565	-242.348	  15.917
     36.6277	  44.000	  36.765	-230.547	  15.900
     36.6611	  35.000	  33.975	-236.757	  15.883
     36.6946	  24.000	  31.733	-245.516	  15.866
     36.7280	  31.000	  29.774	-236.557	  15.849
     36.7614	  25.000	  28.264	-241.046	  15.832
     36.7948	  34.000	  27.019	-230.802	  15.815
     36.8282	  33.000	  25.951	-230.734	  15.799
     36.8617	  24.000	  25.040	-238.823	  15.782
     36.8951	  26.000	  24.265	-236.048	  15.765
     36.9285	  17.000	  23.585	-244.368	  15.748
     36.9619	  13.000	  22.992	-247.774	  15.731
     36.9954	  22.000	  22.470	-238.252	  15.715
     37.0288	  24.000	  22.008	-235.791	  15.698
     37.0622	  17.000	  21.598	-242.381	  15.681
     37.0956	  18.000	  21.231	-241.014	  15.664
     37.1291	  22.000	  20.902	-236.685	  15.647
     37.1625	  31.000	  20.605	-227.388	  15.631
     37.1959	  18.000	  20.336	-240.119	  15.614
     37.2293	  17.000	  20.092	-240.875	  15.597
     37.2627	  15.000	  19.869	-242.652	  15.581
     37.2962	  21.000	  19.665	-236.447	  15.564
     37.3296	  17.000	  19.477	-240.260	  15.547
     37.3630	  16.000	  19.304	-241.087	  15.531
     37.3964	  15.000	  19.145	-241.927	  15.514
     37.4299	  21.000	  18.997	-235.779	  15.497
     37.4633	  18.000	  18.859	-238.642	  15.481
     37.4967	  18.000	  18.731	-238.514	  15.464
     37.5301	  19.000	  18.612	-237.394	  15.447
     37.5635	  13.000	  18.500	-243.283	  15.431
     37.5970	  13.000	  18.395	-243.178	  15.414
     37.6304	  12.000	  18.297	-244.079	  15.398
     37.6638	  12.000	  18.204	-243.986	  15.381
     37.6972	  15.000	  18.116	-240.899	  15.365
     37.7307	  17.000	  18.034	-238.816	  15.348
     37.7641	  19.000	  17.956	-236.738	  15.332
     37.7975	  16.000	  17.881	-239.664	  15.315
     37.8309	  16.000	  17.811	-239.594	  15.298
     37.8643	  12.000	  17.744	-243.527	  15.282
     37.8978	  18.000	  17.681	-237.463	  15.266
     37.9312	  16.000	  17.620	-239.402	  15.249
     37.9646	  21.000	  17.562	-234.345	  15.233
     37.9980	  21.000	  17.507	-234.289	  15.216
     38.0315	  13.000	  17.454	-242.237	  15.200
     38.0649	  14.000	  17.404	-241.186	  15.183
     38.0983	  18.000	  17.355	-237.138	  15.167
     38.1317	   9.000	  17.309	-246.092	  15.150
     38.1651	   9.000	  17.265	-246.047	  15.134
     38.1986	  16.000	  17.222	-239.005	  15.118
     38.2320	  14.000	  17.182	-240.964	  15.101
     38.2654	  16.000	  17.143	-238.925	  15.085
     38.2988	  17.000	  17.105	-237.888	  15.069
     38.3323	  11.000	  17.070	-243.852	  15.052
     38.3657	  11.000	  17.035	-243.818	  15.036
     38.3991	  16.000	  17.003	-238.785	  15.020
     38.4325	  14.000	  16.971	-240.754	  15.003
     38.4660	   8.000	  16.942	-246.724	  14.987
     38.4994	   6.000	  17.009	-248.791	  14.971
     38.5328	   9.000	  16.984	-245.767	  14.955
     38.5662	  16.000	  16.961	-238.744	  14.938
     38.5996	  17.000	  16.987	-237.770	  14.922
     38.6331	  12.000	  16.969	-242.751	  14.906
     38.6665	  14.000	  16.952	-240.734	  14.890
     38.6999	  14.000	  16.937	-240.720	  14.873
     38.7333	  14.000	  16.925	-240.707	  14.857
     38.7668	  13.000	  16.914	-241.697	  14.841
     38.8002	  16.000	  16.906	-238.689	  14.825
     38.8336	  13.000	  16.901	-241.684	  14.809
     38.8670	   8.000	  16.899	-246.681	  14.793
     38.9004	   9.000	  16.900	-245.682	  14.776
     38.9339	  12.000	  16.904	-242.687	  14.760
     38.9673	  15.000	  16.913	-239.696	  14.744
     39.0007	  13.000	  16.927	-241.709	  14.728
     39.0341	  12.000	  16.946	-242.729	  14.712
     39.0676	  16.000	  16.972	-238.755	  14.696
     39.1010	  14.000	  17.006	-240.789	  14.680
     39.1344	  18.000	  17.049	-236.832	  14.664
     39.1678	  18.000	  17.105	-236.887	  14.648
     39.2012	   6.000	  17.174	-248.957	  14.632
     39.2347	  15.000	  17.013	-239.796	  14.616
     39.2681	  18.000	  17.129	-236.911	  14.600
     39.3015	  14.000	  17.274	-241.056	  14.584
     39.3349	  14.000	  17.335	-241.118	  14.568
     39.3684	  11.000	  17.575	-244.357	  14.552
     39.4018	  16.000	  17.888	-239.670	  14.536
     39.4352	  17.000	  18.308	-239.090	  14.520
     39.4686	  18.000	  18.897	-238.680	  14.504
     39.5021	  17.000	  19.802	-240.585	  14.488
     39.5355	  24.000	  21.369	-235.152	  14.472
     39.5689	  25.000	  24.329	-237.112	  14.456
     39.6023	  36.000	  29.823	-231.606	  14.440
     39.6357	  42.000	  38.915	-234.698	  14.424
     39.6692	  68.000	  51.340	-221.122	  14.408
     39.7026	  84.000	  63.132	-216.915	  14.392
     39.7360	  69.000	  66.886	-235.669	  14.377
     39.7694	  71.000	  62.720	-229.502	  14.361
     39.8029	  58.000	  56.458	-236.240	  14.345
     39.8363	  57.000	  48.358	-229.141	  14.329
     39.8697	  42.000	  38.762	-234.545	  14.313
     39.9031	  27.000	  30.639	-241.422	  14.298
     39.9365	  21.000	  25.125	-241.907	  14.282
     39.9700	  22.000	  21.841	-237.623	  14.266
     40.0034	  23.000	  20.016	-234.799	  14.250
     40.0368	  17.000	  18.989	-239.771	  14.234
     40.0702	  18.000	  18.358	-238.140	  14.219
     40.1037	  16.000	  17.929	-239.712	  14.203
     40.1371	  13.000	  17.619	-242.402	  14.187
     40.1705	  18.000	  17.388	-237.170	  14.172
     40.2039	  11.000	  17.213	-243.995	  14.156
     40.2373	  14.000	  17.080	-240.863	  14.140
     40.2708	  14.000	  16.981	-240.763	  14.125
     40.3042	  14.000	  16.907	-240.690	  14.109
     40.3376	  11.000	  16.856	-243.638	  14.093
     40.3710	  16.000	  16.823	-238.605	  14.078
     40.4045	   8.000	  16.806	-246.589	  14.062
     40.4379	  14.000	  16.805	-240.587	  14.046
     40.4713	  18.000	  16.817	-236.600	  14.031
     40.5047	  18.000	  16.843	-236.626	  14.015
     40.5382	  17.000	  16.883	-237.666	  14.000
     40.5716	  12.000	  16.938	-242.720	  13.984
     40.6050	  12.000	  17.008	-242.790	  13.968
     40.6384	  21.000	  17.094	-233.877	  13.953
     40.6718	  11.000	  17.199	-243.981	  13.937
     40.7053	  21.000	  17.324	-234.107	  13.922
     40.7387	  22.000	  17.473	-233.256	  13.906
     40.7721	  16.000	  17.650	-239.433	  13.891
     40.8055	   9.000	  17.860	-246.642	  13.875
     40.8390	  23.000	  18.108	-232.891	  13.860
     40.8724	  12.000	  18.404	-244.186	  13.844
     40.9058	  16.000	  18.757	-240.540	  13.829
     40.9392	  18.000	  19.182	-238.965	  13.814
     40.9726	  17.000	  19.697	-240.480	  13.798
     41.0061	  19.000	  20.328	-239.111	  13.783
     41.0395	  17.000	  21.108	-241.891	  13.767
     41.0729	  23.000	  22.087	-236.870	  13.752
     41.1063	  21.000	  23.335	-240.117	  13.736
     41.1398	  27.000	  24.956	-235.739	  13.721
     41.1732	  23.000	  27.125	-241.907	  13.706
     41.2066	  27.000	  30.184	-240.967	  13.690
     41.2400	  36.000	  34.853	-236.635	  13.675
     41.2734	  47.000	  42.920	-233.702	  13.660
     41.3069	  58.000	  58.000	-237.783	  13.644
     41.3403	  86.000	  85.587	-237.369	  13.629
     41.3737	 116.000	 130.646	-252.429	  13.614
     41.4071	 205.000	 191.533	-224.316	  13.599
     41.4406	 297.000	 248.826	-189.609	  13.583
     41.4740	 300.000	 266.614	-204.396	  13.568
     41.5074	 256.000	 245.856	-227.638	  13.553
     41.5408	 269.000	 216.426	-185.208	  13.538
     41.5742	 203.000	 180.205	-214.988	  13.522
     41.6077	 141.000	 134.679	-231.461	  13.507
     41.6411	 100.000	  93.638	-231.420	  13.492
     41.6745	  58.000	  64.607	-244.390	  13.477
     41.7079	  50.000	  46.729	-234.512	  13.462
     41.7414	  33.000	  36.569	-241.352	  13.446
     41.7748	  39.000	  30.814	-229.597	  13.431
     41.8082	  22.000	  27.292	-243.075	  13.416
     41.8416	  25.000	  24.902	-237.685	  13.401
     41.8751	  21.000	  23.151	-239.933	  13.386
     41.9085	  13.000	  21.810	-246.593	  13.371
     41.9419	  18.000	  20.757	-240.540	  13.356
     41.9753	  17.000	  19.912	-240.695	  13.340
     42.0087	  15.000	  19.224	-242.007	  13.325
     42.0422	  15.000	  18.656	-241.439	  13.310
     42.0756	  17.000	  18.180	-238.963	  13.295
     42.1090	   7.000	  17.778	-248.561	  13.280
     42.1424	  15.000	  17.434	-240.217	  13.265
     42.1759	  18.000	  17.138	-236.921	  13.250
     42.2093	  15.000	  16.881	-239.663	  13.235
     42.2427	  21.000	  16.655	-233.438	  13.220
     42.2761	   9.000	  16.456	-245.239	  13.205
     42.3095	  18.000	  16.280	-236.062	  13.190
     42.3430	  17.000	  16.122	-236.905	  13.175
     42.3764	  11.000	  15.981	-242.763	  13.160
     42.4098	  15.000	  15.853	-238.636	  13.145
     42.4432	  12.000	  15.738	-241.521	  13.130
     42.4767	  11.000	  15.633	-242.416	  13.116
     42.5101	   6.000	  15.537	-247.320	  13.101
     42.5435	  16.000	  15.450	-237.232	  13.086
     42.5769	  12.000	  15.369	-241.152	  13.071
     42.6103	  17.000	  15.295	-236.077	  13.056
     42.6438	  12.000	  15.226	-241.008	  13.041
     42.6772	  14.000	  15.162	-238.945	  13.026
     42.7106	   9.000	  15.103	-243.885	  13.011
     42.7440	   7.000	  15.048	-245.830	  12.997
     42.7775	  12.000	  14.996	-240.779	  12.982
     42.8109	  11.000	  14.932	-241.714	  12.967
     42.8443	  17.000	  14.888	-235.670	  12.952
     42.8777	  21.000	  14.846	-231.629	  12.937
     42.9111	   8.000	  14.799	-244.582	  12.923
     42.9446	  14.000	  14.763	-238.546	  12.908
     42.9780	  19.000	  14.730	-233.513	  12.893
     43.0114	   5.000	  14.699	-247.482	  12.878
     43.0448	   5.000	  14.670	-247.453	  12.864
     43.0783	   8.000	  14.644	-244.426	  12.849
     43.1117	  15.000	  14.620	-237.402	  12.834
     43.1451	  11.000	  14.598	-241.380	  12.820
     43.1785	   9.000	  14.578	-243.360	  12.805
     43.2120	   9.000	  14.560	-243.343	  12.790
     43.2454	  13.000	  14.546	-239.328	  12.776
     43.2788	   6.000	  14.533	-246.316	  12.761
     43.3122	  11.000	  14.524	-241.306	  12.746
     43.3456	  11.000	  14.517	-241.300	  12.732
     43.3791	   9.000	  14.514	-243.297	  12.717
     43.4125	   8.000	  14.515	-244.298	  12.703
     43.4459	   8.000	  14.520	-244.303	  12.688
     43.4793	  11.000	  14.530	-241.312	  12.673
     43.5128	   7.000	  14.545	-245.328	  12.659
     43.5462	  16.000	  14.568	-236.350	  12.644
     43.5796	  15.000	  14.598	-237.381	  12.630
     43.6130	  12.000	  14.639	-240.421	  12.615
     43.6464	  11.000	  14.691	-241.473	  12.601
     43.6799	   8.000	  14.758	-244.541	  12.586
     43.7133	  17.000	  14.844	-235.627	  12.572
     43.7467	   8.000	  14.955	-244.737	  12.557
     43.7801	   8.000	  15.097	-244.880	  12.543
     43.8136	  11.000	  15.282	-242.065	  12.528
     43.8470	   9.000	  15.526	-244.309	  12.514
     43.8804	  12.000	  15.855	-241.637	  12.499
     43.9138	   5.000	  16.314	-249.097	  12.485
     43.9473	  12.000	  17.005	-242.787	  12.471
     43.9807	  11.000	  18.161	-244.943	  12.456
     44.0141	  12.000	  20.274	-246.056	  12.442
     44.0475	  19.000	  24.151	-242.933	  12.427
     44.0809	  26.000	  30.657	-242.440	  12.413
     44.1144	  35.000	  39.979	-242.762	  12.399
     44.1478	  34.000	  50.114	-253.897	  12.384
     44.1812	  47.000	  55.571	-246.354	  12.370
     44.2146	  49.000	  53.576	-242.358	  12.356
     44.2481	  43.000	  48.929	-243.712	  12.341
     44.2815	  38.000	  44.192	-243.974	  12.327
     44.3149	  38.000	  37.838	-237.621	  12.313
     44.3483	  29.000	  30.623	-239.406	  12.298
     44.3817	  21.000	  24.703	-241.485	  12.284
     44.4152	  22.000	  20.687	-236.470	  12.270
     44.4486	  13.000	  18.254	-243.036	  12.256
     44.4820	  15.000	  16.855	-239.638	  12.241
     44.5154	   9.000	  16.031	-244.813	  12.227
     44.5489	  16.000	  15.412	-237.195	  12.213
     44.5823	  19.000	  15.036	-233.819	  12.199
     44.6157	  17.000	  14.752	-235.534	  12.185
     44.6491	   9.000	  14.485	-243.268	  12.170
     44.6825	  12.000	  14.306	-240.089	  12.156
     44.7160	  15.000	  14.159	-236.942	  12.142
     44.7494	  18.000	  14.037	-233.820	  12.128
     44.7828	  14.000	  13.933	-237.716	  12.114
     44.8162	   7.000	  13.844	-244.626	  12.100
     44.8497	  15.000	  13.766	-236.549	  12.086
     44.8831	   7.000	  13.698	-244.481	  12.072
     44.9165	  17.000	  13.637	-234.420	  12.057
     44.9499	   6.000	  13.583	-245.366	  12.043
     44.9833	   9.000	  13.534	-242.316	  12.029
     45.0168	  11.000	  13.489	-240.271	  12.015
     45.0502	   7.000	  13.448	-244.230	  12.001
     45.0836	  16.000	  13.409	-235.192	  11.987
     45.1170	   9.000	  13.374	-242.157	  11.973
     45.1505	  13.000	  13.341	-238.123	  11.959
     45.1839	  14.000	  13.309	-237.092	  11.945
     45.2173	   9.000	  13.280	-242.063	  11.931
     45.2507	  13.000	  13.252	-238.034	  11.917
     45.2841	  15.000	  13.225	-236.008	  11.903
     45.3176	   8.000	  13.200	-242.982	  11.889
     45.3510	  16.000	  13.175	-234.958	  11.875
     45.3844	   5.000	  13.151	-245.934	  11.861
     45.4178	  12.000	  13.129	-238.911	  11.848
     45.4513	   5.000	  13.106	-245.889	  11.834
     45.4847	   8.000	  13.085	-242.868	  11.820
     45.5181	   4.000	  13.064	-246.847	  11.806
     45.5515	  14.000	  13.044	-236.826	  11.792
     45.5850	   8.000	  13.024	-242.806	  11.778
     45.6184	  11.000	  13.004	-239.787	  11.764
     45.6518	   7.000	  12.985	-243.768	  11.751
     45.6852	  15.000	  12.967	-235.749	  11.737
     45.7186	   8.000	  12.948	-242.731	  11.723
     45.7521	   7.000	  12.930	-243.713	  11.709
     45.7855	  16.000	  12.913	-234.695	  11.695
     45.8189	   6.000	  12.895	-244.678	  11.682
     45.8523	  16.000	  12.878	-234.660	  11.668
     45.8858	   8.000	  12.861	-242.643	  11.654
     45.9192	   9.000	  12.844	-241.627	  11.640
     45.9526	  12.000	  12.827	-238.610	  11.627
     45.9860	  13.000	  12.811	-237.593	  11.613
     46.0194	   9.000	  12.795	-241.577	  11.599
     46.0529	  11.000	  12.778	-239.561	  11.585
     46.0863	  13.000	  12.762	-237.545	  11.572
     46.1197	  16.000	  12.747	-234.529	  11.558
     46.1531	  11.000	  12.731	-239.513	  11.544
     46.1866	   7.000	  12.715	-243.498	  11.531
     46.2200	   9.000	  12.700	-241.482	  11.517
     46.2534	   7.000	  12.684	-243.467	  11.504
     46.2868	   9.000	  12.669	-241.451	  11.490
     46.3203	  15.000	  12.654	-235.436	  11.476
     46.3537	  12.000	  12.638	-238.421	  11.463
     46.3871	  15.000	  12.623	-235.406	  11.449
     46.4205	   9.000	  12.608	-241.391	  11.436
     46.4539	  16.000	  12.593	-234.376	  11.422
     46.4874	  15.000	  12.579	-235.361	  11.408
     46.5208	   9.000	  12.564	-241.346	  11.395
     46.5542	   6.000	  12.549	-244.332	  11.381
     46.5876	   8.000	  12.535	-242.317	  11.368
     46.6211	   7.000	  12.520	-243.303	  11.354
     46.6545	  11.000	  12.505	-239.288	  11.341
     46.6879	   9.000	  12.491	-241.273	  11.327
     46.7213	   9.000	  12.476	-241.259	  11.314
     46.7547	   7.000	  12.462	-243.245	  11.300
     46.7882	   8.000	  12.448	-242.230	  11.287
     46.8216	  14.000	  12.433	-236.216	  11.274
     46.8550	  15.000	  12.419	-235.202	  11.260
     46.8884	  17.000	  12.405	-233.188	  11.247
     46.9219	   6.000	  12.391	-244.173	  11.233
     46.9553	  12.000	  12.377	-238.159	  11.220
     46.9887	   7.000	  12.363	-243.145	  11.207
     47.0221	  15.000	  12.349	-235.131	  11.193
     47.0555	  11.000	  12.335	-239.117	  11.180
     47.0890	   9.000	  12.321	-241.103	  11.167
     47.1224	  13.000	  12.307	-237.089	  11.153
     47.1558	  16.000	  12.293	-234.075	  11.140
     47.1892	  12.000	  12.416	-238.199	  11.127
     47.2227	  13.000	  12.405	-237.188	  11.113
     47.2561	  11.000	  12.395	-239.177	  11.100
     47.2895	  15.000	  12.369	-235.151	  11.087
     47.3229	  13.000	  12.427	-237.210	  11.073
     47.3563	  15.000	  12.419	-235.201	  11.060
     47.3898	   8.000	  12.403	-242.186	  11.047
     47.4232	  12.000	  12.395	-238.178	  11.034
     47.4566	  13.000	  12.388	-237.170	  11.021
     47.4900	   7.000	  12.380	-243.163	  11.007
     47.5235	   6.000	  12.373	-244.156	  10.994
     47.5569	   5.000	  12.366	-245.149	  10.981
     47.5903	  15.000	  12.360	-235.142	  10.968
     47.6237	   4.000	  12.353	-246.136	  10.955
     47.6572	  13.000	  12.347	-237.130	  10.942
     47.6906	   7.000	  12.342	-243.124	  10.928
     47.7240	  11.000	  12.336	-239.119	  10.915
     47.7574	  13.000	  12.331	-237.114	  10.902
     47.7908	  13.000	  12.326	-237.109	  10.889
     47.8243	  17.000	  12.322	-233.104	  10.876
     47.8577	  19.000	  12.318	-231.100	  10.863
     47.8911	  16.000	  12.314	-234.097	  10.850
     47.9245	  22.000	  12.311	-228.093	  10.837
     47.9580	  26.000	  12.308	-224.091	  10.824
     47.9914	  25.000	  12.306	-225.088	  10.811
     48.0248	  15.000	  12.304	-235.086	  10.798
     48.0582	  21.000	  12.303	-229.085	  10.785
     48.0916	  18.000	  12.302	-232.084	  10.772
     48.1251	   8.000	  12.302	-242.084	  10.759
     48.1585	  13.000	  12.302	-237.085	  10.746
     48.1919	  18.000	  12.303	-232.086	  10.733
     48.2253	  15.000	  12.305	-235.088	  10.720
     48.2588	  12.000	  12.308	-238.091	  10.707
     48.2922	   9.000	  12.312	-241.094	  10.694
     48.3256	  17.000	  12.316	-233.099	  10.681
     48.3590	   9.000	  12.321	-241.104	  10.668
     48.3924	   9.000	  12.328	-241.110	  10.655
     48.4259	  18.000	  12.335	-232.118	  10.642
     48.4593	  13.000	  12.344	-237.126	  10.629
     48.4927	  14.000	  12.354	-236.136	  10.617
     48.5261	  17.000	  12.365	-233.147	  10.604
     48.5596	  11.000	  12.378	-239.160	  10.591
     48.5930	   9.000	  12.392	-241.174	  10.578
     48.6264	   7.000	  12.408	-243.190	  10.565
     48.6598	  12.000	  12.426	-238.208	  10.552
     48.6932	   9.000	  12.446	-241.228	  10.540
     48.7267	  14.000	  12.468	-236.250	  10.527
     48.7601	  14.000	  12.492	-236.275	  10.514
     48.7935	  22.000	  12.519	-228.302	  10.501
     48.8269	  17.000	  12.550	-233.332	  10.489
     48.8604	  11.000	  12.583	-239.365	  10.476
     48.8938	  14.000	  12.619	-236.402	  10.463
     48.9272	  18.000	  12.660	-232.443	  10.450
     48.9606	  18.000	  12.705	-232.487	  10.438
     48.9940	  13.000	  12.754	-237.537	  10.425
     49.0275	  12.000	  12.809	-238.592	  10.412
     49.0609	  13.000	  12.870	-237.652	  10.400
     49.0943	  19.000	  12.937	-231.720	  10.387
     49.1277	  28.000	  13.012	-222.794	  10.374
     49.1612	  19.000	  13.094	-231.877	  10.362
     49.1946	  13.000	  13.187	-237.969	  10.349
     49.2280	  19.000	  13.289	-232.072	  10.337
     49.2614	  15.000	  13.404	-236.187	  10.324
     49.2949	  23.000	  13.533	-228.316	  10.311
     49.3283	  14.000	  13.678	-237.460	  10.299
     49.3617	  17.000	  13.841	-234.624	  10.286
     49.3951	   8.000	  14.026	-243.808	  10.274
     49.4285	  16.000	  14.235	-236.018	  10.261
     49.4620	  14.000	  14.475	-238.257	  10.249
     49.4954	  21.000	  14.749	-231.531	  10.236
     49.5288	  15.000	  15.064	-237.847	  10.224
     49.5622	   6.000	  15.430	-247.213	  10.211
     49.5957	  18.000	  15.857	-235.640	  10.199
     49.6291	  16.000	  16.359	-238.141	  10.186
     49.6625	  15.000	  16.953	-239.735	  10.174
     49.6959	  18.000	  17.663	-237.446	  10.161
     49.7293	  15.000	  18.522	-241.304	  10.149
     49.7628	  23.000	  19.570	-234.353	  10.136
     49.7962	  25.000	  20.870	-233.653	  10.124
     49.8296	  24.000	  22.506	-236.288	  10.111
     49.8630	  31.000	  24.603	-231.385	  10.099
     49.8965	  29.000	  27.367	-236.150	  10.087
     49.9299	  19.000	  31.176	-249.959	  10.074
     49.9633	  43.000	  36.843	-231.625	  10.062
     49.9967	  66.000	  46.146	-217.928	  10.050
     50.0302	  77.000	  62.533	-223.315	  10.037
     50.0636	  81.000	  91.253	-248.035	  10.025
     50.0970	 129.000	 137.512	-246.295	  10.013
     50.1304	 211.000	 201.910	-228.693	  10.000
     50.1638	 277.000	 271.054	-231.837	   9.988
     50.1973	 301.000	 308.952	-245.734	   9.976
     50.2307	 331.000	 295.083	-201.865	   9.964
     50.2641	 238.000	 261.540	-261.323	   9.951
     50.2975	 220.000	 234.496	-252.278	   9.939
     50.3310	 227.000	 205.280	-216.062	   9.927
     50.3644	 174.000	 162.326	-226.108	   9.915
     50.3978	 121.000	 117.291	-234.073	   9.902
     50.4312	  94.000	  81.817	-225.600	   9.890
     50.4646	  58.000	  57.908	-237.691	   9.878
     50.4981	  39.000	  43.232	-242.015	   9.866
     50.5315	  43.000	  34.560	-229.343	   9.854
     50.5649	  37.000	  29.269	-230.051	   9.841
     50.5983	  28.000	  25.763	-235.546	   9.829
     50.6318	  31.000	  23.247	-230.029	   9.817
     50.6652	  23.000	  21.337	-236.120	   9.805
     50.6986	  16.000	  19.839	-241.622	   9.793
     50.7320	  22.000	  18.641	-234.423	   9.781
     50.7654	  22.000	  17.665	-233.447	   9.769
     50.7989	  22.000	  16.859	-232.642	   9.757
     50.8323	  18.000	  16.186	-235.968	   9.745
     50.8657	  15.000	  15.616	-238.399	   9.733
     50.8991	  22.000	  15.131	-230.914	   9.721
     50.9326	  16.000	  14.713	-236.495	   9.709
     50.9660	  23.000	  14.350	-229.133	   9.697
     50.9994	  15.000	  14.033	-236.816	   9.685
     51.0328	  14.000	  13.754	-237.536	   9.673
     51.0662	  21.000	  13.507	-230.289	   9.661
     51.0997	  15.000	  13.287	-236.069	   9.649
     51.1331	  21.000	  13.090	-229.872	   9.637
     51.1665	  11.000	  12.913	-239.695	   9.625
     51.1999	  17.000	  12.752	-233.535	   9.613
     51.2334	  14.000	  12.607	-236.390	   9.601
     51.2668	  13.000	  12.475	-237.257	   9.589
     51.3002	  13.000	  12.353	-237.136	   9.577
     51.3336	  15.000	  12.242	-235.025	   9.565
     51.3671	  16.000	  12.139	-233.922	   9.553
     51.4005	  16.000	  12.045	-233.827	   9.541
     51.4339	  14.000	  11.957	-235.739	   9.530
     51.4673	  25.000	  11.875	-224.658	   9.518
     51.5007	  18.000	  11.799	-231.581	   9.506
     51.5342	  16.000	  11.727	-233.510	   9.494
     51.5676	  16.000	  11.661	-233.443	   9.482
     51.6010	  15.000	  11.598	-234.380	   9.470
     51.6344	  11.000	  11.539	-238.321	   9.459
     51.6679	  12.000	  11.483	-237.265	   9.447
     51.7013	  16.000	  11.430	-233.212	   9.435
     51.7347	  15.000	  11.380	-234.162	   9.423
     51.7681	  12.000	  11.651	-237.434	   9.412
     51.8015	  13.000	  11.613	-236.396	   9.400
     51.8350	  17.000	  11.577	-232.360	   9.388
     51.8684	  12.000	  11.544	-237.326	   9.376
     51.9018	  13.000	  11.512	-236.295	   9.365
     51.9352	   9.000	  11.644	-240.426	   9.353
     51.9687	  14.000	  11.619	-235.402	   9.341
     52.0021	  12.000	  11.597	-237.379	   9.330
     52.0355	  18.000	  11.576	-231.359	   9.318
     52.0689	  15.000	  11.557	-234.339	   9.306
     52.1023	  21.000	  11.539	-228.322	   9.295
     52.1358	  21.000	  11.524	-228.306	   9.283
     52.1692	  27.000	  11.509	-222.292	   9.272
     52.2026	  21.000	  11.496	-228.279	   9.260
     52.2360	  26.000	  11.485	-223.267	   9.248
     52.2695	  25.000	  11.475	-224.257	   9.237
     52.3029	  33.000	  11.466	-216.249	   9.225
     52.3363	  55.000	  11.459	-194.241	   9.214
     52.3697	  45.000	  11.453	-204.235	   9.202
     52.4032	  37.000	  11.448	-212.231	   9.191
     52.4366	  36.000	  11.445	-213.228	   9.179
     52.4700	  22.000	  11.444	-227.226	   9.168
     52.5034	  33.000	  11.443	-216.226	   9.156
     52.5368	  13.000	  11.444	-236.227	   9.145
     52.5703	  17.000	  11.447	-232.230	   9.133
     52.6037	  17.000	  11.451	-232.234	   9.122
     52.6371	  13.000	  11.457	-236.240	   9.110
     52.6705	  17.000	  11.464	-232.247	   9.099
     52.7040	  14.000	  11.473	-235.256	   9.087
     52.7374	  18.000	  11.484	-231.267	   9.076
     52.7708	  18.000	  11.496	-231.279	   9.065
     52.8042	  19.000	  11.511	-230.293	   9.053
     52.8376	  17.000	  11.527	-232.310	   9.042
     52.8711	  15.000	  11.545	-234.328	   9.031
     52.9045	  11.000	  11.566	-238.348	   9.019
     52.9379	  11.000	  11.589	-238.371	   9.008
     52.9713	  13.000	  11.614	-236.396	   8.996
     53.0048	  13.000	  11.642	-236.424	   8.985
     53.0382	  21.000	  11.672	-228.455	   8.974
     53.0716	   8.000	  11.706	-241.488	   8.963
     53.1050	  15.000	  11.742	-234.525	   8.951
     53.1384	  12.000	  11.782	-237.564	   8.940
     53.1719	  11.000	  11.825	-238.608	   8.929
     53.2053	  14.000	  11.872	-235.655	   8.917
     53.2387	  19.000	  11.924	-230.706	   8.906
     53.2721	  12.000	  11.979	-237.762	   8.895
     53.3056	   4.000	  12.040	-245.823	   8.884
     53.3390	   7.000	  11.981	-242.763	   8.873
     53.3724	   8.000	  12.055	-241.837	   8.861
     53.4058	  13.000	  12.135	-236.917	   8.850
     53.4393	  15.000	  12.222	-235.004	   8.839
     53.4727	  16.000	  12.253	-234.036	   8.828
     53.5061	  11.000	  12.357	-239.140	   8.817
     53.5395	  12.000	  12.469	-238.252	   8.806
     53.5729	   9.000	  12.591	-241.374	   8.794
     53.6064	  14.000	  12.724	-236.506	   8.783
     53.6398	  19.000	  12.869	-231.651	   8.772
     53.6732	  12.000	  13.027	-238.809	   8.761
     53.7066	  17.000	  13.200	-233.982	   8.750
     53.7401	  16.000	  13.389	-235.172	   8.739
     53.7735	  13.000	  13.598	-238.380	   8.728
     53.8069	  12.000	  13.827	-239.610	   8.717
     53.8403	  14.000	  14.081	-237.864	   8.706
     53.8737	  15.000	  14.362	-237.145	   8.695
     53.9072	  18.000	  14.674	-234.457	   8.684
     53.9406	  19.000	  15.022	-233.805	   8.673
     53.9740	  13.000	  15.412	-240.194	   8.662
     54.0074	  19.000	  15.853	-234.635	   8.651
     54.0409	  15.000	  16.346	-239.128	   8.640
     54.0743	  19.000	  16.905	-235.687	   8.629
     54.1077	  17.000	  17.541	-238.324	   8.618
     54.1411	  19.000	  18.269	-237.052	   8.607
     54.1745	  17.000	  19.110	-239.893	   8.596
     54.2080	  21.000	  20.083	-236.865	   8.585
     54.2414	  17.000	  21.219	-242.002	   8.574
     54.2748	  19.000	  22.556	-241.339	   8.563
     54.3082	  36.000	  24.145	-225.927	   8.553
     54.3417	  31.000	  26.052	-232.834	   8.542
     54.3751	  38.000	  28.365	-228.148	   8.531
     54.4085	  34.000	  31.210	-234.993	   8.520
     54.4419	  40.000	  34.760	-232.543	   8.509
     54.4753	  50.000	  39.270	-227.053	   8.498
     54.5088	  54.000	  45.146	-228.928	   8.488
     54.5422	  74.000	  53.111	-216.894	   8.477
     54.5756	  71.000	  64.650	-231.433	   8.466
     54.6090	 112.000	  82.925	-208.708	   8.455
     54.6425	 125.000	 114.003	-226.785	   8.445
     54.6759	 143.000	 167.422	-262.204	   8.434
     54.7093	 255.000	 253.780	-236.563	   8.423
     54.7427	 383.000	 377.720	-232.503	   8.412
     54.7761	 550.000	 523.486	-211.269	   8.402
     54.8096	 705.000	 632.195	-164.977	   8.391
     54.8430	 770.000	 635.658	-103.441	   8.380
     54.8764	 574.000	 566.141	-229.924	   8.370
     54.9098	 507.000	 501.120	-231.903	   8.359
     54.9433	 496.000	 457.906	-199.688	   8.348
     54.9767	 436.000	 401.004	-202.786	   8.338
     55.0101	 373.000	 314.146	-178.929	   8.327
     55.0435	 245.000	 225.488	-218.271	   8.316
     55.0770	 141.000	 156.000	-252.782	   8.306
     55.1104	 107.000	 108.658	-239.441	   8.295
     55.1438	  88.000	  79.039	-228.822	   8.284
     55.1772	  54.000	  61.106	-244.888	   8.274
     55.2106	  63.000	  49.909	-224.691	   8.263
     55.2441	  47.000	  42.397	-233.180	   8.253
     55.2775	  36.000	  36.952	-238.735	   8.242
     55.3109	  31.000	  32.820	-239.602	   8.232
     55.3443	  28.000	  29.551	-239.333	   8.221
     55.3778	  18.000	  26.922	-246.705	   8.211
     55.4112	  35.000	  24.780	-227.563	   8.200
     55.4446	  22.000	  23.004	-238.787	   8.190
     55.4780	  29.000	  21.528	-230.311	   8.179
     55.5114	  22.000	  20.270	-236.053	   8.169
     55.5449	  15.000	  19.197	-241.979	   8.158
     55.5783	  14.000	  18.272	-242.055	   8.148
     55.6117	  21.000	  17.471	-234.254	   8.137
     55.6451	  19.000	  16.771	-235.554	   8.127
     55.6786	  29.000	  16.156	-224.939	   8.117
     55.7120	  18.000	  15.613	-235.396	   8.106
     55.7454	  15.000	  15.131	-237.913	   8.096
     55.7788	  17.000	  14.700	-235.483	   8.085
     55.8122	  14.000	  14.315	-238.097	   8.075
     55.8457	  15.000	  13.968	-236.750	   8.065
     55.8791	  13.000	  13.654	-238.437	   8.054
     55.9125	  22.000	  13.370	-229.153	   8.044
     55.9459	  14.000	  13.112	-236.894	   8.034
     55.9794	  15.000	  12.876	-235.659	   8.023
     56.0128	  18.000	  12.661	-232.444	   8.013
     56.0462	  15.000	  12.464	-235.246	   8.003
     56.0796	  14.000	  12.282	-236.065	   7.993
     56.1131	  18.000	  12.115	-231.898	   7.982
     56.1465	   8.000	  11.962	-241.744	   7.972
     56.1799	   7.000	  11.819	-242.602	   7.962
     56.2133	  14.000	  11.688	-235.471	   7.952
     56.2467	  18.000	  11.566	-231.349	   7.941
     56.2802	  12.000	  11.454	-237.236	   7.931
     56.3136	  13.000	  11.350	-236.132	   7.921
     56.3470	   6.000	  11.253	-243.036	   7.911
     56.3804	  12.000	  11.164	-236.947	   7.901
     56.4139	  13.000	  11.082	-235.864	   7.891
     56.4473	  23.000	  11.006	-225.789	   7.880
     56.4807	   9.000	  10.937	-239.720	   7.870
     56.5141	  11.000	  10.875	-237.658	   7.860
     56.5475	   7.000	  10.819	-241.602	   7.850
     56.5810	  13.000	  10.770	-235.553	   7.840
     56.6144	  11.000	  10.729	-237.512	   7.830
     56.6478	  12.000	  10.696	-236.478	   7.820
     56.6812	  13.000	  10.672	-235.454	   7.810
     56.7147	  18.000	  10.659	-230.442	   7.800
     56.7481	  14.000	  10.661	-234.443	   7.790
     56.7815	  12.000	  10.682	-236.464	   7.780
     56.8149	  18.000	  10.731	-230.514	   7.770
     56.8483	  13.000	  10.828	-235.611	   7.760
     56.8818	  11.000	  11.014	-237.797	   7.750
     56.9152	   9.000	  11.360	-240.143	   7.740
     56.9486	  12.000	  11.967	-237.750	   7.730
     56.9820	  19.000	  12.931	-231.713	   7.720
     57.0155	  14.000	  14.256	-238.039	   7.710
     57.0489	  19.000	  15.683	-234.465	   7.700
     57.0823	  15.000	  16.511	-239.294	   7.690
     57.1157	  14.000	  16.238	-240.021	   7.680
     57.1492	  11.000	  15.436	-242.219	   7.670
     57.1826	  16.000	  14.805	-236.587	   7.660
     57.2160	   8.000	  14.404	-244.186	   7.650
     57.2494	   9.000	  13.839	-242.621	   7.640
     57.2828	  11.000	  12.962	-239.744	   7.631
     57.3163	   9.000	  12.062	-240.845	   7.621
     57.3497	   9.000	  11.351	-240.133	   7.611
     57.3831	  18.000	  10.861	-230.644	   7.601
     57.4165	  13.000	  10.552	-235.335	   7.591
     57.4500	   5.000	  10.365	-243.148	   7.581
     57.4834	   7.000	  10.252	-241.035	   7.572
     57.5168	  15.000	  10.182	-232.965	   7.562
     57.5502	  11.000	  10.139	-236.922	   7.552
     57.5836	   8.000	  10.115	-239.898	   7.542
     57.6171	   9.000	  10.107	-238.890	   7.533
     57.6505	   8.000	  10.113	-239.896	   7.523
     57.6839	  11.000	  10.133	-236.915	   7.513
     57.7173	  11.000	  10.167	-236.949	   7.503
     57.7508	   6.000	  10.216	-241.998	   7.494
     57.7842	  11.000	  10.282	-237.065	   7.484
     57.8176	  11.000	  10.369	-237.151	   7.474
     57.8510	  12.000	  10.479	-236.262	   7.465
     57.8844	   9.000	  10.619	-239.402	   7.455
     57.9179	  11.000	  10.797	-237.579	   7.445
     57.9513	   9.000	  11.022	-239.805	   7.436
     57.9847	  14.000	  11.310	-235.093	   7.426
     58.0181	   9.000	  11.395	-240.178	   7.417
     58.0516	   9.000	  11.902	-240.684	   7.407
     58.0850	  16.000	  12.607	-234.390	   7.397
     58.1184	  22.000	  13.654	-229.437	   7.388
     58.1518	  17.000	  15.168	-235.950	   7.378
     58.1852	  27.000	  17.897	-228.680	   7.369
     58.2187	  16.000	  22.320	-244.102	   7.359
     58.2521	  33.000	  29.050	-233.833	   7.350
     58.2855	  33.000	  38.128	-242.911	   7.340
     58.3189	  42.000	  48.118	-243.901	   7.331
     58.3524	  45.000	  56.325	-249.107	   7.321
     58.3858	  64.000	  59.799	-233.581	   7.312
     58.4192	  62.000	  57.071	-232.853	   7.302
     58.4526	  58.000	  51.576	-231.358	   7.293
     58.4861	  49.000	  46.795	-235.577	   7.283
     58.5195	  53.000	  42.850	-227.632	   7.274
     58.5529	  38.000	  38.073	-237.855	   7.264
     58.5863	  35.000	  31.637	-234.420	   7.255
     58.6197	  36.000	  25.152	-226.934	   7.246
     58.6532	  16.000	  20.008	-241.790	   7.236
     58.6866	   6.000	  16.431	-248.214	   7.227
     58.7200	  17.000	  14.125	-234.908	   7.218
     58.7534	  15.000	  12.683	-235.466	   7.208
     58.7869	  17.000	  11.760	-232.542	   7.199
     58.8203	   9.000	  11.130	-239.913	   7.189
     58.8537	  15.000	  10.670	-233.453	   7.180
     58.8871	  13.000	  10.316	-235.099	   7.171
     58.9205	  11.000	  10.034	-236.817	   7.162
     58.9540	  12.000	   9.805	-235.588	   7.152
     58.9874	  16.000	   9.616	-231.398	   7.143
     59.0208	  13.000	   9.457	-234.239	   7.134
     59.0542	  14.000	   9.322	-233.104	   7.124
     59.0877	   8.000	   9.206	-238.988	   7.115
     59.1211	   6.000	   9.105	-240.888	   7.106
     59.1545	  14.000	   9.017	-232.800	   7.097
     59.1879	  14.000	   8.940	-232.722	   7.088
     59.2213	  12.000	   8.871	-234.653	   7.078
     59.2548	   6.000	   8.809	-240.591	   7.069
     59.2882	  11.000	   8.753	-235.536	   7.060
     59.3216	  13.000	   8.702	-233.485	   7.051
     59.3550	  16.000	   8.656	-230.439	   7.042
     59.3885	   6.000	   8.614	-240.397	   7.033
     59.4219	  15.000	   8.575	-231.358	   7.023
     59.4553	  11.000	   8.539	-235.322	   7.014
     59.4887	  11.000	   8.505	-235.288	   7.005
     59.5222	  15.000	   8.474	-231.257	   6.996
     59.5556	  19.000	   8.445	-227.227	   6.987
     59.5890	  13.000	   8.417	-233.200	   6.978
     59.6224	  22.000	   8.391	-224.174	   6.969
     59.6558	   5.000	   8.366	-241.149	   6.960
     59.6893	  14.000	   8.343	-232.125	   6.951
     59.7227	   8.000	   8.320	-238.103	   6.942
     59.7561	  11.000	   8.299	-235.082	   6.933
     59.7895	  13.000	   8.279	-233.061	   6.924
     59.8230	  11.000	   8.259	-235.042	   6.915
     59.8564	  12.000	   8.240	-234.023	   6.906
     59.8898	   8.000	   8.222	-238.004	   6.897
     59.9232	  14.000	   8.204	-231.987	   6.888
     59.9566	  12.000	   8.187	-233.970	   6.879
     59.9901	  14.000	   8.171	-231.953	   6.870
     60.0235	  19.000	   8.155	-226.937	   6.861
     60.0569	  11.000	   8.139	-234.922	   6.852
     60.0903	   8.000	   8.124	-237.907	   6.843
     60.1238	   5.000	   8.109	-240.892	   6.834
     60.1572	  21.000	   8.095	-224.877	   6.826
     60.1906	  19.000	   8.081	-226.863	   6.817
     60.2240	  13.000	   8.067	-232.849	   6.808
     60.2574	   8.000	   8.053	-237.836	   6.799
     60.2909	   8.000	   8.037	-237.819	   6.790
     60.3243	  18.000	   8.147	-227.929	   6.781
     60.3577	   8.000	   8.137	-237.919	   6.773
     60.3911	  15.000	   8.127	-230.909	   6.764
     60.4246	  17.000	   8.116	-228.898	   6.755
     60.4580	  19.000	   8.107	-226.889	   6.746
     60.4914	  29.000	   8.159	-216.941	   6.737
     60.5248	  26.000	   8.151	-219.934	   6.729
     60.5583	  19.000	   8.144	-226.927	   6.720
     60.5917	   9.000	   8.138	-236.920	   6.711
     60.6251	  14.000	   8.131	-231.914	   6.703
     60.6585	   9.000	   8.125	-236.908	   6.694
     60.6919	  13.000	   8.119	-232.902	   6.685
     60.7254	  14.000	   8.114	-231.896	   6.676
     60.7588	  13.000	   8.109	-232.891	   6.668
     60.7922	  16.000	   8.104	-229.887	   6.659
     60.8256	  24.000	   8.099	-221.882	   6.650
     60.8591	   8.000	   8.095	-237.878	   6.642
     60.8925	   5.000	   8.091	-240.874	   6.633
     60.9259	  15.000	   8.088	-230.871	   6.625
     60.9593	   9.000	   8.085	-236.867	   6.616
     60.9927	  13.000	   8.082	-232.865	   6.607
     61.0262	  12.000	   8.080	-233.862	   6.599
     61.0596	   8.000	   8.078	-237.860	   6.590
     61.0930	  12.000	   8.076	-233.859	   6.582
     61.1264	  17.000	   8.075	-228.857	   6.573
     61.1599	  14.000	   8.074	-231.857	   6.565
     61.1933	  12.000	   8.074	-233.857	   6.556
     61.2267	  16.000	   8.074	-229.857	   6.548
     61.2601	  19.000	   8.075	-226.858	   6.539
     61.2935	  13.000	   8.076	-232.859	   6.531
     61.3270	   7.000	   8.078	-238.861	   6.522
     61.3604	  11.000	   8.081	-234.863	   6.514
     61.3938	   6.000	   8.084	-239.866	   6.505
     61.4272	  12.000	   8.087	-233.870	   6.497
     61.4607	   7.000	   8.092	-238.874	   6.488
     61.4941	   5.000	   8.097	-240.880	   6.480
     61.5275	   7.000	   8.096	-238.878	   6.472
     61.5609	   8.000	   8.103	-237.885	   6.463
     61.5943	  19.000	   8.091	-226.874	   6.455
     61.6278	   7.000	   8.100	-238.883	   6.446
     61.6612	   6.000	   8.111	-239.893	   6.438
     61.6946	  16.000	   8.118	-229.901	   6.430
     61.7280	  15.000	   8.131	-230.913	   6.421
     61.7615	  18.000	   8.135	-227.918	   6.413
     61.7949	  12.000	   8.150	-233.933	   6.405
     61.8283	  12.000	   8.167	-233.950	   6.396
     61.8617	  11.000	   8.186	-234.968	   6.388
     61.8952	  12.000	   8.206	-233.988	   6.380
     61.9286	  14.000	   8.228	-232.010	   6.372
     61.9620	  16.000	   8.413	-230.196	   6.363
     61.9954	   8.000	   8.443	-238.225	   6.355
     62.0288	  21.000	   8.475	-225.258	   6.347
     62.0623	  21.000	   8.510	-225.293	   6.339
     62.0957	  18.000	   8.548	-228.330	   6.330
     62.1291	  14.000	   8.669	-232.452	   6.322
     62.1625	  19.000	   8.716	-227.498	   6.314
     62.1960	   9.000	   8.766	-237.549	   6.306
     62.2294	  13.000	   8.821	-233.604	   6.298
     62.2628	  17.000	   8.881	-229.664	   6.289
     62.2962	  12.000	   8.947	-234.729	   6.281
     62.3296	   8.000	   9.018	-238.801	   6.273
     62.3631	   8.000	   9.097	-238.879	   6.265
     62.3965	  15.000	   9.183	-231.966	   6.257
     62.4299	   8.000	   9.278	-239.060	   6.249
     62.4633	  13.000	   9.382	-234.165	   6.241
     62.4968	  15.000	   9.498	-232.281	   6.233
     62.5302	  13.000	   9.626	-234.409	   6.225
     62.5636	  12.000	   9.769	-235.551	   6.217
     62.5970	   7.000	   9.928	-240.711	   6.209
     62.6304	  11.000	  10.107	-236.889	   6.200
     62.6639	   9.000	  10.308	-239.090	   6.192
     62.6973	  12.000	  10.535	-236.317	   6.184
     62.7307	  13.000	  10.793	-235.575	   6.176
     62.7641	  14.000	  11.087	-234.870	   6.168
     62.7976	  11.000	  11.425	-238.208	   6.160
     62.8310	  12.000	  11.817	-237.599	   6.153
     62.8644	  12.000	  12.273	-238.055	   6.145
     62.8978	  14.000	  12.808	-236.590	   6.137
     62.9313	  11.000	  13.442	-240.224	   6.129
     62.9647	  16.000	  14.200	-235.983	   6.121
     62.9981	   9.000	  15.119	-243.901	   6.113
     63.0315	  21.000	  16.244	-233.027	   6.105
     63.0649	  25.000	  17.646	-230.429	   6.097
     63.0984	  25.000	  19.426	-232.208	   6.089
     63.1318	  21.000	  21.755	-238.537	   6.081
     63.1652	  21.000	  24.945	-241.728	   6.074
     63.1986	  32.000	  29.627	-235.409	   6.066
     63.2321	  45.000	  37.001	-229.784	   6.058
     63.2655	  55.000	  49.093	-231.876	   6.050
     63.2989	  65.000	  68.648	-241.431	   6.042
     63.3323	  75.000	  98.224	-261.007	   6.034
     63.3657	 124.000	 138.140	-251.922	   6.027
     63.3992	 176.000	 182.189	-243.972	   6.019
     63.4326	 211.000	 212.001	-238.784	   6.011
     63.4660	 196.000	 209.528	-251.310	   6.003
     63.4994	 165.000	 185.289	-258.072	   5.996
     63.5329	 145.000	 162.518	-255.301	   5.988
     63.5663	 160.000	 150.501	-228.283	   5.980
     63.5997	 151.000	 143.171	-229.954	   5.973
     63.6331	 142.000	 127.830	-223.613	   5.965
     63.6665	 119.000	 102.860	-221.642	   5.957
     63.7000	  65.000	  77.267	-250.050	   5.950
     63.7334	  59.000	  56.745	-235.528	   5.942
     63.7668	  34.000	  42.277	-246.059	   5.934
     63.8002	  29.000	  32.829	-241.612	   5.927
     63.8337	  36.000	  26.874	-228.656	   5.919
     63.8671	  27.000	  23.069	-233.851	   5.911
     63.9005	  17.000	  20.506	-241.288	   5.904
     63.9339	  19.000	  18.673	-237.455	   5.896
     63.9674	  17.000	  17.295	-238.078	   5.889
     64.0008	  15.000	  16.232	-239.015	   5.881
     64.0342	  18.000	  15.401	-235.184	   5.874
     64.0676	  19.000	  14.748	-233.531	   5.866
     64.1010	  19.000	  14.237	-233.020	   5.858
     64.1345	  16.000	  13.840	-235.623	   5.851
     64.1679	  13.000	  13.539	-238.322	   5.843
     64.2013	  14.000	  13.321	-237.104	   5.836
     64.2347	  13.000	  13.177	-237.960	   5.828
     64.2682	  16.000	  13.100	-234.882	   5.821
     64.3016	  19.000	  13.086	-231.868	   5.814
     64.3350	  15.000	  13.134	-235.917	   5.806
     64.3684	  15.000	  13.246	-236.028	   5.799
     64.4018	  15.000	  13.423	-236.206	   5.791
     64.4353	  18.000	  13.672	-233.455	   5.784
     64.4687	  23.000	  14.001	-228.783	   5.776
     64.5021	  14.000	  14.420	-238.202	   5.769
     64.5355	  13.000	  14.945	-239.728	   5.762
     64.5690	  14.000	  15.598	-239.381	   5.754
     64.6024	  19.000	  16.406	-235.189	   5.747
     64.6358	  21.000	  17.409	-234.191	   5.740
     64.6692	  28.000	  18.658	-228.441	   5.732
     64.7026	  26.000	  20.230	-232.012	   5.725
     64.7361	  24.000	  22.234	-236.016	   5.718
     64.7695	  23.000	  24.843	-239.625	   5.710
     64.8029	  31.000	  28.368	-235.151	   5.703
     64.8363	  33.000	  33.405	-238.188	   5.696
     64.8698	  45.000	  41.121	-233.903	   5.688
     64.9032	  48.000	  53.587	-243.370	   5.681
     64.9366	  90.000	  73.860	-221.642	   5.674
     64.9700	 110.000	 105.400	-233.183	   5.667
     65.0034	 141.000	 150.216	-246.999	   5.660
     65.0369	 197.000	 205.193	-245.976	   5.652
     65.0703	 261.000	 254.897	-231.680	   5.645
     65.1037	 246.000	 272.023	-263.805	   5.638
     65.1371	 199.000	 250.411	-289.193	   5.631
     65.1706	 172.000	 217.040	-282.822	   5.624
     65.2040	 168.000	 194.155	-263.938	   5.616
     65.2374	 181.000	 184.158	-240.941	   5.609
     65.2708	 163.000	 173.925	-248.708	   5.602
     65.3042	 143.000	 150.138	-244.920	   5.595
     65.3377	 141.000	 117.329	-214.112	   5.588
     65.3711	  76.000	  86.696	-248.478	   5.581
     65.4045	  49.000	  63.122	-251.905	   5.574
     65.4379	  43.000	  46.804	-241.586	   5.567
     65.4714	  37.000	  36.193	-236.975	   5.560
     65.5048	  29.000	  29.416	-238.199	   5.553
     65.5382	  28.000	  24.965	-234.748	   5.546
     65.5716	  18.000	  21.863	-241.645	   5.539
     65.6051	  21.000	  19.562	-236.344	   5.532
     65.6385	  19.000	  17.778	-236.561	   5.525
     65.6719	  17.000	  16.353	-237.136	   5.518
     65.7053	  12.000	  15.192	-240.975	   5.511
     65.7387	  19.000	  14.232	-233.015	   5.504
     65.7722	  16.000	  13.428	-235.210	   5.497
     65.8056	  11.000	  12.747	-239.530	   5.490
     65.8390	  13.000	  12.166	-236.948	   5.483
     65.8724	  17.000	  11.665	-232.447	   5.476
     65.9059	   6.000	  11.230	-243.012	   5.469
     65.9393	   7.000	  10.849	-241.631	   5.462
     65.9727	  14.000	  10.514	-234.296	   5.455
     66.0061	  15.000	  10.217	-233.000	   5.448
     66.0396	  11.000	   9.953	-236.736	   5.441
     66.0730	  14.000	   9.717	-233.499	   5.435
     66.1064	  12.000	   9.505	-235.287	   5.428
     66.1398	  12.000	   9.313	-235.096	   5.421
     66.1732	   6.000	   9.140	-240.923	   5.414
     66.2067	  11.000	   8.983	-235.766	   5.407
     66.2401	  11.000	   8.840	-235.623	   5.400
     66.2735	   6.000	   8.709	-240.492	   5.394
     66.3069	   8.000	   8.590	-238.372	   5.387
     66.3403	  13.000	   8.480	-233.263	   5.380
     66.3738	   2.000	   8.379	-244.162	   5.373
     66.4072	  13.000	   8.287	-233.069	   5.367
     66.4406	   4.000	   8.202	-241.984	   5.360
     66.4740	  12.000	   8.124	-233.906	   5.353
     66.5075	  11.000	   8.052	-234.835	   5.346
     66.5409	   7.000	   7.987	-238.770	   5.340
     66.5743	   9.000	   7.928	-236.711	   5.333
     66.6077	  11.000	   7.875	-234.658	   5.326
     66.6412	   4.000	   7.829	-241.611	   5.320
     66.6746	  11.000	   7.789	-234.571	   5.313
     66.7080	   3.000	   7.645	-242.428	   5.306
     66.7414	  12.000	   7.624	-233.406	   5.300
     66.7748	  11.000	   7.614	-234.397	   5.293
     66.8083	  11.000	   7.621	-234.403	   5.287
     66.8417	   9.000	   7.653	-236.435	   5.280
     66.8751	   9.000	   7.673	-236.455	   5.273
     66.9085	  11.000	   7.822	-234.605	   5.267
     66.9420	  13.000	   8.083	-232.866	   5.260
     66.9754	  15.000	   8.488	-231.271	   5.254
     67.0088	  14.000	   9.042	-232.825	   5.247
     67.0422	  12.000	   9.658	-235.440	   5.241
     67.0756	  11.000	  10.081	-236.863	   5.234
     67.1091	   8.000	  10.041	-239.824	   5.228
     67.1425	   8.000	   9.655	-239.438	   5.221
     67.1759	   6.000	   9.260	-241.043	   5.215
     67.2093	   6.000	   9.027	-240.810	   5.208
     67.2428	  15.000	   8.922	-231.705	   5.202
     67.2762	   4.000	   8.768	-242.550	   5.195
     67.3096	  12.000	   8.446	-234.228	   5.189
     67.3430	   9.000	   8.042	-236.825	   5.183
     67.3764	   5.000	   7.678	-240.461	   5.176
     67.4099	   7.000	   7.399	-238.181	   5.170
     67.4433	   3.000	   7.199	-241.982	   5.163
     67.4767	   7.000	   7.063	-237.845	   5.157
     67.5101	   8.000	   6.968	-236.751	   5.151
     67.5436	   5.000	   6.900	-239.683	   5.144
     67.5770	  11.000	   6.847	-233.629	   5.138
     67.6104	   8.000	   6.804	-236.586	   5.132
     67.6438	  11.000	   6.767	-233.549	   5.125
     67.6772	  15.000	   6.734	-229.516	   5.119
     67.7107	   7.000	   6.704	-237.487	   5.113
     67.7441	   7.000	   6.678	-237.460	   5.106
     67.7775	   5.000	   6.653	-239.436	   5.100
     67.8109	   5.000	   6.630	-239.413	   5.094
     67.8444	   5.000	   6.609	-239.392	   5.088
     67.8778	   8.000	   6.589	-236.372	   5.081
     67.9112	  13.000	   6.570	-231.353	   5.075
     67.9446	   6.000	   6.552	-238.335	   5.069
     67.9781	   4.000	   6.535	-240.318	   5.063
     68.0115	   5.000	   6.519	-239.301	   5.057
     68.0449	   6.000	   6.503	-238.285	   5.050
     68.0783	   3.000	   6.488	-241.270	   5.044
     68.1117	  11.000	   6.473	-233.255	   5.038
     68.1452	   5.000	   6.459	-239.241	   5.032
     68.1786	   7.000	   6.445	-237.227	   5.026
     68.2120	   7.000	   6.431	-237.214	   5.020
     68.2454	   2.000	   6.418	-242.201	   5.014
     68.2789	   8.000	   6.405	-236.188	   5.007
     68.3123	   8.000	   6.393	-236.175	   5.001
     68.3457	   8.000	   6.231	-236.013	   4.995
     68.3791	   5.000	   6.222	-239.004	   4.989
     68.4125	   7.000	   6.213	-236.996	   4.983
     68.4460	   8.000	   6.204	-235.987	   4.977
     68.4794	   8.000	   6.196	-235.979	   4.971
     68.5128	   7.000	   6.188	-236.970	   4.965
     68.5462	   3.000	   6.106	-240.888	   4.959
     68.5797	   6.000	   6.099	-237.882	   4.953
     68.6131	   9.000	   6.093	-234.875	   4.947
     68.6465	   7.000	   6.086	-236.869	   4.941
     68.6799	   6.000	   6.080	-237.863	   4.935
     68.7133	   6.000	   6.074	-237.856	   4.929
     68.7468	   8.000	   6.067	-235.850	   4.923
     68.7802	   7.000	   6.061	-236.844	   4.917
     68.8136	   7.000	   6.055	-236.838	   4.911
     68.8470	   9.000	   6.049	-234.831	   4.905
     68.8805	  12.000	   6.043	-231.825	   4.900
     68.9139	   6.000	   6.037	-237.819	   4.894
     68.9473	  13.000	   6.031	-230.813	   4.888
     68.9807	   9.000	   6.025	-234.808	   4.882
     69.0142	  15.000	   6.019	-228.802	   4.876
     69.0476	   6.000	   6.013	-237.796	   4.870
     69.0810	   8.000	   6.007	-235.790	   4.864
     69.1144	  13.000	   6.002	-230.784	   4.859
     69.1478	  11.000	   5.996	-232.779	   4.853
     69.1813	   8.000	   5.990	-235.773	   4.847
     69.2147	   4.000	   5.985	-239.767	   4.841
     69.2481	   8.000	   5.979	-235.762	   4.835
     69.2815	   8.000	   5.974	-235.756	   4.830
     69.3150	   9.000	   5.968	-234.751	   4.824
     69.3484	   7.000	   5.963	-236.746	   4.818
     69.3818	   6.000	   5.958	-237.740	   4.813
     69.4152	  12.000	   5.953	-231.735	   4.807
     69.4486	  14.000	   5.947	-229.730	   4.801
     69.4821	  14.000	   5.942	-229.725	   4.795
     69.5155	   7.000	   5.937	-236.720	   4.790
     69.5489	   4.000	   5.932	-239.715	   4.784
     69.5823	   9.000	   5.928	-234.710	   4.778
     69.6158	   7.000	   5.923	-236.706	   4.773
     69.6492	   8.000	   5.919	-235.701	   4.767
     69.6826	  11.000	   5.980	-232.763	   4.762
     69.7160	  11.000	   5.978	-232.760	   4.756
     69.7495	   8.000	   5.975	-235.758	   4.750
     69.7829	   5.000	   5.973	-238.755	   4.745
     69.8163	  11.000	   5.971	-232.753	   4.739
     69.8497	   8.000	   5.969	-235.752	   4.734
     69.8831	   6.000	   6.001	-237.783	   4.728
     69.9166	   9.000	   6.000	-234.783	   4.722
     69.9500	   5.000	   6.001	-238.783	   4.717
     69.9834	   7.000	   6.002	-236.784	   4.711
     70.0168	  11.000	   6.003	-232.786	   4.706
     70.0502	  14.000	   6.006	-229.789	   4.700
     70.0837	  13.000	   6.024	-230.806	   4.695
     70.1171	   3.000	   6.029	-240.812	   4.689
     70.1505	   9.000	   6.036	-234.819	   4.684
     70.1839	   5.000	   6.045	-238.828	   4.679
     70.2174	   6.000	   6.057	-237.840	   4.673
     70.2508	   9.000	   6.073	-234.856	   4.668
     70.2842	  12.000	   6.101	-231.884	   4.662
     70.3176	   7.000	   6.131	-236.913	   4.657
     70.3511	   6.000	   6.174	-237.956	   4.652
     70.3845	   3.000	   6.238	-241.021	   4.646
     70.4179	  12.000	   6.344	-232.127	   4.641
     70.4513	   9.000	   6.510	-235.293	   4.635
     70.4847	   9.000	   6.758	-235.540	   4.630
     70.5182	  14.000	   7.095	-230.877	   4.625
     70.5516	   8.000	   7.488	-237.271	   4.619
     70.5850	  16.000	   7.821	-229.604	   4.614
     70.6184	   5.000	   7.911	-240.693	   4.609
     70.6519	   4.000	   7.736	-241.519	   4.603
     70.6853	   5.000	   7.484	-240.266	   4.598
     70.7187	   7.000	   7.305	-238.088	   4.593
     70.7521	   8.000	   7.234	-237.017	   4.588
     70.7855	  12.000	   7.208	-232.991	   4.582
     70.8190	  13.000	   7.114	-231.897	   4.577
     70.8524	   5.000	   6.919	-239.701	   4.572
     70.8858	  11.000	   6.693	-233.475	   4.567
     70.9192	   7.000	   6.498	-237.281	   4.562
     70.9527	   8.000	   6.353	-236.136	   4.556
     70.9861	   6.000	   6.255	-238.037	   4.551
     71.0195	   6.000	   6.192	-237.975	   4.546
     71.0529	   7.000	   6.153	-236.936	   4.541
     71.0863	   6.000	   6.129	-237.912	   4.536
     71.1198	   3.000	   6.114	-240.897	   4.531
     71.1532	   3.000	   6.105	-240.888	   4.526
     71.1866	   9.000	   6.101	-234.883	   4.520
     71.2200	   4.000	   6.100	-239.882	   4.515
     71.2535	   7.000	   6.101	-236.883	   4.510
     71.2869	   7.000	   6.105	-236.887	   4.505
     71.3203	   8.000	   6.110	-235.893	   4.500
     71.3537	   6.000	   6.118	-237.901	   4.495
     71.3872	   8.000	   6.128	-235.910	   4.490
     71.4206	   9.000	   6.139	-234.922	   4.485
     71.4540	   5.000	   6.152	-238.935	   4.480
     71.4874	   8.000	   6.167	-235.950	   4.475
     71.5208	   6.000	   6.184	-237.967	   4.470
     71.5543	   7.000	   6.203	-236.986	   4.465
     71.5877	   6.000	   6.224	-238.007	   4.460
     71.6211	   6.000	   6.248	-238.030	   4.455
     71.6545	   8.000	   6.274	-236.056	   4.450
     71.6880	   8.000	   6.302	-236.085	   4.445
     71.7214	   8.000	   6.334	-236.117	   4.440
     71.7548	   8.000	   6.369	-236.152	   4.435
     71.7882	   4.000	   6.408	-240.190	   4.430
     71.8216	   6.000	   6.450	-238.233	   4.426
     71.8551	   9.000	   6.497	-235.280	   4.421
     71.8885	  14.000	   6.549	-230.332	   4.416
     71.9219	   5.000	   6.607	-239.389	   4.411
     71.9553	  11.000	   6.671	-233.453	   4.406
     71.9888	   7.000	   6.742	-237.525	   4.401
     72.0222	  14.000	   6.822	-230.604	   4.396
     72.0556	   6.000	   6.911	-238.693	   4.392
     72.0890	   9.000	   7.011	-235.793	   4.387
     72.1225	   9.000	   7.123	-235.906	   4.382
     72.1559	  12.000	   7.251	-233.034	   4.377
     72.1893	   6.000	   7.396	-239.179	   4.373
     72.2227	   7.000	   7.562	-238.345	   4.368
     72.2561	  29.000	   7.752	-216.535	   4.363
     72.2896	  12.000	   7.973	-233.755	   4.358
     72.3230	   6.000	   8.229	-240.012	   4.354
     72.3564	  12.000	   8.529	-234.312	   4.349
     72.3898	  19.000	   8.885	-227.668	   4.344
     72.4232	  16.000	   9.310	-231.092	   4.340
     72.4567	  13.000	   9.822	-234.605	   4.335
     72.4901	   8.000	  10.448	-240.231	   4.330
     72.5235	  19.000	  11.226	-230.009	   4.326
     72.5569	  15.000	  12.214	-234.997	   4.321
     72.5904	  12.000	  13.511	-239.293	   4.316
     72.6238	  16.000	  15.298	-237.081	   4.312
     72.6572	  22.000	  17.909	-233.692	   4.307
     72.6906	  29.000	  21.913	-230.695	   4.302
     72.7241	  33.000	  28.153	-232.935	   4.298
     72.7575	  34.000	  37.639	-241.422	   4.293
     72.7909	  49.000	  51.175	-239.958	   4.289
     72.8243	  59.000	  68.621	-247.404	   4.284
     72.8577	  86.000	  87.215	-238.997	   4.280
     72.8912	  95.000	  99.787	-242.570	   4.275
     72.9246	 105.000	  99.219	-232.002	   4.271
     72.9580	 121.000	  88.589	-205.371	   4.266
     72.9914	  68.000	  77.086	-246.869	   4.262
     73.0249	  68.000	  70.178	-239.960	   4.257
     73.0583	  63.000	  68.328	-243.110	   4.253
     73.0917	  73.000	  68.158	-232.941	   4.248
     73.1251	  84.000	  64.732	-218.514	   4.244
     73.1585	  57.000	  57.208	-237.991	   4.239
     73.1920	  38.000	  49.198	-248.980	   4.235
     73.2254	  38.000	  43.473	-243.256	   4.231
     73.2588	  52.000	  40.341	-226.123	   4.226
     73.2922	  38.000	  38.211	-237.993	   4.222
     73.3257	  25.000	  35.025	-247.808	   4.217
     73.3591	  29.000	  30.699	-239.482	   4.213
     73.3925	  16.000	  26.714	-248.496	   4.209
     73.4259	  21.000	  24.024	-240.807	   4.204
     73.4594	  19.000	  22.647	-241.430	   4.200
     73.4928	  15.000	  21.856	-244.638	   4.196
     73.5262	  21.000	  20.557	-237.340	   4.191
     73.5596	  16.000	  18.278	-240.061	   4.187
     73.5930	   5.000	  15.686	-248.469	   4.183
     73.6265	  16.000	  13.399	-235.182	   4.178
     73.6599	  13.000	  11.623	-236.405	   4.174
     73.6933	  11.000	  10.331	-237.113	   4.170
     73.7267	  13.000	   9.439	-234.221	   4.166
     73.7601	  15.000	   8.797	-231.579	   4.162
     73.7936	   9.000	   8.328	-237.111	   4.157
     73.8270	   4.000	   7.971	-241.753	   4.153
     73.8604	  11.000	   7.685	-234.468	   4.149
     73.8938	   8.000	   7.449	-237.232	   4.145
     73.9273	   5.000	   7.250	-240.032	   4.141
     73.9607	   5.000	   7.080	-239.862	   4.136
     73.9941	   9.000	   6.933	-235.715	   4.132
     74.0275	   8.000	   6.804	-236.587	   4.128
     74.0610	  12.000	   6.691	-232.474	   4.124
     74.0944	   3.000	   6.591	-241.373	   4.120
     74.1278	   7.000	   6.502	-237.284	   4.116
     74.1612	  11.000	   6.421	-233.203	   4.112
     74.1946	   5.000	   6.349	-239.131	   4.108
     74.2281	   7.000	   6.284	-237.066	   4.104
     74.2615	   5.000	   6.224	-239.007	   4.099
     74.2949	   3.000	   6.170	-240.953	   4.095
     74.3283	   6.000	   6.121	-237.904	   4.091
     74.3618	   9.000	   6.076	-234.859	   4.087
     74.3952	   9.000	   6.034	-234.817	   4.083
     74.4286	   9.000	   5.996	-234.779	   4.079
     74.4620	  13.000	   5.961	-230.744	   4.075
     74.4955	   7.000	   5.928	-236.711	   4.071
     74.5289	   5.000	   5.898	-238.681	   4.067
     74.5623	   7.000	   5.870	-236.653	   4.063
     74.5957	   9.000	   5.844	-234.627	   4.060
     74.6291	   4.000	   5.820	-239.603	   4.056
     74.6626	   8.000	   5.798	-235.581	   4.052
     74.6960	   3.000	   5.777	-240.560	   4.048
     74.7294	   7.000	   5.758	-236.541	   4.044
     74.7628	   7.000	   5.740	-236.523	   4.040
     74.7962	  11.000	   5.724	-232.506	   4.036
     74.8297	   9.000	   5.708	-234.491	   4.032
     74.8631	   5.000	   5.694	-238.477	   4.028
     74.8965	   4.000	   5.681	-239.464	   4.025
     74.9299	   9.000	   5.669	-234.452	   4.021
     74.9634	   9.000	   5.659	-234.441	   4.017
     74.9968	   7.000	   5.649	-236.431	   4.013
     75.0302	   7.000	   5.640	-236.422	   4.009
     75.0636	  12.000	   5.632	-231.414	   4.006
     75.0971	   8.000	   5.625	-235.408	   4.002
     75.1305	   5.000	   5.619	-238.402	   3.998
     75.1639	   9.000	   5.614	-234.396	   3.994
     75.1973	  13.000	   5.610	-230.392	   3.991
     75.2307	  11.000	   5.607	-232.389	   3.987
     75.2642	   7.000	   5.604	-236.387	   3.983
     75.2976	   8.000	   5.603	-235.386	   3.979
     75.3310	   4.000	   5.603	-239.386	   3.976
     75.3644	   8.000	   5.604	-235.387	   3.972
     75.3979	  18.000	   5.606	-225.389	   3.968
     75.4313	   5.000	   5.610	-238.392	   3.965
     75.4647	  11.000	   5.615	-232.397	   3.961
     75.4981	   8.000	   5.621	-235.403	   3.957
     75.5315	   7.000	   5.628	-236.411	   3.954
     75.5650	   9.000	   5.637	-234.420	   3.950
     75.5984	   9.000	   5.648	-234.431	   3.947
     75.6318	   9.000	   5.661	-234.444	   3.943
     75.6652	   1.000	   5.676	-242.459	   3.939
     75.6987	  11.000	   5.694	-232.476	   3.936
     75.7321	   8.000	   5.739	-235.521	   3.932
     75.7655	  11.000	   5.762	-232.545	   3.929
     75.7989	  11.000	   5.789	-232.571	   3.925
     75.8324	   8.000	   5.819	-235.602	   3.922
     75.8658	   5.000	   5.854	-238.637	   3.918
     75.8992	  14.000	   5.894	-229.677	   3.915
     75.9326	   6.000	   5.940	-237.723	   3.911
     75.9660	   7.000	   6.006	-236.788	   3.908
     75.9995	   6.000	   6.067	-237.850	   3.904
     76.0329	  11.000	   6.139	-232.922	   3.901
     76.0663	   2.000	   6.224	-242.007	   3.897
     76.0997	   5.000	   6.326	-239.108	   3.894
     76.1331	   7.000	   6.451	-237.234	   3.891
     76.1666	   5.000	   6.611	-239.393	   3.887
     76.2000	   6.000	   6.820	-238.603	   3.884
     76.2334	  14.000	   7.099	-230.882	   3.880
     76.2668	  11.000	   7.407	-234.190	   3.877
     76.3003	  13.000	   7.876	-232.659	   3.874
     76.3337	  15.000	   8.428	-231.211	   3.870
     76.3671	  16.000	   8.981	-230.763	   3.867
     76.4005	   9.000	   9.403	-238.186	   3.864
     76.4340	   7.000	   9.673	-240.456	   3.860
     76.4674	  11.000	   9.924	-236.707	   3.857
     76.5008	  14.000	  10.405	-234.188	   3.854
     76.5342	  13.000	  11.229	-236.011	   3.850
     76.5676	  17.000	  12.542	-233.324	   3.847
     76.6011	  12.000	  14.540	-240.323	   3.844
     76.6345	  13.000	  17.532	-242.314	   3.841
     76.6679	  17.000	  21.959	-242.741	   3.837
     76.7013	  24.000	  28.299	-242.082	   3.834
     76.7348	  36.000	  36.574	-238.356	   3.831
     76.7682	  54.000	  45.716	-229.498	   3.828
     76.8016	  59.000	  52.640	-231.423	   3.825
     76.8350	  62.000	  53.564	-229.347	   3.821
     76.8684	  42.000	  48.741	-244.523	   3.818
     76.9019	  52.000	  42.358	-228.141	   3.815
     76.9353	  42.000	  37.682	-233.464	   3.812
     76.9687	  37.000	  35.655	-236.438	   3.809
     77.0021	  32.000	  35.467	-241.250	   3.806
     77.0356	  37.000	  34.882	-235.665	   3.803
     77.0690	  31.000	  31.873	-238.655	   3.800
     77.1024	  26.000	  26.879	-238.662	   3.796
     77.1358	  16.000	  21.680	-243.463	   3.793
     77.1693	  21.000	  17.332	-234.114	   3.790
     77.2027	  17.000	  14.075	-234.857	   3.787
     77.2361	  14.000	  11.791	-235.573	   3.784
     77.2695	   9.000	  10.244	-239.027	   3.781
     77.3029	  12.000	   9.199	-234.982	   3.778
     77.3364	   3.000	   8.473	-243.256	   3.775
     77.3698	   7.000	   7.944	-238.727	   3.772
     77.4032	  13.000	   7.541	-232.324	   3.769
     77.4366	   9.000	   7.223	-236.006	   3.766
     77.4701	   6.000	   6.966	-238.749	   3.763
     77.5035	   6.000	   6.754	-238.537	   3.760
     77.5369	   5.000	   6.579	-239.361	   3.757
     77.5703	   1.000	   6.431	-243.213	   3.754
     77.6037	  11.000	   6.306	-233.089	   3.752
     77.6372	  11.000	   6.200	-232.983	   3.749
     77.6706	   7.000	   6.109	-236.892	   3.746
     77.7040	   8.000	   6.032	-235.814	   3.743
     77.7374	   6.000	   5.965	-237.748	   3.740
     77.7709	   7.000	   5.908	-236.690	   3.737
     77.8043	  13.000	   5.859	-230.641	   3.734
     77.8377	   6.000	   5.817	-237.600	   3.731
     77.8711	   6.000	   5.782	-237.565	   3.729
     77.9045	   8.000	   5.753	-235.535	   3.726
     77.9380	   7.000	   5.729	-236.512	   3.723
     77.9714	   7.000	   5.710	-236.493	   3.720
     78.0048	  14.000	   5.696	-229.479	   3.717
     78.0382	   9.000	   5.687	-234.470	   3.715
     78.0717	  14.000	   5.682	-229.465	   3.712
     78.1051	   3.000	   5.682	-240.465	   3.709
     78.1385	   3.000	   5.687	-240.469	   3.706
     78.1719	  12.000	   5.696	-231.479	   3.704
     78.2054	  12.000	   5.711	-231.493	   3.701
     78.2388	   5.000	   5.731	-238.514	   3.698
     78.2722	   4.000	   5.757	-239.540	   3.696
     78.3056	   4.000	   5.791	-239.573	   3.693
     78.3390	   4.000	   5.831	-239.614	   3.690
     78.3725	   5.000	   5.881	-238.664	   3.688
     78.4059	  12.000	   5.942	-231.724	   3.685
     78.4393	  12.000	   6.014	-231.797	   3.682
     78.4727	  15.000	   6.101	-228.884	   3.680
     78.5061	   8.000	   6.207	-235.989	   3.677
     78.5396	   3.000	   6.333	-241.116	   3.675
     78.5730	   5.000	   6.488	-239.270	   3.672
     78.6064	   7.000	   6.677	-237.460	   3.669
     78.6398	  15.000	   6.914	-229.697	   3.667
     78.6733	  11.000	   7.225	-234.008	   3.664
     78.7067	   7.000	   7.607	-238.389	   3.662
     78.7401	  14.000	   8.117	-231.899	   3.659
     78.7735	   9.000	   8.832	-237.615	   3.657
     78.8070	  22.000	   9.884	-225.667	   3.654
     78.8404	  17.000	  11.475	-232.257	   3.652
     78.8738	  15.000	  13.875	-236.658	   3.649
     78.9072	  16.000	  17.369	-239.151	   3.647
     78.9406	  25.000	  22.139	-234.922	   3.644
     78.9741	  36.000	  27.984	-229.766	   3.642
     79.0075	  43.000	  33.817	-228.599	   3.639
     79.0409	  59.000	  37.294	-216.076	   3.637
     79.0743	  40.000	  36.532	-234.315	   3.635
     79.1078	  37.000	  32.741	-233.524	   3.632
     79.1412	  31.000	  28.664	-235.447	   3.630
     79.1746	  33.000	  25.966	-230.749	   3.627
     79.2080	  21.000	  24.981	-241.764	   3.625
     79.2414	  31.000	  25.055	-231.837	   3.623
     79.2749	  25.000	  24.724	-237.506	   3.620
     79.3083	  22.000	  22.767	-238.550	   3.618
     79.3417	  24.000	  19.537	-233.319	   3.616
     79.3751	  22.000	  16.169	-231.952	   3.613
     79.4086	  21.000	  13.336	-230.119	   3.611
     79.4420	  22.000	  11.199	-226.981	   3.609
     79.4754	  13.000	   9.690	-234.472	   3.607
     79.5088	   9.000	   8.663	-237.445	   3.604
     79.5423	   7.000	   7.972	-238.754	   3.602
     79.5757	  11.000	   7.499	-234.281	   3.600
     79.6091	   6.000	   7.165	-238.947	   3.598
     79.6425	  12.000	   6.922	-232.705	   3.595
     79.6759	   7.000	   6.744	-237.527	   3.593
     79.7094	   9.000	   6.616	-235.398	   3.591
     79.7428	   8.000	   6.529	-236.311	   3.589
     79.7762	   6.000	   6.480	-238.262	   3.587
     79.8096	  14.000	   6.466	-230.249	   3.584
     79.8430	   9.000	   6.494	-235.277	   3.582
     79.8765	  11.000	   6.571	-233.354	   3.580
     79.9099	  13.000	   6.716	-231.498	   3.578
     79.9433	   9.000	   6.962	-235.745	   3.576
     79.9767	  13.000	   7.365	-232.148	   3.574
     80.0102	   9.000	   8.003	-236.786	   3.572
     80.0436	  14.000	   8.970	-232.752	   3.570
     80.0770	   9.000	  10.339	-239.121	   3.568
     80.1104	  15.000	  12.109	-234.892	   3.566
     80.1439	  14.000	  14.068	-237.850	   3.563
     80.1773	  23.000	  15.603	-230.386	   3.561
     80.2107	  13.000	  15.888	-240.671	   3.559
     80.2441	  19.000	  14.930	-233.713	   3.557
     80.2775	  15.000	  13.506	-236.288	   3.555
     80.3110	  11.000	  12.351	-239.133	   3.553
     80.3444	  16.000	  11.753	-233.535	   3.551
     80.3778	  13.000	  11.650	-236.432	   3.549
     80.4112	   9.000	  11.691	-240.474	   3.548
     80.4447	  11.000	  11.357	-238.139	   3.546
     80.4781	  13.000	  10.491	-235.274	   3.544
     80.5115	  12.000	   9.368	-235.151	   3.542
     80.5449	  12.000	   8.317	-234.100	   3.540
     80.5784	  19.000	   7.476	-226.258	   3.538
     80.6118	   8.000	   6.859	-236.641	   3.536
     80.6452	   4.000	   6.431	-240.214	   3.534
     80.6786	  12.000	   6.145	-231.928	   3.532
     80.7120	  15.000	   5.959	-228.742	   3.530
     80.7455	  11.000	   5.844	-232.627	   3.529
     80.7789	   7.000	   5.783	-236.565	   3.527
     80.8123	   4.000	   5.803	-239.586	   3.525
     80.8457	   3.000	   5.830	-240.613	   3.523
     80.8792	   9.000	   5.890	-234.673	   3.521
     80.9126	   8.000	   5.960	-235.742	   3.520
     80.9460	  11.000	   5.994	-232.776	   3.518
     80.9794	   6.000	   5.956	-237.738	   3.516
     81.0128	   6.000	   5.866	-237.648	   3.514
     81.0463	   7.000	   5.792	-236.574	   3.513
     81.0797	   7.000	   5.729	-236.512	   3.511
     81.1131	   6.000	   5.705	-237.487	   3.509
     81.1465	   9.000	   5.708	-234.490	   3.507
     81.1800	   4.000	   5.714	-239.496	   3.506
     81.2134	   7.000	   5.697	-236.480	   3.504
     81.2468	   3.000	   5.656	-240.439	   3.502
     81.2802	   6.000	   5.612	-237.395	   3.501
     81.3136	   5.000	   5.581	-238.364	   3.499
     81.3471	   4.000	   5.569	-239.351	   3.497
     81.3805	   8.000	   5.576	-235.358	   3.496
     81.4139	   9.000	   5.600	-234.383	   3.494
     81.4473	   7.000	   5.642	-236.424	   3.493
     81.4808	   6.000	   5.699	-237.482	   3.491
     81.5142	   5.000	   5.773	-238.556	   3.489
     81.5476	   5.000	   5.866	-238.648	   3.488
     81.5810	   6.000	   5.981	-237.763	   3.486
     81.6144	   7.000	   6.123	-236.906	   3.485
     81.6479	   7.000	   6.301	-237.084	   3.483
     81.6813	   8.000	   6.526	-236.309	   3.482
     81.7147	   9.000	   6.819	-235.601	   3.480
     81.7481	   6.000	   7.213	-238.995	   3.479
     81.7816	  14.000	   7.765	-231.547	   3.477
     81.8150	   9.000	   8.568	-237.350	   3.476
     81.8484	   7.000	   9.758	-240.541	   3.474
     81.8818	  12.000	  11.508	-237.291	   3.473
     81.9153	  18.000	  13.991	-233.773	   3.471
     81.9487	  26.000	  17.288	-229.070	   3.470
     81.9821	  18.000	  21.221	-241.004	   3.469
     82.0155	  34.000	  25.117	-228.900	   3.467
     82.0489	  19.000	  27.734	-246.516	   3.466
     82.0824	  32.000	  27.852	-233.635	   3.464
     82.1158	  28.000	  25.667	-235.449	   3.463
     82.1492	  26.000	  22.771	-234.553	   3.462
     82.1826	  21.000	  20.515	-237.298	   3.460
     82.2160	  16.000	  19.381	-241.164	   3.459
     82.2495	  18.000	  19.147	-238.929	   3.458
     82.2829	  27.000	  19.143	-229.925	   3.456
     82.3163	  22.000	  18.491	-234.274	   3.455
     82.3497	  18.000	  16.780	-236.562	   3.454
     82.3832	  13.000	  14.468	-239.250	   3.452
     82.4166	  15.000	  12.225	-235.008	   3.451
     82.4500	  11.000	  10.387	-237.169	   3.450
     82.4834	  13.000	   8.990	-233.772	   3.449
     82.5169	  12.000	   8.010	-233.793	   3.447
     82.5503	  15.000	   7.332	-230.115	   3.446
     82.5837	   5.000	   6.863	-239.646	   3.445
     82.6171	  11.000	   6.532	-233.315	   3.444
     82.6505	  16.000	   6.289	-228.072	   3.443
     82.6840	   6.000	   6.104	-237.887	   3.441
     82.7174	   9.000	   5.947	-234.730	   3.440
     82.7508	   7.000	   5.831	-236.614	   3.439
     82.7842	  14.000	   5.737	-229.520	   3.438
     82.8177	   6.000	   5.660	-237.443	   3.437
     82.8511	  13.000	   5.598	-230.381	   3.436
     82.8845	  13.000	   5.547	-230.330	   3.435
     82.9179	   7.000	   5.507	-236.289	   3.433
     82.9514	   9.000	   5.474	-234.257	   3.432
     82.9848	   5.000	   5.449	-238.232	   3.431
     83.0182	  11.000	   5.431	-232.213	   3.430
     83.0516	  11.000	   5.455	-232.238	   3.429
     83.0850	   5.000	   5.449	-238.232	   3.428
     83.1185	   4.000	   5.448	-239.231	   3.427
     83.1519	   8.000	   5.452	-235.235	   3.426
     83.1853	   6.000	   5.461	-237.244	   3.425
     83.2187	  11.000	   5.476	-232.258	   3.424
     83.2522	  11.000	   5.495	-232.278	   3.423
     83.2856	   8.000	   5.520	-235.302	   3.422
     83.3190	   8.000	   5.569	-235.352	   3.421
     83.3524	   5.000	   5.606	-238.389	   3.420
     83.3858	   7.000	   5.651	-236.433	   3.419
     83.4193	  13.000	   5.703	-230.485	   3.418
     83.4527	   3.000	   5.764	-240.546	   3.417
     83.4861	   9.000	   5.835	-234.617	   3.417
     83.5195	  12.000	   5.917	-231.700	   3.416
     83.5530	  12.000	   6.014	-231.796	   3.415
     83.5864	   8.000	   6.127	-235.909	   3.414
     83.6198	   9.000	   6.259	-235.041	   3.413
     83.6532	   5.000	   6.407	-239.190	   3.412
     83.6866	  13.000	   6.592	-231.375	   3.411
     83.7201	   4.000	   6.814	-240.597	   3.411
     83.7535	  14.000	   7.081	-230.864	   3.410
     83.7869	  16.000	   7.408	-229.191	   3.409
     83.8203	   8.000	   7.814	-237.597	   3.408
     83.8538	   9.000	   8.332	-237.114	   3.407
     83.8872	  23.000	   9.008	-223.791	   3.407
     83.9206	  12.000	   9.944	-235.727	   3.406
     83.9540	  19.000	  11.284	-230.066	   3.405
     83.9874	  24.000	  13.254	-227.036	   3.404
     84.0209	  24.000	  16.156	-229.939	   3.404
     84.0543	  23.000	  20.315	-235.097	   3.403
     84.0877	  24.000	  25.977	-239.760	   3.402
     84.1211	  33.000	  33.065	-237.848	   3.402
     84.1546	  47.000	  40.691	-231.474	   3.401
     84.1880	  50.000	  46.539	-234.322	   3.400
     84.2214	  58.000	  47.740	-227.523	   3.400
     84.2548	  43.000	  44.106	-238.888	   3.399
     84.2883	  44.000	  38.532	-232.315	   3.398
     84.3217	  31.000	  33.784	-240.567	   3.398
     84.3551	  43.000	  31.059	-225.841	   3.397
     84.3885	  18.000	  30.385	-250.167	   3.396
     84.4219	  29.000	  30.864	-239.647	   3.396
     84.4554	  27.000	  30.778	-241.560	   3.395
     84.4888	  23.000	  28.657	-243.440	   3.395
     84.5222	  31.000	  24.787	-231.570	   3.394
     84.5556	  36.000	  20.513	-222.296	   3.394
     84.5891	  25.000	  16.766	-229.549	   3.393
     84.6225	  18.000	  13.835	-233.617	   3.393
     84.6559	  18.000	  11.689	-231.472	   3.392
     84.6893	  11.000	  10.180	-236.963	   3.392
     84.7227	   3.000	   9.135	-243.917	   3.391
     84.7562	  13.000	   8.405	-233.187	   3.391
     84.7896	   6.000	   7.880	-239.663	   3.390
     84.8230	   6.000	   7.489	-239.272	   3.390
     84.8564	   6.000	   7.189	-238.972	   3.389
     84.8899	   6.000	   6.954	-238.736	   3.389
     84.9233	   7.000	   6.767	-237.550	   3.389
     84.9567	  11.000	   6.619	-233.402	   3.388
     84.9901	  11.000	   6.503	-233.285	   3.388
     85.0235	  11.000	   6.414	-233.196	   3.387
     85.0570	   6.000	   6.348	-238.131	   3.387
     85.0904	  11.000	   6.305	-233.087	   3.387
     85.1238	   8.000	   6.282	-236.064	   3.386
     85.1572	   9.000	   6.280	-235.062	   3.386
     85.1907	   8.000	   6.299	-236.082	   3.386
     85.2241	  12.000	   6.343	-232.125	   3.385
     85.2575	  17.000	   6.414	-227.197	   3.385
     85.2909	   4.000	   6.521	-240.304	   3.385
     85.3244	  19.000	   6.677	-225.460	   3.384
     85.3578	  18.000	   6.905	-226.687	   3.384
     85.3912	  18.000	   7.241	-227.023	   3.384
     85.4246	  17.000	   7.741	-228.524	   3.384
     85.4580	  17.000	   8.481	-229.264	   3.383
     85.4915	  19.000	   9.538	-228.321	   3.383
     85.5249	  12.000	  10.981	-236.763	   3.383
     85.5583	  17.000	  12.775	-233.558	   3.383
     85.5917	  12.000	  14.747	-240.530	   3.383
     85.6252	  24.000	  16.327	-230.109	   3.382
     85.6586	  15.000	  16.786	-239.568	   3.382
     85.6920	  29.000	  15.989	-224.772	   3.382
     85.7254	  13.000	  14.620	-239.403	   3.382
     85.7589	  16.000	  13.401	-235.183	   3.382
     85.7923	  15.000	  12.674	-235.457	   3.382
     85.8257	  23.000	  12.504	-227.286	   3.382
     85.8591	  19.000	  12.712	-231.494	   3.382
     85.8925	  28.000	  12.914	-222.697	   3.382
     85.9259	  16.000	  12.687	-234.470	   3.381
     85.9594	  13.000	  11.972	-236.754	   3.381
     85.9928	   6.000	  11.080	-242.863	   3.381
     86.0262	  16.000	  10.305	-232.087	   3.381
     86.0596	  13.000	   9.775	-234.557	   3.381
     86.0931	  12.000	   9.516	-235.298	   3.381
     86.1265	  25.000	   9.522	-222.305	   3.381
     86.1599	  16.000	   9.790	-231.572	   3.381
     86.1933	  19.000	  10.343	-229.125	   3.381
     86.2268	  11.000	  11.257	-238.040	   3.381
     86.2602	  17.000	  12.681	-233.464	   3.381
     86.2936	  23.000	  14.847	-229.629	   3.381
     86.3270	  12.000	  18.039	-243.821	   3.381
     86.3604	  23.000	  22.551	-237.334	   3.382
     86.3939	  17.000	  28.546	-249.329	   3.382
     86.4273	  36.000	  35.785	-237.568	   3.382
     86.4607	  48.000	  43.083	-232.865	   3.382
     86.4941	  40.000	  47.900	-245.683	   3.382
     86.5276	  42.000	  47.820	-243.603	   3.382
     86.5610	  47.000	  43.477	-234.260	   3.382
     86.5944	  49.000	  37.852	-226.634	   3.382
     86.6278	  36.000	  33.385	-235.168	   3.383
     86.6613	  32.000	  30.868	-236.651	   3.383
     86.6947	  24.000	  30.328	-244.111	   3.383
     86.7281	  57.000	  30.913	-211.696	   3.383
     86.7615	  27.000	  31.013	-241.796	   3.383
     86.7949	  32.000	  29.166	-234.949	   3.384
     86.8284	  23.000	  25.489	-240.272	   3.384
     86.8618	  22.000	  21.255	-237.037	   3.384
     86.8952	  12.000	  17.436	-243.218	   3.384
     86.9286	  14.000	  14.421	-238.204	   3.385
     86.9621	  11.000	  12.142	-238.925	   3.385
     86.9955	   7.000	  10.506	-241.289	   3.385
     87.0289	   9.000	   9.355	-238.137	   3.386
     87.0623	  15.000	   8.539	-231.322	   3.386
     87.0957	   9.000	   7.946	-236.729	   3.386
     87.1292	  16.000	   7.499	-229.282	   3.387
     87.1626	  17.000	   7.149	-227.932	   3.387
     87.1960	   7.000	   6.867	-237.650	   3.387
     87.2294	   8.000	   6.635	-236.418	   3.388
     87.2629	   5.000	   6.441	-239.224	   3.388
     87.2963	  13.000	   6.278	-231.060	   3.388
     87.3297	   8.000	   6.138	-235.921	   3.389
     87.3631	   7.000	   6.018	-236.801	   3.389
     87.3965	  15.000	   5.915	-228.697	   3.390
     87.4300	   9.000	   5.825	-234.607	   3.390
     87.4634	   4.000	   5.746	-239.528	   3.391
     87.4968	   6.000	   5.677	-237.459	   3.391
     87.5302	   4.000	   5.615	-239.398	   3.391
     87.5637	   5.000	   5.562	-238.344	   3.392
     87.5971	   6.000	   5.514	-237.296	   3.392
     87.6305	   8.000	   5.471	-235.254	   3.393
     87.6639	   7.000	   5.434	-236.216	   3.394
     87.6974	   5.000	   5.400	-238.182	   3.394
     87.7308	   8.000	   5.337	-235.119	   3.395
     87.7642	   7.000	   5.311	-236.093	   3.395
     87.7976	   4.000	   5.288	-239.070	   3.396
     87.8310	   7.000	   5.267	-236.050	   3.396
     87.8645	   6.000	   5.249	-237.032	   3.397
     87.8979	  11.000	   5.234	-232.016	   3.397
     87.9313	   9.000	   5.220	-234.002	   3.398
     87.9647	   7.000	   5.208	-235.991	   3.399
     87.9982	   6.000	   5.182	-236.964	   3.399
     88.0316	   1.000	   5.174	-241.956	   3.400
     88.0650	   8.000	   5.167	-234.950	   3.401
     88.0984	  12.000	   5.162	-230.945	   3.401
     88.1318	  17.000	   5.158	-225.941	   3.402
     88.1653	   5.000	   5.156	-237.939	   3.403
     88.1987	  11.000	   5.155	-231.938	   3.403
     88.2321	   7.000	   5.156	-235.938	   3.404
     88.2655	   6.000	   5.157	-236.940	   3.405
     88.2990	   1.000	   5.160	-241.943	   3.406
     88.3324	  11.000	   5.164	-231.947	   3.406
     88.3658	   9.000	   5.170	-233.952	   3.407
     88.3992	   2.000	   5.176	-240.959	   3.408
     88.4326	  11.000	   5.184	-231.967	   3.409
     88.4661	   5.000	   5.193	-237.976	   3.410
     88.4995	   8.000	   5.204	-234.987	   3.410
     88.5329	   3.000	   5.216	-239.998	   3.411
     88.5663	   6.000	   5.229	-237.012	   3.412
     88.5998	   6.000	   5.244	-237.027	   3.413
     88.6332	   1.000	   5.261	-242.043	   3.414
     88.6666	   8.000	   5.279	-235.061	   3.415
     88.7000	   0.000	   5.299	-243.081	   3.415
     88.7334	  14.000	   5.320	-229.103	   3.416
     88.7669	   8.000	   5.344	-235.127	   3.417
     88.8003	  12.000	   5.370	-231.153	   3.418
     88.8337	   7.000	   5.399	-236.181	   3.419
     88.8671	   4.000	   5.430	-239.212	   3.420
     88.9006	   2.000	   5.464	-241.246	   3.421
     88.9340	   4.000	   5.501	-239.283	   3.422
     88.9674	  11.000	   5.541	-232.323	   3.423
     89.0008	   6.000	   5.585	-237.367	   3.424
     89.0343	   7.000	   5.633	-236.415	   3.425
     89.0677	   8.000	   5.685	-235.468	   3.426
     89.1011	  11.000	   5.743	-232.525	   3.427
     89.1345	   6.000	   5.806	-237.589	   3.428
     89.1679	   7.000	   5.876	-236.658	   3.429
     89.2014	  13.000	   5.952	-230.735	   3.430
     89.2348	   7.000	   6.029	-236.811	   3.431
     89.2682	   6.000	   6.123	-237.906	   3.432
     89.3016	   8.000	   6.228	-236.011	   3.433
     89.3351	   9.000	   6.345	-235.128	   3.434
     89.3685	   9.000	   6.477	-235.259	   3.435
     89.4019	  13.000	   6.625	-231.407	   3.436
     89.4353	   7.000	   6.792	-237.574	   3.438
     89.4688	   5.000	   6.982	-239.765	   3.439
     89.5022	   5.000	   7.196	-239.979	   3.440
     89.5356	  12.000	   7.457	-233.239	   3.441
     89.5690	   9.000	   7.750	-236.533	   3.442
     89.6024	   7.000	   8.095	-238.878	   3.443
     89.6359	  16.000	   8.505	-230.288	   3.445
     89.6693	  13.000	   8.995	-233.777	   3.446
     89.7027	  19.000	   9.583	-228.366	   3.447
     89.7361	  13.000	  10.294	-235.077	   3.448
     89.7695	   9.000	  11.151	-239.934	   3.450
     89.8030	  12.000	  12.188	-237.971	   3.451
     89.8364	   8.000	  13.476	-243.259	   3.452
     89.8698	  14.000	  15.151	-238.934	   3.453
     89.9032	  16.000	  17.476	-239.258	   3.455
     89.9367	  25.000	  20.816	-233.599	   3.456
     89.9701	  29.000	  25.644	-234.427	   3.457
     90.0035	  34.000	  32.492	-236.275	   3.459
     90.0369	  47.000	  41.819	-232.601	   3.460
     90.0703	  43.000	  53.733	-248.516	   3.461
     90.1038	  74.000	  67.578	-231.361	   3.463
     90.1372	 102.000	  80.714	-216.497	   3.464
     90.1706	  84.000	  88.400	-242.183	   3.465
     90.2040	  76.000	  86.968	-248.751	   3.467
     90.2375	  63.000	  78.278	-253.061	   3.468
     90.2709	  76.000	  67.616	-229.398	   3.470
     90.3043	  57.000	  58.970	-239.752	   3.471
     90.3377	  43.000	  53.933	-248.715	   3.472
     90.3712	  34.000	  52.586	-256.368	   3.474
     90.4046	  43.000	  53.757	-248.540	   3.475
     90.4380	  57.000	  54.995	-235.778	   3.477
     90.4714	  53.000	  53.355	-238.137	   3.478
     90.5048	  54.000	  47.856	-231.639	   3.480
     90.5383	  38.000	  40.236	-240.019	   3.481
     90.5717	  34.000	  32.663	-236.446	   3.483
     90.6051	  25.000	  26.241	-239.023	   3.484
     90.6385	  27.000	  21.237	-232.019	   3.486
     90.6720	  19.000	  17.526	-236.308	   3.487
     90.7054	   9.000	  14.850	-243.633	   3.489
     90.7388	  14.000	  12.940	-236.723	   3.491
     90.7722	  11.000	  11.560	-238.342	   3.492
     90.8056	   8.000	  10.534	-240.316	   3.494
     90.8391	  13.000	   9.745	-234.528	   3.495
     90.8725	   8.000	   9.119	-238.902	   3.497
     90.9059	   6.000	   8.610	-240.392	   3.499
     90.9393	   8.000	   8.187	-237.969	   3.500
     90.9728	   6.000	   7.830	-239.613	   3.502
     91.0062	  18.000	   7.528	-227.310	   3.504
     91.0396	   7.000	   7.268	-238.051	   3.505
     91.0730	   7.000	   7.043	-237.826	   3.507
     91.1064	   7.000	   6.848	-237.630	   3.509
     91.1399	   3.000	   6.677	-241.459	   3.510
     91.1733	  13.000	   6.526	-231.308	   3.512
     91.2067	  14.000	   6.393	-230.175	   3.514
     91.2401	   8.000	   6.274	-236.057	   3.516
     91.2736	   8.000	   6.168	-235.951	   3.517
     91.3070	   1.000	   6.074	-242.856	   3.519
     91.3404	   7.000	   5.989	-236.771	   3.521
     91.3738	   3.000	   5.912	-240.695	   3.523
     91.4073	   5.000	   5.843	-238.625	   3.524
     91.4407	  11.000	   5.780	-232.563	   3.526
     91.4741	   9.000	   5.723	-234.506	   3.528
     91.5075	   4.000	   5.672	-239.454	   3.530
     91.5409	   4.000	   5.625	-239.407	   3.532
     91.5744	   5.000	   5.582	-238.364	   3.534
     91.6078	   3.000	   5.543	-240.325	   3.535
     91.6412	  12.000	   5.567	-231.350	   3.537
     91.6746	  14.000	   5.536	-229.318	   3.539
     91.7081	   7.000	   5.507	-236.290	   3.541
     91.7415	   6.000	   5.481	-237.264	   3.543
     91.7749	   6.000	   5.458	-237.240	   3.545
     91.8083	   6.000	   5.437	-237.219	   3.547
     91.8418	   5.000	   5.418	-238.200	   3.549
     91.8752	   7.000	   5.401	-236.183	   3.551
     91.9086	   8.000	   5.386	-235.168	   3.553
     91.9420	   9.000	   5.402	-234.185	   3.555
     91.9754	   8.000	   5.391	-235.174	   3.557
     92.0089	   5.000	   5.382	-238.165	   3.559
     92.0423	   7.000	   5.375	-236.157	   3.561
     92.0757	   5.000	   5.369	-238.151	   3.563
     92.1091	   7.000	   5.364	-236.147	   3.565
     92.1425	   5.000	   5.362	-238.144	   3.567
     92.1760	   2.000	   5.361	-241.143	   3.569
     92.2094	  12.000	   5.362	-231.144	   3.571
     92.2428	   4.000	   5.364	-239.147	   3.573
     92.2762	  13.000	   5.369	-230.152	   3.575
     92.3097	   8.000	   5.376	-235.158	   3.577
     92.3431	   4.000	   5.385	-239.167	   3.580
     92.3765	   9.000	   5.396	-234.179	   3.582
     92.4099	   7.000	   5.410	-236.193	   3.584
     92.4433	   8.000	   5.427	-235.210	   3.586
     92.4768	   4.000	   5.448	-239.231	   3.588
     92.5102	   6.000	   5.473	-237.256	   3.590
     92.5436	   4.000	   5.503	-239.285	   3.593
     92.5770	   7.000	   5.538	-236.320	   3.595
     92.6105	   5.000	   5.580	-238.362	   3.597
     92.6439	   6.000	   5.630	-237.413	   3.599
     92.6773	   7.000	   5.690	-236.473	   3.601
     92.7107	   5.000	   5.764	-238.546	   3.604
     92.7442	   8.000	   5.854	-235.636	   3.606
     92.7776	   4.000	   5.967	-239.749	   3.608
     92.8110	   5.000	   6.113	-238.895	   3.610
     92.8444	   9.000	   6.307	-235.089	   3.613
     92.8778	   6.000	   6.573	-238.356	   3.615
     92.9113	  13.000	   6.948	-231.730	   3.617
     92.9447	  13.000	   7.477	-232.260	   3.620
     92.9781	   7.000	   8.214	-238.997	   3.622
     93.0115	  11.000	   9.209	-235.991	   3.624
     93.0450	  12.000	  10.484	-236.267	   3.627
     93.0784	   7.000	  11.973	-242.756	   3.629
     93.1118	  18.000	  13.449	-233.231	   3.632
     93.1452	  16.000	  14.448	-236.231	   3.634
     93.1786	  15.000	  14.525	-237.308	   3.636
     93.2121	  11.000	  13.730	-240.513	   3.639
     93.2455	  16.000	  12.570	-234.352	   3.641
     93.2789	   9.000	  11.520	-240.303	   3.644
     93.3123	   7.000	  10.816	-241.599	   3.646
     93.3458	  13.000	  10.514	-235.296	   3.649
     93.3792	   7.000	  10.557	-241.340	   3.651
     93.4126	  12.000	  10.768	-236.551	   3.653
     93.4460	  13.000	  10.858	-235.640	   3.656
     93.4794	  11.000	  10.565	-237.348	   3.658
     93.5129	   5.000	   9.894	-242.677	   3.661
     93.5463	  15.000	   9.067	-231.850	   3.664
     93.5797	   9.000	   8.283	-237.066	   3.666
     93.6131	   6.000	   7.632	-239.415	   3.669
     93.6466	  12.000	   7.130	-232.913	   3.671
     93.6800	  14.000	   6.761	-230.543	   3.674
     93.7134	   8.000	   6.497	-236.280	   3.676
     93.7468	   4.000	   6.312	-240.095	   3.679
     93.7803	   6.000	   6.183	-237.965	   3.682
     93.8137	   4.000	   6.021	-239.803	   3.684
     93.8471	   7.000	   5.957	-236.740	   3.687
     93.8805	   4.000	   5.925	-239.707	   3.690
     93.9139	   8.000	   5.895	-235.678	   3.692
     93.9474	   3.000	   5.877	-240.659	   3.695
     93.9808	   7.000	   5.868	-236.650	   3.698
     94.0142	   8.000	   5.867	-235.649	   3.700
     94.0476	   3.000	   5.873	-240.655	   3.703
     94.0811	   4.000	   5.885	-239.668	   3.706
     94.1145	  11.000	   5.869	-232.651	   3.708
     94.1479	  11.000	   5.894	-232.677	   3.711
     94.1813	   3.000	   5.932	-240.714	   3.714
     94.2148	  11.000	   5.969	-232.752	   3.717
     94.2482	   6.000	   6.013	-237.796	   3.719
     94.2816	   6.000	   6.063	-237.846	   3.722
     94.3150	   9.000	   6.121	-234.903	   3.725
     94.3484	   8.000	   6.186	-235.969	   3.728
     94.3819	   7.000	   6.260	-237.042	   3.731
     94.4153	   7.000	   6.343	-237.125	   3.733
     94.4487	   8.000	   6.437	-236.219	   3.736
     94.4821	   9.000	   6.542	-235.325	   3.739
     94.5155	   6.000	   6.662	-238.445	   3.742
     94.5490	   8.000	   6.798	-236.580	   3.745
     94.5824	   9.000	   6.952	-235.735	   3.748
     94.6158	  17.000	   7.129	-227.911	   3.751
     94.6492	   5.000	   7.331	-240.114	   3.754
     94.6827	   5.000	   7.565	-240.348	   3.756
     94.7161	  15.000	   7.837	-230.620	   3.759
     94.7495	  11.000	   8.155	-234.938	   3.762
     94.7829	   7.000	   8.531	-239.313	   3.765
     94.8163	  12.000	   8.979	-234.761	   3.768
     94.8498	  14.000	   9.521	-233.303	   3.771
     94.8832	  17.000	  10.187	-230.970	   3.774
     94.9166	  16.000	  11.027	-232.810	   3.777
     94.9500	  14.000	  12.119	-235.901	   3.780
     94.9835	  22.000	  13.582	-229.365	   3.783
     95.0169	  16.000	  15.601	-237.384	   3.786
     95.0503	  19.000	  18.425	-237.208	   3.789
     95.0837	  17.000	  22.365	-243.148	   3.792
     95.1172	  24.000	  27.752	-241.535	   3.796
     95.1506	  42.000	  34.837	-230.619	   3.799
     95.1840	  45.000	  43.620	-236.403	   3.802
     95.2174	  53.000	  53.436	-238.218	   3.805
     95.2508	  68.000	  62.372	-232.155	   3.808
     95.2843	  91.000	  67.292	-214.075	   3.811
     95.3177	  76.000	  66.030	-227.813	   3.814
     95.3511	  62.000	  59.877	-235.659	   3.817
     95.3845	  47.000	  52.194	-242.977	   3.820
     95.4180	  44.000	  45.626	-239.409	   3.824
     95.4514	  40.000	  41.359	-239.142	   3.827
     95.4848	  44.000	  39.625	-233.408	   3.830
     95.5182	  39.000	  40.017	-238.799	   3.833
     95.5517	  36.000	  41.454	-243.237	   3.836
     95.5851	  39.000	  42.153	-240.935	   3.840
     95.6185	  35.000	  40.454	-243.237	   3.843
     95.6519	  45.000	  36.252	-229.035	   3.846
     95.6853	  34.000	  30.881	-234.664	   3.849
     95.7188	  29.000	  25.653	-234.435	   3.853
     95.7522	  29.000	  21.213	-229.996	   3.856
     95.7856	  22.000	  17.708	-233.491	   3.859
     95.8190	  18.000	  15.060	-234.843	   3.863
     95.8524	  23.000	  13.113	-227.896	   3.866
     95.8859	  14.000	  11.696	-235.479	   3.869
     95.9193	   8.000	  10.657	-240.440	   3.873
     95.9527	  14.000	   9.882	-233.664	   3.876
     95.9861	   9.000	   9.286	-238.069	   3.879
     96.0196	  11.000	   8.817	-235.599	   3.883
     96.0530	   7.000	   8.438	-239.221	   3.886
     96.0864	   9.000	   8.128	-236.911	   3.890
     96.1198	   8.000	   7.873	-237.655	   3.893
     96.1533	   4.000	   7.661	-241.444	   3.896
     96.1867	  13.000	   7.486	-232.269	   3.900
     96.2201	  11.000	   7.343	-234.126	   3.903
     96.2535	   5.000	   7.229	-240.011	   3.907
     96.2869	   9.000	   7.140	-235.923	   3.910
     96.3204	   4.000	   7.077	-240.860	   3.914
     96.3538	  11.000	   7.041	-233.824	   3.917
     96.3872	   7.000	   7.036	-237.818	   3.921
     96.4206	   8.000	   7.068	-236.851	   3.924
     96.4541	   8.000	   7.150	-236.933	   3.928
     96.4875	   4.000	   7.298	-241.081	   3.931
     96.5209	   8.000	   7.534	-237.316	   3.935
     96.5543	   9.000	   7.880	-236.662	   3.938
     96.5877	  19.000	   8.354	-227.137	   3.942
     96.6212	  11.000	   8.960	-235.742	   3.945
     96.6546	  13.000	   9.655	-234.438	   3.949
     96.6880	  14.000	  10.316	-234.098	   3.953
     96.7214	  11.000	  10.721	-237.504	   3.956
     96.7549	  12.000	  10.690	-236.472	   3.960
     96.7883	  13.000	  10.271	-235.053	   3.964
     96.8217	   3.000	   9.698	-244.481	   3.967
     96.8551	   9.000	   9.173	-237.955	   3.971
     96.8885	   5.000	   8.816	-241.599	   3.975
     96.9220	  11.000	   8.651	-235.434	   3.978
     96.9554	   7.000	   8.661	-239.444	   3.982
     96.9888	  14.000	   8.788	-232.570	   3.986
     97.0222	  16.000	   8.919	-230.702	   3.989
     97.0557	  16.000	   8.922	-230.705	   3.993
     97.0891	  12.000	   8.740	-234.523	   3.997
     97.1225	  14.000	   8.440	-232.222	   4.001
     97.1559	   4.000	   8.129	-241.911	   4.004
     97.1893	   6.000	   7.889	-239.672	   4.008
     97.2228	   0.000	   7.751	-245.534	   4.012
     97.2562	   7.000	   7.730	-238.512	   4.016
     97.2896	   9.000	   7.839	-236.621	   4.020
     97.3230	  14.000	   8.101	-231.883	   4.023
     97.3565	   9.000	   8.548	-237.331	   4.027
     97.3899	   4.000	   9.227	-243.009	   4.031
     97.4233	   9.000	  10.184	-238.967	   4.035
     97.4567	   8.000	  11.455	-241.238	   4.039
     97.4902	  13.000	  13.028	-237.810	   4.043
     97.5236	  19.000	  14.770	-233.552	   4.047
     97.5570	  18.000	  16.331	-236.113	   4.050
     97.5904	  14.000	  17.165	-240.947	   4.054
     97.6238	  16.000	  16.907	-238.690	   4.058
     97.6573	   8.000	  15.781	-245.563	   4.062
     97.6907	  13.000	  14.364	-239.147	   4.066
     97.7241	  14.000	  13.121	-236.904	   4.070
     97.7575	  14.000	  12.272	-236.055	   4.074
     97.7910	   7.000	  11.872	-242.654	   4.078
     97.8244	  11.000	  11.871	-238.653	   4.082
     97.8578	   8.000	  12.119	-241.901	   4.086
     97.8912	  19.000	  12.342	-231.124	   4.090
     97.9247	   9.000	  12.220	-241.003	   4.094
     97.9581	  11.000	  11.619	-238.402	   4.098
     97.9915	  13.000	  10.702	-235.484	   4.102
     98.0249	   9.000	   9.722	-238.504	   4.106
     98.0583	  13.000	   8.844	-233.626	   4.110
     98.0918	  11.000	   8.125	-234.907	   4.115
     98.1252	   9.000	   7.567	-236.349	   4.119
     98.1586	   5.000	   7.147	-239.930	   4.123
     98.1920	   5.000	   6.838	-239.620	   4.127
     98.2254	   6.000	   6.610	-238.393	   4.131
     98.2589	   9.000	   6.441	-235.223	   4.135
     98.2923	  11.000	   6.313	-233.095	   4.139
     98.3257	   4.000	   6.214	-239.996	   4.143
     98.3591	   4.000	   6.137	-239.919	   4.148
     98.3926	   3.000	   6.076	-240.859	   4.152
     98.4260	   8.000	   6.031	-235.814	   4.156
     98.4594	   6.000	   5.999	-237.782	   4.160
     98.4928	   6.000	   5.981	-237.763	   4.164
     98.5262	   6.000	   5.976	-237.759	   4.169
     98.5597	  11.000	   5.984	-232.767	   4.173
     98.5931	   5.000	   6.003	-238.785	   4.177
     98.6265	   8.000	   6.025	-235.808	   4.181
     98.6599	  12.000	   6.039	-231.821	   4.186
     98.6934	  11.000	   6.029	-232.812	   4.190
     98.7268	   9.000	   5.994	-234.776	   4.194
     98.7602	   6.000	   5.944	-237.726	   4.199
     98.7936	   5.000	   5.894	-238.676	   4.203
     98.8271	   5.000	   5.853	-238.636	   4.207
     98.8605	   8.000	   5.825	-235.608	   4.212
     98.8939	   8.000	   5.810	-235.593	   4.216
     98.9273	   5.000	   5.806	-238.588	   4.220
     98.9607	   6.000	   5.806	-237.589	   4.225
     98.9942	   3.000	   5.804	-240.587	   4.229
     99.0276	   9.000	   5.792	-234.575	   4.234
     99.0610	   8.000	   5.712	-235.494	   4.238
     99.0944	   8.000	   5.683	-235.465	   4.242
     99.1279	   5.000	   5.654	-238.437	   4.247
     99.1613	   6.000	   5.629	-237.412	   4.251
     99.1947	   4.000	   5.609	-239.392	   4.256
     99.2281	   7.000	   5.594	-236.376	   4.260
     99.2616	   6.000	   5.583	-237.365	   4.265
     99.2950	   5.000	   5.574	-238.357	   4.269
     99.3284	   7.000	   5.568	-236.351	   4.274
     99.3618	   4.000	   5.536	-239.319	   4.278
     99.3952	   9.000	   5.533	-234.316	   4.283
     99.4287	   5.000	   5.531	-238.314	   4.287
     99.4621	   2.000	   5.530	-241.313	   4.292
     99.4955	   7.000	   5.530	-236.312	   4.296
     99.5289	   8.000	   5.530	-235.312	   4.301
     99.5623	   8.000	   5.530	-235.313	   4.306
     99.5958	   4.000	   5.531	-239.314	   4.310
     99.6292	   6.000	   5.532	-237.315	   4.315
     99.6626	   5.000	   5.533	-238.316	   4.319
     99.6960	   3.000	   5.535	-240.318	   4.324
     99.7295	   7.000	   5.537	-236.320	   4.329
     99.7629	   4.000	   5.539	-239.322	   4.333
     99.7963	   7.000	   5.541	-236.324	   4.338
     99.8297	   6.000	   5.544	-237.326	   4.343
     99.8632	   7.000	   5.546	-236.329	   4.347
     99.8966	   8.000	   5.549	-235.331	   4.352
     99.9300	   5.000	   5.551	-238.334	   4.357
     99.9634	   4.000	   5.554	-239.337	   4.362
     99.9968	   9.000	   5.569	-234.351	   4.366
     24.4704	        	        	        	        	       0	(  0  1  2)	  0  1
     24.5316	        	        	        	        	       0	(  0  1  2)	  0  2
     33.5710	        	        	        	        	       0	(  1  0  4)	  0  1
     33.6561	        	        	        	        	       0	(  1  0  4)	  0  2
     36.1753	        	        	        	        	       0	(  1  1  0)	  0  1
     36.2675	        	        	        	        	       0	(  1  1  0)	  0  2
     39.7178	        	        	        	        	       0	(  0  0  6)	  0  1
     39.8198	        	        	        	        	       0	(  0  0  6)	  0  2
     41.4560	        	        	        	        	       0	(  1  1  3)	  0  1
     41.5628	        	        	        	        	       0	(  1  1  3)	  0  2
     44.1749	        	        	        	        	       0	(  2  0  2)	  0  1
     44.2894	        	        	        	        	       0	(  2  0  2)	  0  2
     50.1931	        	        	        	        	       0	(  0  2  4)	  0  1
     50.3253	        	        	        	        	       0	(  0  2  4)	  0  2
     54.8178	        	        	        	        	       0	(  1  1  6)	  0  1
     54.9641	        	        	        	        	       0	(  1  1  6)	  0  2
     57.0821	        	        	        	        	       0	(  2  1  1)	  0  1
     57.2356	        	        	        	        	       0	(  2  1  1)	  0  2
     58.3216	        	        	        	        	       0	(  0  1  8)	  0  1
     58.3870	        	        	        	        	       0	(  1  2  2)	  0  1
     58.4791	        	        	        	        	       0	(  0  1  8)	  0  2
     58.5446	        	        	        	        	       0	(  1  2  2)	  0  2
     63.4392	        	        	        	        	       0	(  2  1  4)	  0  1
     63.6136	        	        	        	        	       0	(  2  1  4)	  0  2
     65.0931	        	        	        	        	       0	(  3  0  0)	  0  1
     65.2732	        	        	        	        	       0	(  3  0  0)	  0  2
     67.0847	        	        	        	        	       0	(  1  2  5)	  0  1
     67.2718	        	        	        	        	       0	(  1  2  5)	  0  2
     70.6052	        	        	        	        	       0	(  2  0  8)	  0  1
     70.8051	        	        	        	        	       0	(  2  0  8)	  0  2
     72.9000	        	        	        	        	       0	(  1  0 10)	  0  1
     73.1085	        	        	        	        	       0	(  1  0 10)	  0  2
     73.3039	        	        	        	        	       0	(  1  1  9)	  0  1
     73.5139	        	        	        	        	       0	(  1  1  9)	  0  2
     76.3916	        	        	        	        	       0	(  2  1  7)	  0  1
     76.6137	        	        	        	        	       0	(  2  1  7)	  0  2
     76.8174	        	        	        	        	       0	(  2  2  0)	  0  1
     77.0413	        	        	        	        	       0	(  2  2  0)	  0  2
     79.0463	        	        	        	        	       0	(  0  3  6)	  0  1
     79.0463	        	        	        	        	       0	(  3  0  6)	  0  1
     79.2792	        	        	        	        	       0	(  0  3  6)	  0  2
     79.2792	        	        	        	        	       0	(  3  0  6)	  0  2
     80.1966	        	        	        	        	       0	(  2  2  3)	  0  1
     80.4343	        	        	        	        	       0	(  2  2  3)	  0  2
     80.9518	        	        	        	        	       0	(  1  3  1)	  0  1
     81.1928	        	        	        	        	       0	(  1  3  1)	  0  2
     82.0115	        	        	        	        	       0	(  1  2  8)	  0  1
     82.0677	        	        	        	        	       0	(  3  1  2)	  0  1
     82.2570	        	        	        	        	       0	(  1  2  8)	  0  2
     82.3135	        	        	        	        	       0	(  3  1  2)	  0  2
     84.2071	        	        	        	        	       0	(  0  2 10)	  0  1
     84.4622	        	        	        	        	       0	(  0  2 10)	  0  2
     85.6473	        	        	        	        	       0	(  0  0 12)	  0  1
     85.9090	        	        	        	        	       0	(  0  0 12)	  0  2
     86.5057	        	        	        	        	       0	(  1  3  4)	  0  1
     86.7713	        	        	        	        	       0	(  1  3  4)	  0  2
     89.8190	        	        	        	        	       0	(  3  1  5)	  0  1
     90.1006	        	        	        	        	       0	(  3  1  5)	  0  2
     90.1777	        	        	        	        	       0	(  2  2  6)	  0  1
     90.4610	        	        	        	        	       0	(  2  2  6)	  0  2
     93.1598	        	        	        	        	       0	(  0  4  2)	  0  1
     93.4583	        	        	        	        	       0	(  0  4  2)	  0  2
     95.2898	        	        	        	        	       0	(  2  1 10)	  0  1
     95.5996	        	        	        	        	       0	(  2  1 10)	  0  2
     96.7324	        	        	        	        	       0	(  1  1 12)	  0  1
     97.0502	        	        	        	        	       0	(  1  1 12)	  0  2
     97.5956	        	        	        	        	       0	(  4  0  4)	  0  1
     97.9183	        	        	        	        	       0	(  4  0  4)	  0  2
     98.6825	        	        	        	        	       0	(  1  3  7)	  0  1
     99.0115	        	        	        	        	       0	(  1  3  7)	  0  2
    103.1235	        	        	        	        	       0	(  1  2 11)	  0  1
    103.2379	        	        	        	        	       0	(  3  2  1)	  0  1
    103.4796	        	        	        	        	       0	(  1  2 11)	  0  2
    103.5947	        	        	        	        	       0	(  3  2  1)	  0  2
    104.3171	        	        	        	        	       0	(  3  1  8)	  0  1
    104.3746	        	        	        	        	       0	(  2  3  2)	  0  1
    104.6810	        	        	        	        	       0	(  3  1  8)	  0  2
    104.7388	        	        	        	        	       0	(  2  3  2)	  0  2
    106.9826	        	        	        	        	       0	(  2  2  9)	  0  1
    107.3645	        	        	        	        	       0	(  2  2  9)	  0  2
    108.8088	        	        	        	        	       0	(  0  1 14)	  0  1
    108.9853	        	        	        	        	       0	(  3  2  4)	  0  1
    109.2038	        	        	        	        	       0	(  0  1 14)	  0  2
    109.3816	        	        	        	        	       0	(  3  2  4)	  0  2
    110.5692	        	        	        	        	       0	(  4  1  0)	  0  1
    110.9774	        	        	        	        	       0	(  4  1  0)	  0  2
