 TiO2   Chi2:  1.4531  CELL:    4.59423   4.59423   2.95897   90.0000   90.0000   90.0000   SPGR: P 42/m n m             TEMP:      0.00
  2   2394     1.54060     1.54439     0.00000    -0.00123     0.00000    0
    56    56     0     0     0
 2Theta	Yobs	Ycal	Yobs-Ycal	Backg	Posr	(hkl)	K
     20.0167	   56.00	   44.86	 -994.45	   43.37
     20.0501	   54.00	   44.79	 -996.39	   43.30
     20.0836	   43.00	   44.72	-1007.32	   43.24
     20.1170	   55.00	   44.66	 -995.25	   43.17
     20.1504	   52.00	   44.59	 -998.19	   43.11
     20.1838	   49.00	   44.53	-1001.12	   43.04
     20.2172	   54.00	   44.46	 -996.06	   42.98
     20.2507	   52.00	   44.40	 -997.99	   42.91
     20.2841	   46.00	   44.33	-1003.93	   42.85
     20.3175	   49.00	   44.27	-1000.86	   42.78
     20.3509	   45.00	   44.20	-1004.80	   42.72
     20.3844	   38.00	   44.14	-1011.73	   42.65
     20.4178	   47.00	   44.07	-1002.67	   42.59
     20.4512	   60.00	   44.01	 -989.60	   42.52
     20.4846	   49.00	   43.94	-1000.54	   42.46
     20.5181	   67.00	   43.88	 -982.47	   42.39
     20.5515	   61.00	   43.81	 -988.41	   42.33
     20.5849	   48.00	   43.75	-1001.34	   42.26
     20.6183	   53.00	   43.68	 -996.28	   42.20
     20.6517	   61.00	   43.62	 -988.22	   42.14
     20.6852	   52.00	   43.56	 -997.15	   42.07
     20.7186	   64.00	   43.49	 -985.09	   42.01
     20.7520	   57.00	   43.43	 -992.02	   41.94
     20.7854	   58.00	   43.36	 -990.96	   41.88
     20.8189	   48.00	   43.30	-1000.90	   41.81
     20.8523	   49.00	   43.24	 -999.83	   41.75
     20.8857	   46.00	   43.17	-1002.77	   41.69
     20.9191	   40.00	   43.11	-1008.70	   41.62
     20.9525	   57.00	   43.05	 -991.64	   41.56
     20.9860	   62.00	   42.98	 -986.58	   41.50
     21.0194	   54.00	   42.92	 -994.51	   41.43
     21.0528	   36.00	   42.86	-1012.45	   41.37
     21.0862	   46.00	   42.79	-1002.39	   41.31
     21.1197	   48.00	   42.73	-1000.32	   41.24
     21.1531	   49.00	   42.67	 -999.26	   41.18
     21.1865	   45.00	   42.60	-1003.20	   41.12
     21.2199	   55.00	   42.54	 -993.13	   41.05
     21.2533	   53.00	   42.48	 -995.07	   40.99
     21.2868	   34.00	   42.41	-1014.01	   40.93
     21.3202	   47.00	   42.35	-1000.95	   40.87
     21.3536	   45.00	   42.29	-1002.88	   40.80
     21.3870	   58.00	   42.23	 -989.82	   40.74
     21.4205	   43.00	   42.16	-1004.76	   40.68
     21.4539	   61.00	   42.10	 -986.70	   40.62
     21.4873	   51.00	   42.04	 -996.63	   40.55
     21.5207	   49.00	   41.98	 -998.57	   40.49
     21.5541	   48.00	   41.91	 -999.51	   40.43
     21.5876	   35.00	   41.85	-1012.45	   40.37
     21.6210	   47.00	   41.79	-1000.39	   40.30
     21.6544	   43.00	   41.73	-1004.32	   40.24
     21.6878	   58.00	   41.67	 -989.26	   40.18
     21.7213	   53.00	   41.60	 -994.20	   40.12
     21.7547	   41.00	   41.54	-1006.14	   40.06
     21.7881	   46.00	   41.48	-1001.08	   40.00
     21.8215	   51.00	   41.42	 -996.01	   39.93
     21.8550	   51.00	   41.36	 -995.95	   39.87
     21.8884	   57.00	   41.30	 -989.89	   39.81
     21.9218	   56.00	   41.24	 -990.83	   39.75
     21.9552	   47.00	   41.17	 -999.77	   39.69
     21.9886	   51.00	   41.11	 -995.71	   39.63
     22.0221	   48.00	   41.05	 -998.65	   39.57
     22.0555	   49.00	   40.99	 -997.59	   39.51
     22.0889	   52.00	   40.93	 -994.53	   39.44
     22.1223	   34.00	   40.87	-1012.46	   39.38
     22.1558	   32.00	   40.81	-1014.40	   39.32
     22.1892	   39.00	   40.75	-1007.34	   39.26
     22.2226	   33.00	   40.69	-1013.28	   39.20
     22.2560	   45.00	   40.63	-1001.22	   39.14
     22.2894	   35.00	   40.57	-1011.16	   39.08
     22.3229	   42.00	   40.51	-1004.10	   39.02
     22.3563	   46.00	   40.44	-1000.04	   38.96
     22.3897	   46.00	   40.38	 -999.98	   38.90
     22.4231	   46.00	   40.32	 -999.92	   38.84
     22.4566	   54.00	   40.26	 -991.86	   38.78
     22.4900	   52.00	   40.20	 -993.80	   38.72
     22.5234	   60.00	   40.14	 -985.74	   38.66
     22.5568	   41.00	   40.08	-1004.68	   38.60
     22.5902	   38.00	   40.02	-1007.62	   38.54
     22.6237	   27.00	   39.96	-1018.56	   38.48
     22.6571	   39.00	   39.91	-1006.50	   38.42
     22.6905	   36.00	   39.85	-1009.44	   38.36
     22.7239	   46.00	   39.79	 -999.38	   38.30
     22.7574	   30.00	   39.75	-1015.35	   38.24
     22.7908	   38.00	   39.70	-1007.29	   38.18
     22.8242	   46.00	   39.65	 -999.25	   38.12
     22.8576	   45.00	   39.59	-1000.19	   38.06
     22.8911	   48.00	   39.54	 -997.13	   38.00
     22.9245	   52.00	   39.48	 -993.07	   37.94
     22.9579	   37.00	   39.42	-1008.02	   37.89
     22.9913	   30.00	   39.36	-1014.96	   37.83
     23.0247	   49.00	   39.31	 -995.90	   37.77
     23.0582	   24.00	   39.25	-1020.84	   37.71
     23.0916	   33.00	   39.19	-1011.79	   37.65
     23.1250	   41.00	   39.13	-1003.73	   37.59
     23.1584	   47.00	   39.08	 -997.67	   37.53
     23.1919	   47.00	   39.02	 -997.62	   37.48
     23.2253	   36.00	   38.96	-1008.56	   37.42
     23.2587	   36.00	   38.91	-1008.50	   37.36
     23.2921	   48.00	   38.85	 -996.45	   37.30
     23.3255	   39.00	   38.80	-1005.39	   37.24
     23.3590	   58.00	   38.74	 -986.34	   37.18
     23.3924	   26.00	   38.69	-1018.28	   37.13
     23.4258	   41.00	   38.63	-1003.22	   37.07
     23.4592	   34.00	   38.57	-1010.17	   37.01
     23.4927	   32.00	   38.52	-1012.11	   36.95
     23.5261	   48.00	   38.47	 -996.06	   36.89
     23.5595	   43.00	   38.41	-1001.01	   36.84
     23.5929	   49.00	   38.36	 -994.95	   36.78
     23.6263	   38.00	   38.30	-1005.90	   36.72
     23.6598	   35.00	   38.25	-1008.84	   36.66
     23.6932	   39.00	   38.20	-1004.79	   36.61
     23.7266	   40.00	   38.14	-1003.74	   36.55
     23.7600	   49.00	   38.09	 -994.69	   36.49
     23.7935	   37.00	   38.04	-1006.63	   36.44
     23.8269	   47.00	   37.99	 -996.58	   36.38
     23.8603	   41.00	   37.93	-1002.53	   36.32
     23.8937	   40.00	   37.88	-1003.48	   36.26
     23.9271	   40.00	   37.83	-1003.43	   36.21
     23.9606	   37.00	   37.78	-1006.38	   36.15
     23.9940	   40.00	   37.73	-1003.33	   36.09
     24.0274	   39.00	   37.69	-1004.28	   36.04
     24.0608	   39.00	   37.64	-1004.23	   35.98
     24.0943	   41.00	   37.59	-1002.19	   35.92
     24.1277	   39.00	   37.54	-1004.14	   35.87
     24.1611	   37.00	   37.50	-1006.09	   35.81
     24.1945	   50.00	   37.46	 -993.05	   35.76
     24.2280	   33.00	   37.41	-1010.01	   35.70
     24.2614	   47.00	   37.37	 -995.97	   35.64
     24.2948	   41.00	   37.33	-1001.93	   35.59
     24.3282	   46.00	   37.29	 -996.89	   35.53
     24.3616	   40.00	   37.25	-1002.85	   35.48
     24.3951	   40.00	   37.22	-1002.82	   35.42
     24.4285	   37.00	   37.19	-1005.78	   35.36
     24.4619	   27.00	   37.16	-1015.75	   35.31
     24.4953	   46.00	   37.13	 -996.73	   35.25
     24.5288	   40.00	   37.11	-1002.71	   35.20
     24.5622	   32.00	   37.09	-1010.69	   35.14
     24.5956	   41.00	   37.08	-1001.68	   35.09
     24.6290	   57.00	   37.08	 -985.67	   35.03
     24.6624	   40.00	   37.08	-1002.67	   34.98
     24.6959	   31.00	   37.09	-1011.68	   34.92
     24.7293	   31.00	   37.11	-1011.71	   34.87
     24.7627	   36.00	   37.15	-1006.74	   34.81
     24.7961	   52.00	   37.20	 -990.80	   34.76
     24.8296	   37.00	   37.28	-1005.87	   34.70
     24.8630	   41.00	   38.46	-1003.06	   34.65
     24.8964	   40.00	   38.64	-1004.23	   34.59
     24.9298	   35.00	   39.40	-1009.99	   34.54
     24.9632	   40.00	   39.71	-1005.30	   34.48
     24.9967	   46.00	   40.12	 -999.72	   34.43
     25.0301	   48.00	   40.68	 -998.27	   34.37
     25.0635	   43.00	   41.46	-1004.05	   34.32
     25.0969	   53.00	   42.59	 -995.18	   34.27
     25.1304	   46.00	   44.32	-1003.91	   34.21
     25.1638	   48.00	   47.30	-1004.90	   34.16
     25.1972	   42.00	   53.57	-1017.16	   34.10
     25.2306	   63.00	   68.05	-1010.64	   34.05
     25.2640	  117.00	   96.98	 -985.57	   34.00
     25.2975	  123.00	  134.29	-1016.89	   33.94
     25.3309	  156.00	  143.25	 -992.84	   33.89
     25.3643	  116.00	  125.81	-1015.40	   33.83
     25.3977	   94.00	   97.87	-1009.46	   33.78
     25.4312	   70.00	   70.93	-1006.52	   33.73
     25.4646	   48.00	   55.45	-1013.04	   33.67
     25.4980	   42.00	   48.21	-1011.81	   33.62
     25.5314	   62.00	   44.85	 -988.45	   33.57
     25.5649	   43.00	   43.04	-1005.63	   33.51
     25.5983	   41.00	   41.91	-1006.51	   33.46
     25.6317	   42.00	   41.16	-1004.76	   33.41
     25.6651	   34.00	   40.65	-1012.25	   33.35
     25.6985	   35.00	   40.30	-1010.89	   33.30
     25.7320	   38.00	   40.05	-1007.65	   33.25
     25.7654	   43.00	   39.89	-1002.49	   33.20
     25.7988	   45.00	   39.79	-1000.38	   33.14
     25.8322	   60.00	   39.73	 -985.33	   33.09
     25.8657	   39.00	   39.72	-1006.32	   33.04
     25.8991	   37.00	   39.74	-1008.34	   32.98
     25.9325	   40.00	   39.79	-1005.39	   32.93
     25.9659	   36.00	   39.87	-1009.47	   32.88
     25.9993	   35.00	   39.97	-1010.57	   32.83
     26.0328	   40.00	   40.10	-1005.70	   32.78
     26.0662	   26.00	   40.26	-1019.85	   32.72
     26.0996	   40.00	   40.44	-1006.04	   32.67
     26.1330	   32.00	   40.65	-1014.24	   32.62
     26.1665	   47.00	   40.88	 -999.48	   32.57
     26.1999	   39.00	   41.15	-1007.74	   32.51
     26.2333	   30.00	   41.45	-1017.04	   32.46
     26.2667	   49.00	   41.78	 -998.38	   32.41
     26.3001	   39.00	   42.15	-1008.75	   32.36
     26.3336	   38.00	   42.57	-1010.16	   32.31
     26.3670	   42.00	   43.03	-1006.62	   32.26
     26.4004	   32.00	   43.54	-1017.14	   32.20
     26.4338	   53.00	   44.11	 -996.71	   32.15
     26.4673	   61.00	   44.75	 -989.35	   32.10
     26.5007	   62.00	   45.47	 -989.07	   32.05
     26.5341	   71.00	   46.28	 -980.87	   32.00
     26.5675	   60.00	   47.18	 -992.78	   31.95
     26.6010	   60.00	   48.21	 -993.80	   31.90
     26.6344	   70.00	   49.36	 -984.96	   31.85
     26.6678	   64.00	   50.68	 -992.28	   31.80
     26.7012	   75.00	   52.19	 -982.78	   31.74
     26.7346	   73.00	   53.91	 -986.51	   31.69
     26.7681	   60.00	   55.91	-1001.50	   31.64
     26.8015	   68.00	   58.23	 -995.82	   31.59
     26.8349	   62.00	   60.94	-1004.54	   31.54
     26.8683	   56.00	   64.14	-1013.74	   31.49
     26.9018	   60.00	   67.95	-1013.54	   31.44
     26.9352	   71.00	   72.52	-1007.12	   31.39
     26.9686	   80.00	   78.08	-1003.68	   31.34
     27.0020	   84.00	   84.93	-1006.52	   31.29
     27.0354	   98.00	   93.48	-1001.07	   31.24
     27.0689	  112.00	  104.35	 -997.94	   31.19
     27.1023	  114.00	  118.45	-1010.04	   31.14
     27.1357	  125.00	  137.18	-1017.77	   31.09
     27.1691	  184.00	  162.78	 -984.38	   31.04
     27.2026	  200.00	  199.04	-1004.63	   30.99
     27.2360	  268.00	  252.90	 -990.49	   30.94
     27.2694	  316.00	  340.15	-1029.74	   30.89
     27.3028	  469.00	  507.58	-1044.18	   30.84
     27.3362	  911.00	  887.00	 -981.60	   30.79
     27.3697	 1750.00	 1712.61	 -968.21	   30.74
     27.4031	 3095.00	 3065.04	 -975.63	   30.69
     27.4365	 3946.00	 4022.38	-1081.98	   30.64
     27.4699	 3735.00	 3651.32	 -921.91	   30.59
     27.5034	 2920.00	 2888.01	 -973.61	   30.54
     27.5368	 1769.00	 1826.87	-1063.47	   30.50
     27.5702	 1057.00	 1000.48	 -949.08	   30.45
     27.6036	  557.00	  563.55	-1012.14	   30.40
     27.6371	  366.00	  361.28	-1000.88	   30.35
     27.6705	  251.00	  261.66	-1016.25	   30.30
     27.7039	  180.00	  203.54	-1029.14	   30.25
     27.7373	  143.00	  165.29	-1027.88	   30.20
     27.7707	  149.00	  138.51	 -995.10	   30.15
     27.8042	  111.00	  119.01	-1013.61	   30.11
     27.8376	   95.00	  104.38	-1014.97	   30.06
     27.8710	   91.00	   93.11	-1007.71	   30.01
     27.9044	   92.00	   84.25	 -997.85	   29.96
     27.9379	   87.00	   77.16	 -995.75	   29.91
     27.9713	   84.00	   71.36	 -992.95	   29.86
     28.0047	   78.00	   66.58	 -994.18	   29.82
     28.0381	   67.00	   62.61	-1001.20	   29.77
     28.0715	   47.00	   59.25	-1017.85	   29.72
     28.1050	   57.00	   56.40	-1004.99	   29.67
     28.1384	   58.00	   53.94	-1001.54	   29.62
     28.1718	   51.00	   51.82	-1006.41	   29.58
     28.2052	   56.00	   49.96	 -999.56	   29.53
     28.2387	   62.00	   48.33	 -991.93	   29.48
     28.2721	   45.00	   46.89	-1007.49	   29.43
     28.3055	   43.00	   45.62	-1008.21	   29.38
     28.3389	   56.00	   44.48	 -994.07	   29.34
     28.3723	   47.00	   43.45	-1002.05	   29.29
     28.4058	   50.00	   42.53	 -998.12	   29.24
     28.4392	   51.00	   41.69	 -996.29	   29.20
     28.4726	   48.00	   40.94	 -998.53	   29.15
     28.5060	   47.00	   40.24	 -998.84	   29.10
     28.5395	   43.00	   39.61	-1002.21	   29.05
     28.5729	   35.00	   39.03	-1009.63	   29.01
     28.6063	   42.00	   38.49	-1002.09	   28.96
     28.6397	   55.00	   38.00	 -988.60	   28.91
     28.6731	   50.00	   37.54	 -993.14	   28.87
     28.7066	   41.00	   37.12	-1001.71	   28.82
     28.7400	   53.00	   36.72	 -989.32	   28.77
     28.7734	   34.00	   36.35	-1007.95	   28.73
     28.8068	   31.00	   36.00	-1010.60	   28.68
     28.8403	   42.00	   35.68	 -999.27	   28.63
     28.8737	   39.00	   35.37	-1001.97	   28.59
     28.9071	   33.00	   35.09	-1007.68	   28.54
     28.9405	   32.00	   34.82	-1008.41	   28.49
     28.9740	   49.00	   34.56	 -991.15	   28.45
     29.0074	   34.00	   34.32	-1005.91	   28.40
     29.0408	   42.00	   34.08	 -997.68	   28.36
     29.0742	   35.00	   33.87	-1004.46	   28.31
     29.1076	   30.00	   33.66	-1009.25	   28.26
     29.1411	   33.00	   33.46	-1006.05	   28.22
     29.1745	   30.00	   33.27	-1008.86	   28.17
     29.2079	   28.00	   33.09	-1010.68	   28.13
     29.2413	   30.00	   32.91	-1008.51	   28.08
     29.2748	   27.00	   32.74	-1011.34	   28.03
     29.3082	   36.00	   32.58	-1002.18	   27.99
     29.3416	   33.00	   32.43	-1005.02	   27.94
     29.3750	   34.00	   32.28	-1003.87	   27.90
     29.4084	   32.00	   32.14	-1005.73	   27.85
     29.4419	   21.00	   32.00	-1016.59	   27.81
     29.4753	   38.00	   31.86	 -999.46	   27.76
     29.5087	   30.00	   31.73	-1007.33	   27.72
     29.5421	   34.00	   31.61	-1003.20	   27.67
     29.5756	   31.00	   31.49	-1006.08	   27.63
     29.6090	   31.00	   31.37	-1005.96	   27.58
     29.6424	   34.00	   31.25	-1002.85	   27.54
     29.6758	   32.00	   31.14	-1004.74	   27.49
     29.7092	   34.00	   31.03	-1002.63	   27.45
     29.7427	   21.00	   30.93	-1015.52	   27.40
     29.7761	   36.00	   30.83	-1000.42	   27.36
     29.8095	   19.00	   30.73	-1017.32	   27.31
     29.8429	   26.00	   30.63	-1010.22	   27.27
     29.8764	   39.00	   30.53	 -997.13	   27.23
     29.9098	   41.00	   30.44	 -995.03	   27.18
     29.9432	   30.00	   30.35	-1005.94	   27.14
     29.9766	   40.00	   30.26	 -995.85	   27.09
     30.0101	   21.00	   30.17	-1014.76	   27.05
     30.0435	   24.00	   30.08	-1011.68	   27.00
     30.0769	   31.00	   30.00	-1004.59	   26.96
     30.1103	   38.00	   28.92	 -996.52	   26.92
     30.1437	   27.00	   28.87	-1007.46	   26.87
     30.1772	   31.00	   28.31	-1002.91	   26.83
     30.2106	   25.00	   28.27	-1008.87	   26.78
     30.2440	   37.00	   28.23	 -996.82	   26.74
     30.2774	   37.00	   28.18	 -996.78	   26.70
     30.3109	   28.00	   28.14	-1005.73	   26.65
     30.3443	   21.00	   28.10	-1012.69	   26.61
     30.3777	   31.00	   28.05	-1002.65	   26.57
     30.4111	   21.00	   28.01	-1012.60	   26.52
     30.4445	   28.00	   27.97	-1005.56	   26.48
     30.4780	   36.00	   27.92	 -997.52	   26.44
     30.5114	   20.00	   27.88	-1013.47	   26.39
     30.5448	   31.00	   27.84	-1002.43	   26.35
     30.5782	   25.00	   27.79	-1008.39	   26.31
     30.6117	   40.00	   27.75	 -993.34	   26.26
     30.6451	   22.00	   27.71	-1011.30	   26.22
     30.6785	   26.00	   27.66	-1007.26	   26.18
     30.7119	   25.00	   27.62	-1008.22	   26.14
     30.7453	   20.00	   27.58	-1013.17	   26.09
     30.7788	   32.00	   27.54	-1001.13	   26.05
     30.8122	   38.00	   27.49	 -995.09	   26.01
     30.8456	   20.00	   27.45	-1013.05	   25.96
     30.8790	   31.00	   27.41	-1002.00	   25.92
     30.9125	   30.00	   27.37	-1002.96	   25.88
     30.9459	   34.00	   27.32	 -998.92	   25.84
     30.9793	   25.00	   27.28	-1007.88	   25.80
     31.0127	   21.00	   27.24	-1011.83	   25.75
     31.0462	   17.00	   27.20	-1015.79	   25.71
     31.0796	   19.00	   27.15	-1013.75	   25.67
     31.1130	   18.00	   27.11	-1014.71	   25.63
     31.1464	   23.00	   27.07	-1009.67	   25.58
     31.1798	   23.00	   27.03	-1009.62	   25.54
     31.2133	   21.00	   26.99	-1011.58	   25.50
     31.2467	   25.00	   26.94	-1007.54	   25.46
     31.2801	   24.00	   26.90	-1008.50	   25.42
     31.3135	   30.00	   26.86	-1002.46	   25.38
     31.3470	   22.00	   26.82	-1010.42	   25.33
     31.3804	   16.00	   26.78	-1016.37	   25.29
     31.4138	   26.00	   26.74	-1006.33	   25.25
     31.4472	   35.00	   26.70	 -997.29	   25.21
     31.4806	   28.00	   26.65	-1004.25	   25.17
     31.5141	   24.00	   26.61	-1008.21	   25.13
     31.5475	   36.00	   26.57	 -996.17	   25.09
     31.5809	   30.00	   26.53	-1002.13	   25.04
     31.6143	   20.00	   26.49	-1012.08	   25.00
     31.6478	   30.00	   26.45	-1002.04	   24.96
     31.6812	   25.00	   26.41	-1007.00	   24.92
     31.7146	   31.00	   26.37	-1000.96	   24.88
     31.7480	   36.00	   26.33	 -995.92	   24.84
     31.7814	   26.00	   26.28	-1005.88	   24.80
     31.8149	   22.00	   26.24	-1009.84	   24.76
     31.8483	   28.00	   26.20	-1003.80	   24.72
     31.8817	   26.00	   26.16	-1005.76	   24.68
     31.9151	   19.00	   26.12	-1012.72	   24.64
     31.9486	   22.00	   26.08	-1009.68	   24.60
     31.9820	   40.00	   26.04	 -991.64	   24.56
     32.0154	   25.00	   26.00	-1006.60	   24.52
     32.0488	   22.00	   25.96	-1009.56	   24.48
     32.0822	   30.00	   25.92	-1001.52	   24.43
     32.1157	   16.00	   25.88	-1015.48	   24.39
     32.1491	   28.00	   25.84	-1003.44	   24.35
     32.1825	   24.00	   25.80	-1007.40	   24.31
     32.2159	   15.00	   25.76	-1016.36	   24.27
     32.2494	   17.00	   25.72	-1014.32	   24.23
     32.2828	   25.00	   25.68	-1006.28	   24.19
     32.3162	   39.00	   25.64	 -992.24	   24.16
     32.3496	   30.00	   25.60	-1001.20	   24.12
     32.3830	   20.00	   25.56	-1011.16	   24.08
     32.4165	   20.00	   25.52	-1011.12	   24.04
     32.4499	   25.00	   25.48	-1006.08	   24.00
     32.4833	   31.00	   25.44	-1000.04	   23.96
     32.5167	   31.00	   25.40	-1000.00	   23.92
     32.5502	   26.00	   25.36	-1004.96	   23.88
     32.5836	   22.00	   25.32	-1008.92	   23.84
     32.6170	   31.00	   25.29	 -999.88	   23.80
     32.6504	   21.00	   25.25	-1009.84	   23.76
     32.6839	   21.00	   25.21	-1009.80	   23.72
     32.7173	   25.00	   25.17	-1005.76	   23.68
     32.7507	   33.00	   25.13	 -997.72	   23.64
     32.7841	   24.00	   25.09	-1006.69	   23.60
     32.8175	   19.00	   25.05	-1011.65	   23.57
     32.8510	   23.00	   25.01	-1007.61	   23.53
     32.8844	   31.00	   24.97	 -999.57	   23.49
     32.9178	   20.00	   24.94	-1010.53	   23.45
     32.9512	   27.00	   24.90	-1003.49	   23.41
     32.9847	   24.00	   24.86	-1006.45	   23.37
     33.0181	   20.00	   24.82	-1010.41	   23.33
     33.0515	   19.00	   24.78	-1011.38	   23.30
     33.0849	   31.00	   24.74	 -999.34	   23.26
     33.1183	   33.00	   24.70	 -997.30	   23.22
     33.1518	   28.00	   24.67	-1002.26	   23.18
     33.1852	   23.00	   24.63	-1007.22	   23.14
     33.2186	   19.00	   24.59	-1011.18	   23.10
     33.2520	   22.00	   24.55	-1008.15	   23.07
     33.2855	   27.00	   24.51	-1003.11	   23.03
     33.3189	   27.00	   24.48	-1003.07	   22.99
     33.3523	   21.00	   24.44	-1009.03	   22.95
     33.3857	   28.00	   24.40	-1002.00	   22.91
     33.4192	   23.00	   24.36	-1006.96	   22.88
     33.4526	   24.00	   24.80	-1006.40	   22.84
     33.4860	   30.00	   24.78	-1000.37	   22.80
     33.5194	   23.00	   24.75	-1007.35	   22.76
     33.5528	   27.00	   24.97	-1003.56	   22.73
     33.5863	   18.00	   24.95	-1012.55	   22.69
     33.6197	   23.00	   24.93	-1007.53	   22.65
     33.6531	   21.00	   24.92	-1009.51	   22.61
     33.6865	   18.00	   24.90	-1012.50	   22.58
     33.7200	   22.00	   24.89	-1008.49	   22.54
     33.7534	   27.00	   24.88	-1003.47	   22.50
     33.7868	   26.00	   24.87	-1004.46	   22.47
     33.8202	   19.00	   24.86	-1011.45	   22.43
     33.8536	   26.00	   24.85	-1004.44	   22.39
     33.8871	   21.00	   24.84	-1009.44	   22.35
     33.9205	   20.00	   24.83	-1010.43	   22.32
     33.9539	   28.00	   24.83	-1002.43	   22.28
     33.9873	   28.00	   24.83	-1002.42	   22.24
     34.0208	   19.00	   24.83	-1011.42	   22.21
     34.0542	   28.00	   24.83	-1002.42	   22.17
     34.0876	   12.00	   24.83	-1018.42	   22.13
     34.1210	   24.00	   24.83	-1006.43	   22.10
     34.1544	   31.00	   24.84	 -999.44	   22.06
     34.1879	   27.00	   24.85	-1003.45	   22.02
     34.2213	   28.00	   24.86	-1002.46	   21.99
     34.2547	   30.00	   24.88	-1000.47	   21.95
     34.2881	   28.00	   24.89	-1002.49	   21.92
     34.3216	   22.00	   24.92	-1008.51	   21.88
     34.3550	   24.00	   24.94	-1006.53	   21.84
     34.3884	   26.00	   24.97	-1004.56	   21.81
     34.4218	   20.00	   25.00	-1010.59	   21.77
     34.4552	   28.00	   25.03	-1002.63	   21.74
     34.4887	   30.00	   25.07	-1000.67	   21.70
     34.5221	   17.00	   25.12	-1013.71	   21.66
     34.5555	   26.00	   25.17	-1004.76	   21.63
     34.5889	   20.00	   25.22	-1010.82	   21.59
     34.6224	   13.00	   25.29	-1017.88	   21.56
     34.6558	   32.00	   25.36	 -998.95	   21.52
     34.6892	   19.00	   25.43	-1012.03	   21.49
     34.7226	   28.00	   25.52	-1003.11	   21.45
     34.7561	   31.00	   25.61	-1000.21	   21.41
     34.7895	   26.00	   25.72	-1005.31	   21.38
     34.8229	   25.00	   25.83	-1006.43	   21.34
     34.8563	   34.00	   25.96	 -997.55	   21.31
     34.8897	   28.00	   26.10	-1003.70	   21.27
     34.9232	   31.00	   26.26	-1000.85	   21.24
     34.9566	   30.00	   26.43	-1002.03	   21.20
     34.9900	   27.00	   26.62	-1005.22	   21.17
     35.0234	   30.00	   26.84	-1002.43	   21.13
     35.0569	   32.00	   27.08	-1000.67	   21.10
     35.0903	   25.00	   27.34	-1007.94	   21.06
     35.1237	   36.00	   27.64	 -997.23	   21.03
     35.1571	   34.00	   27.98	 -999.57	   20.99
     35.1905	   36.00	   28.35	 -997.95	   20.96
     35.2240	   34.00	   28.78	-1000.37	   20.93
     35.2574	   30.00	   29.26	-1004.85	   20.89
     35.2908	   25.00	   29.80	-1010.39	   20.86
     35.3242	   31.00	   30.42	-1005.01	   20.82
     35.3577	   39.00	   31.12	 -997.72	   20.79
     35.3911	   33.00	   31.94	-1004.53	   20.75
     35.4245	   48.00	   32.88	 -990.48	   20.72
     35.4579	   30.00	   33.98	-1009.58	   20.68
     35.4913	   33.00	   35.27	-1007.87	   20.65
     35.5248	   27.00	   36.80	-1015.39	   20.62
     35.5582	   37.00	   38.62	-1007.22	   20.58
     35.5916	   40.00	   40.82	-1006.41	   20.55
     35.6250	   35.00	   43.50	-1014.10	   20.51
     35.6585	   40.00	   46.82	-1012.42	   20.48
     35.6919	   55.00	   50.99	-1001.59	   20.45
     35.7253	   52.00	   56.32	-1009.92	   20.41
     35.7587	   53.00	   63.30	-1015.89	   20.38
     35.7921	   71.00	   72.64	-1007.23	   20.35
     35.8256	   76.00	   85.55	-1015.15	   20.31
     35.8590	  122.00	  104.11	 -987.71	   20.28
     35.8924	  134.00	  132.51	-1004.11	   20.25
     35.9258	  185.00	  181.74	-1002.34	   20.21
     35.9593	  256.00	  284.33	-1033.93	   20.18
     35.9927	  473.00	  513.67	-1046.26	   20.15
     36.0261	  871.00	  951.60	-1086.19	   20.11
     36.0595	 1410.00	 1494.20	-1089.80	   20.08
     36.0930	 1444.00	 1596.67	-1158.27	   20.05
     36.1264	 1267.00	 1329.76	-1068.36	   20.01
     36.1598	 1111.00	 1140.89	-1035.48	   19.98
     36.1932	  842.00	  836.57	-1000.17	   19.95
     36.2266	  450.00	  497.62	-1053.22	   19.91
     36.2601	  268.00	  284.92	-1022.51	   19.88
     36.2935	  140.00	  179.00	-1044.60	   19.85
     36.3269	  131.00	  128.14	-1002.73	   19.82
     36.3603	   95.00	  100.21	-1010.81	   19.78
     36.3938	   83.00	   82.40	-1004.99	   19.75
     36.4272	   66.00	   70.06	-1009.65	   19.72
     36.4606	   47.00	   61.12	-1019.71	   19.69
     36.4940	   38.00	   54.43	-1022.02	   19.65
     36.5274	   53.00	   49.36	-1001.96	   19.62
     36.5609	   46.00	   45.33	-1004.93	   19.59
     36.5943	   34.00	   42.12	-1013.71	   19.56
     36.6277	   39.00	   39.54	-1006.14	   19.52
     36.6611	   36.00	   37.41	-1007.00	   19.49
     36.6946	   33.00	   35.64	-1008.24	   19.46
     36.7280	   26.00	   34.17	-1013.77	   19.43
     36.7614	   24.00	   32.97	-1014.56	   19.40
     36.7948	   24.00	   32.01	-1013.60	   19.36
     36.8282	   24.00	   31.35	-1012.95	   19.33
     36.8617	   35.00	   31.22	-1001.81	   19.30
     36.8951	   24.00	   31.91	-1013.50	   19.27
     36.9285	   31.00	   33.33	-1007.92	   19.24
     36.9619	   31.00	   33.74	-1008.34	   19.21
     36.9954	   31.00	   32.31	-1006.90	   19.17
     37.0288	   23.00	   31.08	-1013.67	   19.14
     37.0622	   28.00	   29.78	-1007.38	   19.11
     37.0956	   22.00	   28.08	-1011.67	   19.08
     37.1291	   34.00	   26.77	 -998.36	   19.05
     37.1625	   26.00	   25.95	-1005.55	   19.02
     37.1959	   34.00	   25.43	 -997.02	   18.99
     37.2293	   32.00	   25.05	 -998.65	   18.95
     37.2627	   27.00	   24.75	-1003.34	   18.92
     37.2962	   23.00	   24.49	-1007.09	   18.89
     37.3296	   25.00	   24.28	-1004.87	   18.86
     37.3630	   27.00	   24.09	-1002.69	   18.83
     37.3964	   27.00	   23.94	-1002.53	   18.80
     37.4299	   15.00	   23.81	-1014.41	   18.77
     37.4633	   21.00	   23.72	-1008.31	   18.74
     37.4967	   26.00	   23.66	-1003.26	   18.71
     37.5301	   15.00	   23.66	-1014.25	   18.68
     37.5635	   28.00	   23.72	-1001.32	   18.65
     37.5970	   38.00	   23.89	 -991.49	   18.61
     37.6304	   24.00	   24.27	-1005.86	   18.58
     37.6638	   27.00	   25.13	-1003.73	   18.55
     37.6972	   37.00	   27.21	 -995.80	   18.52
     37.7307	   33.00	   31.53	-1004.12	   18.49
     37.7641	   40.00	   37.94	-1003.53	   18.46
     37.7975	   30.00	   41.22	-1016.82	   18.43
     37.8309	   40.00	   38.31	-1003.90	   18.40
     37.8643	   43.00	   35.77	 -998.37	   18.37
     37.8978	   38.00	   33.28	-1000.87	   18.34
     37.9312	   40.00	   29.11	 -994.71	   18.31
     37.9646	   30.00	   25.85	-1001.44	   18.28
     37.9980	   24.00	   24.04	-1005.64	   18.25
     38.0315	   28.00	   23.16	-1000.76	   18.22
     38.0649	   22.00	   22.70	-1006.30	   18.19
     38.0983	   18.00	   22.42	-1010.01	   18.16
     38.1317	   19.00	   22.22	-1008.82	   18.13
     38.1651	   21.00	   22.09	-1006.69	   18.10
     38.1986	   26.00	   22.00	-1001.59	   18.07
     38.2320	   23.00	   21.94	-1004.53	   18.04
     38.2654	   22.00	   21.91	-1005.51	   18.01
     38.2988	   23.00	   21.91	-1004.51	   17.98
     38.3323	   22.00	   21.95	-1005.54	   17.96
     38.3657	   27.00	   22.03	-1000.62	   17.93
     38.3991	   19.00	   22.17	-1008.76	   17.90
     38.4325	   23.00	   22.43	-1005.03	   17.87
     38.4660	   26.00	   22.99	-1002.58	   17.84
     38.4994	   30.00	   24.17	 -999.77	   17.81
     38.5328	   25.00	   26.27	-1006.87	   17.78
     38.5662	   30.00	   28.74	-1004.34	   17.75
     38.5996	   28.00	   28.83	-1006.43	   17.72
     38.6331	   30.00	   27.83	-1003.42	   17.69
     38.6665	   27.00	   27.50	-1006.09	   17.66
     38.6999	   22.00	   26.64	-1010.24	   17.64
     38.7333	   20.00	   25.60	-1011.19	   17.61
     38.7668	   20.00	   25.14	-1010.74	   17.58
     38.8002	   19.00	   24.83	-1011.42	   17.55
     38.8336	   31.00	   25.39	 -999.99	   17.52
     38.8670	   20.00	   26.30	-1011.90	   17.49
     38.9004	   24.00	   27.40	-1009.00	   17.46
     38.9339	   24.00	   29.29	-1010.89	   17.43
     38.9673	   35.00	   32.05	-1002.64	   17.41
     39.0007	   47.00	   36.29	 -994.89	   17.38
     39.0341	   52.00	   43.68	 -997.28	   17.35
     39.0676	   58.00	   59.05	-1006.65	   17.32
     39.1010	   85.00	   93.12	-1013.71	   17.29
     39.1344	  159.00	  157.69	-1004.29	   17.26
     39.1678	  213.00	  237.91	-1030.51	   17.24
     39.2012	  220.00	  253.84	-1039.43	   17.21
     39.2347	  184.00	  211.00	-1032.60	   17.18
     39.2681	  179.00	  186.12	-1012.72	   17.15
     39.3015	  117.00	  154.00	-1042.59	   17.12
     39.3349	  122.00	  103.44	 -987.03	   17.10
     39.3684	   62.00	   66.31	-1009.91	   17.07
     39.4018	   27.00	   46.54	-1025.13	   17.04
     39.4352	   32.00	   37.06	-1010.66	   17.01
     39.4686	   22.00	   32.12	-1015.72	   16.99
     39.5021	   25.00	   29.10	-1009.69	   16.96
     39.5355	   25.00	   27.04	-1007.64	   16.93
     39.5689	   15.00	   25.57	-1016.16	   16.90
     39.6023	   24.00	   24.48	-1006.07	   16.88
     39.6357	   35.00	   23.65	 -994.24	   16.85
     39.6692	   28.00	   23.00	-1000.59	   16.82
     39.7026	   22.00	   22.49	-1006.08	   16.79
     39.7360	   15.00	   22.08	-1012.67	   16.77
     39.7694	   23.00	   21.74	-1004.34	   16.74
     39.8029	   19.00	   21.47	-1008.07	   16.71
     39.8363	   15.00	   21.25	-1011.84	   16.69
     39.8697	   26.00	   21.07	-1000.66	   16.66
     39.9031	   23.00	   20.92	-1003.51	   16.63
     39.9365	   25.00	   20.80	-1001.39	   16.60
     39.9700	   15.00	   20.70	-1011.29	   16.58
     40.0034	   15.00	   20.62	-1011.22	   16.55
     40.0368	   21.00	   20.57	-1005.16	   16.52
     40.0702	   18.00	   20.53	-1008.13	   16.50
     40.1037	   19.00	   20.51	-1007.11	   16.47
     40.1371	   16.00	   20.51	-1010.10	   16.44
     40.1705	   20.00	   20.52	-1006.11	   16.42
     40.2039	   22.00	   20.54	-1004.14	   16.39
     40.2373	   30.00	   20.59	 -996.18	   16.36
     40.2708	   26.00	   20.65	-1000.25	   16.34
     40.3042	   21.00	   20.73	-1005.33	   16.31
     40.3376	   24.00	   20.83	-1002.43	   16.29
     40.3710	   21.00	   20.96	-1005.55	   16.26
     40.4045	   20.00	   21.10	-1006.70	   16.23
     40.4379	   16.00	   21.28	-1010.88	   16.21
     40.4713	   17.00	   21.49	-1010.08	   16.18
     40.5047	   27.00	   21.74	-1000.33	   16.15
     40.5382	   23.00	   22.02	-1004.62	   16.13
     40.5716	   22.00	   22.36	-1005.96	   16.10
     40.6050	   13.00	   22.77	-1015.36	   16.08
     40.6384	   24.00	   23.25	-1004.84	   16.05
     40.6718	   27.00	   23.82	-1002.42	   16.03
     40.7053	   17.00	   24.51	-1013.11	   16.00
     40.7387	   24.00	   25.35	-1006.94	   15.97
     40.7721	   24.00	   26.37	-1007.96	   15.95
     40.8055	   35.00	   27.63	 -998.22	   15.92
     40.8390	   33.00	   29.21	-1001.81	   15.90
     40.8724	   24.00	   31.23	-1012.82	   15.87
     40.9058	   42.00	   33.85	 -997.44	   15.85
     40.9392	   31.00	   37.33	-1011.92	   15.82
     40.9726	   40.00	   42.09	-1007.68	   15.80
     41.0061	   52.00	   48.83	-1002.42	   15.77
     41.0395	   64.00	   58.89	-1000.49	   15.74
     41.0729	   88.00	   75.54	 -993.13	   15.72
     41.1063	  119.00	  108.26	 -994.86	   15.69
     41.1398	  169.00	  180.56	-1017.15	   15.67
     41.1732	  333.00	  326.27	 -998.87	   15.64
     41.2066	  617.00	  540.98	 -929.57	   15.62
     41.2400	  717.00	  658.12	 -946.72	   15.59
     41.2734	  575.00	  558.80	 -989.40	   15.57
     41.3069	  514.00	  469.08	 -960.68	   15.54
     41.3403	  452.00	  422.00	 -975.59	   15.52
     41.3737	  389.00	  306.45	 -923.05	   15.50
     41.4071	  190.00	  185.99	-1001.59	   15.47
     41.4406	  115.00	  112.25	-1002.85	   15.45
     41.4740	   60.00	   75.59	-1021.19	   15.42
     41.5074	   76.00	   57.60	 -987.19	   15.40
     41.5408	   48.00	   47.43	-1005.02	   15.37
     41.5742	   33.00	   40.81	-1013.40	   15.35
     41.6077	   30.00	   36.16	-1011.75	   15.32
     41.6411	   27.00	   32.75	-1011.34	   15.30
     41.6745	   35.00	   30.17	-1000.77	   15.27
     41.7079	   27.00	   28.18	-1006.77	   15.25
     41.7414	   33.00	   26.60	 -999.19	   15.23
     41.7748	   22.00	   25.32	-1008.92	   15.20
     41.8082	   21.00	   24.28	-1008.87	   15.18
     41.8416	   12.00	   23.41	-1017.01	   15.15
     41.8751	   21.00	   22.68	-1007.28	   15.13
     41.9085	   20.00	   22.06	-1007.66	   15.11
     41.9419	   31.00	   21.47	 -996.06	   15.08
     41.9753	   18.00	   21.01	-1008.61	   15.06
     42.0087	   16.00	   20.61	-1010.21	   15.03
     42.0422	   17.00	   20.23	-1008.83	   15.01
     42.0756	   17.00	   19.92	-1008.52	   14.99
     42.1090	   24.00	   19.65	-1001.25	   14.96
     42.1424	   20.00	   19.41	-1005.00	   14.94
     42.1759	   19.00	   19.19	-1005.79	   14.92
     42.2093	   21.00	   18.99	-1003.59	   14.89
     42.2427	   12.00	   18.82	-1012.41	   14.87
     42.2761	   18.00	   18.66	-1006.25	   14.84
     42.3095	   17.00	   18.51	-1007.11	   14.82
     42.3430	   13.00	   18.38	-1010.97	   14.80
     42.3764	   17.00	   18.25	-1006.85	   14.77
     42.4098	   16.00	   18.14	-1007.74	   14.75
     42.4432	   10.00	   18.04	-1013.64	   14.73
     42.4767	   20.00	   17.95	-1003.54	   14.70
     42.5101	   23.00	   17.86	-1000.45	   14.68
     42.5435	   20.00	   17.78	-1003.37	   14.66
     42.5769	   27.00	   17.71	 -996.30	   14.64
     42.6103	   23.00	   17.64	-1000.23	   14.61
     42.6438	   13.00	   17.58	-1010.17	   14.59
     42.6772	   10.00	   17.52	-1013.12	   14.57
     42.7106	   10.00	   17.47	-1013.06	   14.54
     42.7440	   20.00	   17.42	-1003.02	   14.52
     42.7775	   17.00	   17.38	-1005.97	   14.50
     42.8109	   16.00	   17.34	-1006.94	   14.48
     42.8443	   13.00	   17.31	-1009.91	   14.45
     42.8777	   11.00	   17.28	-1011.88	   14.43
     42.9111	   31.00	   17.26	 -991.85	   14.41
     42.9446	   21.00	   17.24	-1001.84	   14.39
     42.9780	   23.00	   17.23	 -999.82	   14.36
     43.0114	   10.00	   17.22	-1012.82	   14.34
     43.0448	   21.00	   17.22	-1001.81	   14.32
     43.0783	   17.00	   17.22	-1005.82	   14.30
     43.1117	   23.00	   17.23	 -999.83	   14.27
     43.1451	   13.00	   17.25	-1009.85	   14.25
     43.1785	   22.00	   17.28	-1000.87	   14.23
     43.2120	   20.00	   17.32	-1002.91	   14.21
     43.2454	   16.00	   17.36	-1006.96	   14.18
     43.2788	   17.00	   17.42	-1006.02	   14.16
     43.3122	   18.00	   17.50	-1005.09	   14.14
     43.3456	   19.00	   17.59	-1004.18	   14.12
     43.3791	   20.00	   17.70	-1003.29	   14.10
     43.4125	    9.00	   17.83	-1014.43	   14.08
     43.4459	   16.00	   18.00	-1007.59	   14.05
     43.4793	   31.00	   18.20	 -992.79	   14.03
     43.5128	   19.00	   18.44	-1005.04	   14.01
     43.5462	   17.00	   18.74	-1007.34	   13.99
     43.5796	   13.00	   19.11	-1011.71	   13.97
     43.6130	   19.00	   19.58	-1006.18	   13.94
     43.6464	   13.00	   20.17	-1012.76	   13.92
     43.6799	   22.00	   20.93	-1004.52	   13.90
     43.7133	   20.00	   21.92	-1007.51	   13.88
     43.7467	   30.00	   23.25	 -998.84	   13.86
     43.7801	   24.00	   25.08	-1006.67	   13.84
     43.8136	   18.00	   27.69	-1015.29	   13.82
     43.8470	   31.00	   31.65	-1006.24	   13.79
     43.8804	   36.00	   38.36	-1007.96	   13.77
     43.9138	   49.00	   51.94	-1008.54	   13.75
     43.9473	   77.00	   81.68	-1010.28	   13.73
     43.9807	  143.00	  139.05	-1001.65	   13.71
     44.0141	  234.00	  216.24	 -987.84	   13.69
     44.0475	  254.00	  244.86	 -996.45	   13.67
     44.0809	  213.00	  201.70	 -994.30	   13.65
     44.1144	  199.00	  171.22	 -977.82	   13.63
     44.1478	  183.00	  160.30	 -982.90	   13.61
     44.1812	  124.00	  124.00	-1005.60	   13.58
     44.2146	  108.00	   80.23	 -977.82	   13.56
     44.2481	   60.00	   51.87	 -997.46	   13.54
     44.2815	   40.00	   37.37	-1002.97	   13.52
     44.3149	   37.00	   30.29	 -998.89	   13.50
     44.3483	   23.00	   26.37	-1008.96	   13.48
     44.3817	   25.00	   23.85	-1004.44	   13.46
     44.4152	   21.00	   22.08	-1006.68	   13.44
     44.4486	   17.00	   20.79	-1009.38	   13.42
     44.4820	   13.00	   19.81	-1012.40	   13.40
     44.5154	    8.00	   19.05	-1016.64	   13.38
     44.5489	    9.00	   18.44	-1015.04	   13.36
     44.5823	   12.00	   17.95	-1011.55	   13.34
     44.6157	   18.00	   17.55	-1005.15	   13.32
     44.6491	   11.00	   17.22	-1011.81	   13.30
     44.6825	   19.00	   16.93	-1003.53	   13.28
     44.7160	   15.00	   16.69	-1007.28	   13.26
     44.7494	   11.00	   16.48	-1011.07	   13.24
     44.7828	   13.00	   16.29	-1008.89	   13.22
     44.8162	   20.00	   16.13	-1001.73	   13.20
     44.8497	   12.00	   15.99	-1009.58	   13.18
     44.8831	   16.00	   15.86	-1005.46	   13.16
     44.9165	   15.00	   15.75	-1006.34	   13.14
     44.9499	   15.00	   15.64	-1006.24	   13.12
     44.9833	    5.00	   15.55	-1016.14	   13.10
     45.0168	   11.00	   15.46	-1010.05	   13.08
     45.0502	   11.00	   15.38	-1009.97	   13.06
     45.0836	   16.00	   15.30	-1004.90	   13.04
     45.1170	   15.00	   15.24	-1005.83	   13.02
     45.1505	   15.00	   15.17	-1005.77	   13.00
     45.1839	   13.00	   15.11	-1007.71	   12.98
     45.2173	   10.00	   15.05	-1010.65	   12.96
     45.2507	   13.00	   15.00	-1007.60	   12.94
     45.2841	    9.00	   14.95	-1011.54	   12.92
     45.3176	   19.00	   14.91	-1001.50	   12.90
     45.3510	   24.00	   14.86	 -996.46	   12.88
     45.3844	   18.00	   14.82	-1002.42	   12.86
     45.4178	   21.00	   14.78	 -999.38	   12.85
     45.4513	   13.00	   14.74	-1007.34	   12.83
     45.4847	   10.00	   14.70	-1010.30	   12.81
     45.5181	   13.00	   14.67	-1007.26	   12.79
     45.5515	    9.00	   14.63	-1011.23	   12.77
     45.5850	   15.00	   14.60	-1005.19	   12.75
     45.6184	   17.00	   14.56	-1003.16	   12.73
     45.6518	   12.00	   14.53	-1008.13	   12.71
     45.6852	   16.00	   14.50	-1004.09	   12.69
     45.7186	   12.00	   14.47	-1008.06	   12.67
     45.7521	   19.00	   14.44	-1001.03	   12.66
     45.7855	   15.00	   14.41	-1005.00	   12.64
     45.8189	   17.00	   14.38	-1002.98	   12.62
     45.8523	   13.00	   14.35	-1006.95	   12.60
     45.8858	   25.00	   14.33	 -994.92	   12.58
     45.9192	   10.00	   14.30	-1009.89	   12.56
     45.9526	   11.00	   14.27	-1008.87	   12.54
     45.9860	   12.00	   14.25	-1007.84	   12.53
     46.0194	   22.00	   14.22	 -997.82	   12.51
     46.0529	   10.00	   14.20	-1009.79	   12.49
     46.0863	   16.00	   14.17	-1003.77	   12.47
     46.1197	   20.00	   14.15	 -999.74	   12.45
     46.1531	    5.00	   14.13	-1014.72	   12.43
     46.1866	   10.00	   14.10	-1009.70	   12.42
     46.2200	   15.00	   14.08	-1004.68	   12.40
     46.2534	   11.00	   14.06	-1008.65	   12.38
     46.2868	   12.00	   14.04	-1007.63	   12.36
     46.3203	   16.00	   14.01	-1003.61	   12.34
     46.3537	   12.00	   13.99	-1007.59	   12.33
     46.3871	    7.00	   13.97	-1012.57	   12.31
     46.4205	   12.00	   13.95	-1007.55	   12.29
     46.4539	    9.00	   13.93	-1010.53	   12.27
     46.4874	   20.00	   13.91	 -999.50	   12.25
     46.5208	   15.00	   13.89	-1004.48	   12.24
     46.5542	   13.00	   13.87	-1006.47	   12.22
     46.5876	   19.00	   13.85	-1000.45	   12.20
     46.6211	   16.00	   13.83	-1003.43	   12.18
     46.6545	   20.00	   13.81	 -999.41	   12.17
     46.6879	   12.00	   13.79	-1007.39	   12.15
     46.7213	   17.00	   13.78	-1002.37	   12.13
     46.7547	   11.00	   13.76	-1008.35	   12.11
     46.7882	    5.00	   13.74	-1014.34	   12.10
     46.8216	   15.00	   13.66	-1004.25	   12.08
     46.8550	   12.00	   13.64	-1007.24	   12.06
     46.8884	   15.00	   13.62	-1004.22	   12.04
     46.9219	   12.00	   13.61	-1007.21	   12.03
     46.9553	   15.00	   13.56	-1004.16	   12.01
     46.9887	   19.00	   13.55	-1000.15	   11.99
     47.0221	   12.00	   13.54	-1007.13	   11.97
     47.0555	   15.00	   13.53	-1004.12	   11.96
     47.0890	   15.00	   13.51	-1004.11	   11.94
     47.1224	    9.00	   13.50	-1010.10	   11.92
     47.1558	   15.00	   13.49	-1004.09	   11.91
     47.1892	   16.00	   13.48	-1003.08	   11.89
     47.2227	    8.00	   13.48	-1011.07	   11.87
     47.2561	   16.00	   13.47	-1003.06	   11.86
     47.2895	   15.00	   13.46	-1004.06	   11.84
     47.3229	   15.00	   13.46	-1004.05	   11.82
     47.3563	   12.00	   13.45	-1007.05	   11.80
     47.3898	    9.00	   13.45	-1010.05	   11.79
     47.4232	   10.00	   13.46	-1009.05	   11.77
     47.4566	   24.00	   13.46	 -995.06	   11.75
     47.4900	   23.00	   13.47	 -996.06	   11.74
     47.5235	   20.00	   13.48	 -999.08	   11.72
     47.5569	   18.00	   13.50	-1001.10	   11.70
     47.5903	   17.00	   13.53	-1002.12	   11.69
     47.6237	   16.00	   13.57	-1003.16	   11.67
     47.6572	    6.00	   13.62	-1013.21	   11.66
     47.6906	   10.00	   13.68	-1009.28	   11.64
     47.7240	   17.00	   13.77	-1002.37	   11.62
     47.7574	   17.00	   13.90	-1002.49	   11.61
     47.7908	   15.00	   14.08	-1004.67	   11.59
     47.8243	   11.00	   14.33	-1008.93	   11.57
     47.8577	    5.00	   14.72	-1015.31	   11.56
     47.8911	   33.00	   15.37	 -987.97	   11.54
     47.9245	   17.00	   16.66	-1005.25	   11.53
     47.9580	   18.00	   19.46	-1007.05	   11.51
     47.9914	   37.00	   24.98	 -993.58	   11.49
     48.0248	   27.00	   33.07	-1011.67	   11.48
     48.0582	   35.00	   37.77	-1008.36	   11.46
     48.0916	   33.00	   33.70	-1006.30	   11.45
     48.1251	   42.00	   29.22	 -992.82	   11.43
     48.1585	   31.00	   28.34	-1002.93	   11.41
     48.1919	   20.00	   26.87	-1012.47	   11.40
     48.2253	   19.00	   22.37	-1008.97	   11.38
     48.2588	   21.00	   18.37	-1002.97	   11.37
     48.2922	   24.00	   16.03	 -997.63	   11.35
     48.3256	   21.00	   14.86	 -999.46	   11.34
     48.3590	   16.00	   14.26	-1003.86	   11.32
     48.3924	    8.00	   13.90	-1011.50	   11.30
     48.4259	   22.00	   13.66	 -997.25	   11.29
     48.4593	   17.00	   13.48	-1002.07	   11.27
     48.4927	   28.00	   13.34	 -990.94	   11.26
     48.5261	   18.00	   13.23	-1000.83	   11.24
     48.5596	   12.00	   13.14	-1006.74	   11.23
     48.5930	    4.00	   13.07	-1014.67	   11.21
     48.6264	   12.00	   13.01	-1006.60	   11.20
     48.6598	   17.00	   12.95	-1001.55	   11.18
     48.6932	   13.00	   12.91	-1005.50	   11.17
     48.7267	    8.00	   12.87	-1010.46	   11.15
     48.7601	   16.00	   12.83	-1002.42	   11.14
     48.7935	   18.00	   12.79	-1000.39	   11.12
     48.8269	   22.00	   12.76	 -996.36	   11.11
     48.8604	    8.00	   12.73	-1010.33	   11.09
     48.8938	   16.00	   12.70	-1002.30	   11.08
     48.9272	   21.00	   12.68	 -997.27	   11.06
     48.9606	   16.00	   12.65	-1002.25	   11.05
     48.9940	   13.00	   12.63	-1005.22	   11.03
     49.0275	   20.00	   12.61	 -998.20	   11.02
     49.0609	   10.00	   12.58	-1008.18	   11.00
     49.0943	   18.00	   12.56	-1000.16	   10.99
     49.1277	   21.00	   12.54	 -997.14	   10.97
     49.1612	   13.00	   12.52	-1005.12	   10.96
     49.1946	   20.00	   12.50	 -998.10	   10.94
     49.2280	   20.00	   12.48	 -998.08	   10.93
     49.2614	   13.00	   12.47	-1005.06	   10.91
     49.2949	   18.00	   12.45	-1000.04	   10.90
     49.3283	   22.00	   12.43	 -996.03	   10.89
     49.3617	   19.00	   12.41	 -999.01	   10.87
     49.3951	   17.00	   12.40	-1000.99	   10.86
     49.4285	   17.00	   12.38	-1000.97	   10.84
     49.4620	    9.00	   12.36	-1008.96	   10.83
     49.4954	   10.00	   12.34	-1007.94	   10.81
     49.5288	   11.00	   12.33	-1006.92	   10.80
     49.5622	   13.00	   12.31	-1004.91	   10.78
     49.5957	   18.00	   12.30	 -999.89	   10.77
     49.6291	   22.00	   12.28	 -995.88	   10.76
     49.6625	   16.00	   12.26	-1001.86	   10.74
     49.6959	   10.00	   12.25	-1007.84	   10.73
     49.7293	    7.00	   12.23	-1010.83	   10.71
     49.7628	   18.00	   12.22	 -999.81	   10.70
     49.7962	   15.00	   12.20	-1002.80	   10.69
     49.8296	    8.00	   12.19	-1009.78	   10.67
     49.8630	   18.00	   12.17	 -999.77	   10.66
     49.8965	   18.00	   12.16	 -999.75	   10.64
     49.9299	   10.00	   12.14	-1007.74	   10.63
     49.9633	   10.00	   12.13	-1007.72	   10.62
     49.9967	   16.00	   12.11	-1001.71	   10.60
     50.0302	   15.00	   12.10	-1002.69	   10.59
     50.0636	   10.00	   12.09	-1007.68	   10.58
     50.0970	   18.00	   12.07	 -999.67	   10.56
     50.1304	   19.00	   12.06	 -998.65	   10.55
     50.1638	    9.00	   12.04	-1008.64	   10.54
     50.1973	   18.00	   12.03	 -999.62	   10.52
     50.2307	   17.00	   12.01	-1000.61	   10.51
     50.2641	   18.00	   12.00	 -999.60	   10.50
     50.2975	   18.00	   11.99	 -999.58	   10.48
     50.3310	    8.00	   11.97	-1009.57	   10.47
     50.3644	   21.00	   11.96	 -996.55	   10.46
     50.3978	   24.00	   11.94	 -993.54	   10.44
     50.4312	   13.00	   11.93	-1004.53	   10.43
     50.4646	   11.00	   11.92	-1006.51	   10.42
     50.4981	   16.00	   11.90	-1001.50	   10.40
     50.5315	   13.00	   11.89	-1004.48	   10.39
     50.5649	    8.00	   11.88	-1009.47	   10.38
     50.5983	    9.00	   11.86	-1008.46	   10.36
     50.6318	    9.00	   11.85	-1008.44	   10.35
     50.6652	   16.00	   11.84	-1001.43	   10.34
     50.6986	    8.00	   11.82	-1009.42	   10.32
     50.7320	   20.00	   11.81	 -997.40	   10.31
     50.7654	   18.00	   11.80	 -999.39	   10.30
     50.7989	   19.00	   11.78	 -998.38	   10.29
     50.8323	   19.00	   11.77	 -998.37	   10.27
     50.8657	   13.00	   11.75	-1004.34	   10.26
     50.8991	   12.00	   11.74	-1005.33	   10.25
     50.9326	   12.00	   11.72	-1005.32	   10.23
     50.9660	   10.00	   11.71	-1007.31	   10.22
     50.9994	   16.00	   11.69	-1001.29	   10.21
     51.0328	   16.00	   11.68	-1001.28	   10.20
     51.0662	   11.00	   11.67	-1006.26	   10.18
     51.0997	   12.00	   11.66	-1005.26	   10.17
     51.1331	   15.00	   11.65	-1002.24	   10.16
     51.1665	   12.00	   11.64	-1005.23	   10.15
     51.1999	    9.00	   11.62	-1008.22	   10.13
     51.2334	   15.00	   11.62	-1002.21	   10.12
     51.2668	   10.00	   11.60	-1007.20	   10.11
     51.3002	   11.00	   11.59	-1006.19	   10.10
     51.3336	   12.00	   11.58	-1005.17	   10.08
     51.3671	   15.00	   11.57	-1002.16	   10.07
     51.4005	   26.00	   11.55	 -991.15	   10.06
     51.4339	   12.00	   11.54	-1005.14	   10.05
     51.4673	   16.00	   11.53	-1001.13	   10.04
     51.5007	   18.00	   12.08	 -999.67	   10.02
     51.5342	   15.00	   12.08	-1002.68	   10.01
     51.5676	   18.00	   12.08	 -999.68	   10.00
     51.6010	   11.00	   12.09	-1006.68	    9.99
     51.6344	   11.00	   12.37	-1006.96	    9.98
     51.6679	    9.00	   12.38	-1008.97	    9.96
     51.7013	   11.00	   12.39	-1006.98	    9.95
     51.7347	   16.00	   12.40	-1002.00	    9.94
     51.7681	   10.00	   12.41	-1008.01	    9.93
     51.8015	   15.00	   12.43	-1003.02	    9.92
     51.8350	   16.00	   12.44	-1002.04	    9.90
     51.8684	   23.00	   12.46	 -995.06	    9.89
     51.9018	   13.00	   12.48	-1005.07	    9.88
     51.9352	   17.00	   12.50	-1001.09	    9.87
     51.9687	   10.00	   12.52	-1008.11	    9.86
     52.0021	   11.00	   12.54	-1007.14	    9.85
     52.0355	   13.00	   12.56	-1005.16	    9.83
     52.0689	   16.00	   12.59	-1002.19	    9.82
     52.1023	   13.00	   12.62	-1005.21	    9.81
     52.1358	    8.00	   12.65	-1010.24	    9.80
     52.1692	   10.00	   12.68	-1008.27	    9.79
     52.2026	    8.00	   12.71	-1010.30	    9.78
     52.2360	   15.00	   12.75	-1003.34	    9.77
     52.2695	   12.00	   12.79	-1006.38	    9.75
     52.3029	   17.00	   12.83	-1001.42	    9.74
     52.3363	   18.00	   12.87	-1000.46	    9.73
     52.3697	   17.00	   12.91	-1001.51	    9.72
     52.4032	   11.00	   12.96	-1007.56	    9.71
     52.4366	   18.00	   13.01	-1000.61	    9.70
     52.4700	   12.00	   13.07	-1006.66	    9.69
     52.5034	   19.00	   13.13	 -999.72	    9.68
     52.5368	   19.00	   13.19	 -999.78	    9.66
     52.5703	   16.00	   13.25	-1002.85	    9.65
     52.6037	   17.00	   13.33	-1001.92	    9.64
     52.6371	   26.00	   13.40	 -993.00	    9.63
     52.6705	   26.00	   13.48	 -993.08	    9.62
     52.7040	   23.00	   13.57	 -996.16	    9.61
     52.7374	   10.00	   13.66	-1009.26	    9.60
     52.7708	   22.00	   13.76	 -997.36	    9.59
     52.8042	   19.00	   13.87	-1000.46	    9.58
     52.8376	   13.00	   13.98	-1006.58	    9.57
     52.8711	   16.00	   14.11	-1003.70	    9.56
     52.9045	   15.00	   14.24	-1004.83	    9.54
     52.9379	   18.00	   14.38	-1001.98	    9.53
     52.9713	   19.00	   14.54	-1001.13	    9.52
     53.0048	   27.00	   14.70	 -993.30	    9.51
     53.0382	   19.00	   14.89	-1001.48	    9.50
     53.0716	   10.00	   15.08	-1010.68	    9.49
     53.1050	   19.00	   15.30	-1001.89	    9.48
     53.1384	   27.00	   15.53	 -994.13	    9.47
     53.1719	   25.00	   15.78	 -996.38	    9.46
     53.2053	   21.00	   16.06	-1000.66	    9.45
     53.2387	   16.00	   16.37	-1005.96	    9.44
     53.2721	   33.00	   16.71	 -989.30	    9.43
     53.3056	   21.00	   17.08	-1001.67	    9.42
     53.3390	   19.00	   17.49	-1004.08	    9.41
     53.3724	   20.00	   17.94	-1003.54	    9.40
     53.4058	   20.00	   18.45	-1004.05	    9.39
     53.4393	   24.00	   19.02	-1000.61	    9.38
     53.4727	   21.00	   19.66	-1004.25	    9.37
     53.5061	   21.00	   20.38	-1004.98	    9.36
     53.5395	   30.00	   21.21	 -996.80	    9.35
     53.5729	   25.00	   22.15	-1002.75	    9.34
     53.6064	   28.00	   23.24	-1000.84	    9.33
     53.6398	   17.00	   24.52	-1013.12	    9.32
     53.6732	   27.00	   26.04	-1004.63	    9.31
     53.7066	   31.00	   27.89	-1002.48	    9.30
     53.7401	   40.00	   30.26	 -995.86	    9.29
     53.7735	   39.00	   33.79	-1000.38	    9.28
     53.8069	   50.00	   38.88	 -994.48	    9.27
     53.8403	   42.00	   46.27	-1009.87	    9.26
     53.8737	   60.00	   54.47	-1000.06	    9.25
     53.9072	   49.00	   58.76	-1015.36	    9.24
     53.9406	   81.00	   60.92	 -985.51	    9.23
     53.9740	   67.00	   66.24	-1004.83	    9.22
     54.0074	   91.00	   76.02	 -990.62	    9.21
     54.0409	  110.00	   88.50	 -984.10	    9.20
     54.0743	  119.00	  103.98	 -990.58	    9.19
     54.1077	  145.00	  127.96	 -988.55	    9.18
     54.1411	  152.00	  169.00	-1022.59	    9.17
     54.1745	  249.00	  248.31	-1004.91	    9.16
     54.2080	  372.00	  416.63	-1050.23	    9.15
     54.2414	  718.00	  751.08	-1038.67	    9.14
     54.2748	 1362.00	 1273.22	 -916.81	    9.13
     54.3082	 1671.00	 1697.58	-1032.18	    9.12
     54.3417	 1490.00	 1523.96	-1039.55	    9.11
     54.3751	 1157.00	 1127.25	 -975.84	    9.10
     54.4085	  988.00	  969.07	 -986.66	    9.10
     54.4419	 1032.00	 1012.52	 -986.11	    9.09
     54.4753	  853.00	  911.02	-1063.62	    9.08
     54.5088	  646.00	  614.42	 -974.01	    9.07
     54.5422	  397.00	  364.79	 -973.39	    9.06
     54.5756	  218.00	  219.87	-1007.47	    9.05
     54.6090	  153.00	  147.06	 -999.66	    9.04
     54.6425	  126.00	  109.40	 -988.99	    9.03
     54.6759	   96.00	   86.91	 -996.51	    9.02
     54.7093	   68.00	   71.77	-1009.37	    9.01
     54.7427	   61.00	   60.91	-1005.51	    9.00
     54.7761	   57.00	   52.84	-1001.43	    9.00
     54.8096	   45.00	   46.69	-1007.29	    8.99
     54.8430	   55.00	   41.94	 -992.53	    8.98
     54.8764	   38.00	   38.24	-1005.84	    8.97
     54.9098	   41.00	   35.43	-1000.02	    8.96
     54.9433	   32.00	   33.52	-1007.11	    8.95
     54.9767	   42.00	   32.83	 -996.43	    8.94
     55.0101	   49.00	   33.96	 -990.56	    8.93
     55.0435	   52.00	   36.97	 -990.56	    8.92
     55.0770	   42.00	   39.23	-1002.82	    8.92
     55.1104	   49.00	   36.43	 -993.03	    8.91
     55.1438	   42.00	   31.95	 -995.55	    8.90
     55.1772	   41.00	   29.69	 -994.29	    8.89
     55.2106	   34.00	   29.36	-1000.95	    8.88
     55.2441	   26.00	   27.96	-1007.55	    8.87
     55.2775	   32.00	   24.83	 -998.42	    8.86
     55.3109	   27.00	   22.09	-1000.68	    8.86
     55.3443	   34.00	   20.32	 -991.92	    8.85
     55.3778	   27.00	   19.26	 -997.85	    8.84
     55.4112	   27.00	   18.56	 -997.15	    8.83
     55.4446	   21.00	   18.05	-1002.64	    8.82
     55.4780	   21.00	   17.64	-1002.23	    8.81
     55.5114	   20.00	   17.30	-1002.90	    8.81
     55.5449	   17.00	   17.03	-1005.62	    8.80
     55.5783	   24.00	   16.80	 -998.40	    8.79
     55.6117	   32.00	   16.62	 -990.22	    8.78
     55.6451	   27.00	   16.48	 -995.07	    8.77
     55.6786	   24.00	   16.37	 -997.96	    8.76
     55.7120	   24.00	   16.29	 -997.89	    8.76
     55.7454	   17.00	   16.25	-1004.85	    8.75
     55.7788	   23.00	   16.25	 -998.84	    8.74
     55.8122	   23.00	   16.28	 -998.87	    8.73
     55.8457	   20.00	   16.35	-1001.94	    8.72
     55.8791	   21.00	   16.46	-1001.05	    8.72
     55.9125	   17.00	   16.61	-1005.21	    8.71
     55.9459	   32.00	   16.82	 -990.42	    8.70
     55.9794	   19.00	   17.09	-1003.68	    8.69
     56.0128	   20.00	   17.43	-1003.02	    8.68
     56.0462	   22.00	   17.85	-1001.45	    8.68
     56.0796	   21.00	   18.37	-1002.97	    8.67
     56.1131	   19.00	   19.03	-1005.62	    8.66
     56.1465	   26.00	   19.84	 -999.43	    8.65
     56.1799	   17.00	   20.85	-1009.45	    8.64
     56.2133	   20.00	   22.13	-1007.73	    8.64
     56.2467	   26.00	   23.77	-1003.36	    8.63
     56.2802	   32.00	   25.90	 -999.49	    8.62
     56.3136	   30.00	   28.71	-1004.31	    8.61
     56.3470	   35.00	   32.54	-1003.14	    8.61
     56.3804	   50.00	   37.92	 -993.51	    8.60
     56.4139	   47.00	   45.86	-1004.45	    8.59
     56.4473	   70.00	   58.83	 -994.42	    8.58
     56.4807	  102.00	   83.55	 -987.14	    8.58
     56.5141	  150.00	  135.36	 -990.96	    8.57
     56.5475	  234.00	  236.11	-1007.71	    8.56
     56.5810	  428.00	  388.40	 -965.99	    8.55
     56.6144	  548.00	  503.17	 -960.77	    8.55
     56.6478	  452.00	  443.86	 -997.46	    8.54
     56.6812	  330.00	  326.45	-1002.04	    8.53
     56.7147	  280.00	  278.11	-1003.70	    8.52
     56.7481	  305.00	  294.21	 -994.81	    8.52
     56.7815	  254.00	  281.66	-1033.25	    8.51
     56.8149	  219.00	  201.77	 -988.36	    8.50
     56.8483	  130.00	  125.01	-1000.61	    8.50
     56.8818	   92.00	   77.90	 -991.50	    8.49
     56.9152	   58.00	   53.65	-1001.25	    8.48
     56.9486	   47.00	   41.26	 -999.86	    8.47
     56.9820	   31.00	   34.07	-1008.67	    8.47
     57.0155	   25.00	   29.30	-1009.90	    8.46
     57.0489	   33.00	   25.89	 -998.49	    8.45
     57.0823	   24.00	   23.35	-1004.95	    8.45
     57.1157	   20.00	   21.40	-1007.00	    8.44
     57.1492	   20.00	   19.87	-1005.47	    8.43
     57.1826	   13.00	   18.64	-1011.24	    8.42
     57.2160	    9.00	   17.12	-1013.71	    8.42
     57.2494	   21.00	   16.30	-1000.89	    8.41
     57.2828	   24.00	   15.62	 -997.21	    8.40
     57.3163	   16.00	   15.04	-1004.63	    8.40
     57.3497	   23.00	   14.55	 -997.14	    8.39
     57.3831	   17.00	   13.86	-1002.46	    8.38
     57.4165	   20.00	   13.50	 -999.10	    8.38
     57.4500	   16.00	   13.18	-1002.78	    8.37
     57.4834	   10.00	   12.91	-1008.50	    8.36
     57.5168	   27.00	   12.66	 -991.25	    8.36
     57.5502	   16.00	   12.44	-1002.04	    8.35
     57.5836	   10.00	   12.24	-1007.84	    8.34
     57.6171	   11.00	   12.07	-1006.66	    8.34
     57.6505	   19.00	   11.91	 -998.51	    8.33
     57.6839	   15.00	   11.77	-1002.36	    8.32
     57.7173	   17.00	   11.64	-1000.23	    8.32
     57.7508	   18.00	   11.52	 -999.11	    8.31
     57.7842	   21.00	   11.41	 -996.00	    8.30
     57.8176	   15.00	   11.31	-1001.90	    8.30
     57.8510	   12.00	   11.22	-1004.81	    8.29
     57.8844	    8.00	   11.13	-1008.73	    8.28
     57.9179	   11.00	   11.05	-1005.65	    8.28
     57.9513	   15.00	   10.98	-1001.58	    8.27
     57.9847	    9.00	   10.91	-1007.50	    8.27
     58.0181	    7.00	   10.84	-1009.44	    8.26
     58.0516	   16.00	   10.79	-1000.38	    8.25
     58.0850	   18.00	   10.73	 -998.33	    8.25
     58.1184	   10.00	   10.68	-1006.27	    8.24
     58.1518	   12.00	   10.63	-1004.22	    8.23
     58.1852	   13.00	   10.58	-1003.18	    8.23
     58.2187	   11.00	   10.54	-1005.13	    8.22
     58.2521	   11.00	   10.50	-1005.09	    8.22
     58.2855	   13.00	   10.46	-1003.05	    8.21
     58.3189	   16.00	   10.42	-1000.02	    8.20
     58.3524	   11.00	   10.39	-1004.98	    8.20
     58.3858	   18.00	   10.35	 -997.95	    8.19
     58.4192	    8.00	   10.32	-1007.92	    8.19
     58.4526	   11.00	   10.29	-1004.89	    8.18
     58.4861	   12.00	   10.26	-1003.86	    8.17
     58.5195	   16.00	   10.23	 -999.83	    8.17
     58.5529	   13.00	   10.21	-1002.80	    8.16
     58.5863	    7.00	   10.18	-1008.78	    8.16
     58.6197	   17.00	   10.16	 -998.75	    8.15
     58.6532	   21.00	   10.14	 -994.73	    8.14
     58.6866	    7.00	   10.11	-1008.71	    8.14
     58.7200	   10.00	   10.09	-1005.69	    8.13
     58.7534	   15.00	   10.07	-1000.67	    8.13
     58.7869	   11.00	   10.05	-1004.65	    8.12
     58.8203	   11.00	   10.03	-1004.63	    8.12
     58.8537	   11.00	   10.01	-1004.61	    8.11
     58.8871	   16.00	    9.99	 -999.59	    8.10
     58.9205	   17.00	    9.98	 -998.57	    8.10
     58.9540	    7.00	    9.96	-1008.55	    8.09
     58.9874	   13.00	    9.94	-1002.54	    8.09
     59.0208	   10.00	    9.93	-1005.52	    8.08
     59.0542	   15.00	    9.91	-1000.51	    8.08
     59.0877	   10.00	    9.90	-1005.49	    8.07
     59.1211	   10.00	    9.88	-1005.48	    8.07
     59.1545	   10.00	    9.87	-1005.46	    8.06
     59.1879	   11.00	    9.85	-1004.45	    8.05
     59.2213	   10.00	    9.84	-1005.44	    8.05
     59.2548	   16.00	    9.83	 -999.42	    8.04
     59.2882	    9.00	    9.81	-1006.41	    8.04
     59.3216	   18.00	    9.80	 -997.40	    8.03
     59.3550	    8.00	    9.79	-1007.39	    8.03
     59.3885	   16.00	    9.78	 -999.37	    8.02
     59.4219	   15.00	    9.77	-1000.36	    8.02
     59.4553	   13.00	    9.75	-1002.35	    8.01
     59.4887	    8.00	    9.74	-1007.34	    8.01
     59.5222	   10.00	    9.73	-1005.33	    8.00
     59.5556	    7.00	    9.57	-1008.16	    8.00
     59.5890	   11.00	    9.56	-1004.16	    7.99
     59.6224	   13.00	    9.55	-1002.15	    7.99
     59.6558	   12.00	    9.55	-1003.14	    7.98
     59.6893	   12.00	    9.54	-1003.14	    7.98
     59.7227	   12.00	    9.46	-1003.05	    7.97
     59.7561	   12.00	    9.46	-1003.05	    7.97
     59.7895	    6.00	    9.45	-1009.05	    7.96
     59.8230	   12.00	    9.52	-1003.12	    7.96
     59.8564	   17.00	    9.52	 -998.12	    7.95
     59.8898	   12.00	    9.52	-1003.11	    7.95
     59.9232	   16.00	    9.52	 -999.11	    7.94
     59.9566	    9.00	    9.51	-1006.11	    7.94
     59.9901	   13.00	    9.55	-1002.14	    7.93
     60.0235	    3.00	    9.55	-1012.14	    7.93
     60.0569	   15.00	    9.55	-1000.14	    7.92
     60.0903	    9.00	    9.54	-1006.14	    7.92
     60.1238	   11.00	    9.54	-1004.14	    7.91
     60.1572	    8.00	    9.54	-1007.14	    7.91
     60.1906	   11.00	    9.54	-1004.14	    7.90
     60.2240	    7.00	    9.54	-1008.14	    7.90
     60.2574	    3.00	    9.54	-1012.14	    7.89
     60.2909	    7.00	    9.54	-1008.14	    7.89
     60.3243	   10.00	    9.54	-1005.14	    7.88
     60.3577	    8.00	    9.54	-1007.14	    7.88
     60.3911	    7.00	    9.54	-1008.14	    7.87
     60.4246	   16.00	    9.54	 -999.14	    7.87
     60.4580	    8.00	    9.54	-1007.14	    7.86
     60.4914	    8.00	    9.54	-1007.14	    7.86
     60.5248	   17.00	    9.54	 -998.14	    7.85
     60.5583	    6.00	    9.55	-1009.14	    7.85
     60.5917	   17.00	    9.55	 -998.14	    7.85
     60.6251	    9.00	    9.55	-1006.15	    7.84
     60.6585	   17.00	    9.55	 -998.15	    7.84
     60.6919	   11.00	    9.56	-1004.15	    7.83
     60.7254	   17.00	    9.56	 -998.15	    7.83
     60.7588	   19.00	    9.56	 -996.16	    7.82
     60.7922	    7.00	    9.57	-1008.16	    7.82
     60.8256	   13.00	    9.57	-1002.17	    7.82
     60.8591	    9.00	    9.58	-1006.17	    7.81
     60.8925	   10.00	    9.58	-1005.18	    7.81
     60.9259	    9.00	    9.59	-1006.18	    7.80
     60.9593	    6.00	    9.60	-1009.19	    7.80
     60.9927	   13.00	    9.60	-1002.20	    7.79
     61.0262	   13.00	    9.61	-1002.21	    7.79
     61.0596	   13.00	    9.62	-1002.22	    7.79
     61.0930	   10.00	    9.70	-1005.30	    7.78
     61.1264	   11.00	    9.72	-1004.31	    7.78
     61.1599	    7.00	    9.73	-1008.33	    7.77
     61.1933	   13.00	    9.75	-1002.34	    7.77
     61.2267	   15.00	    9.76	-1000.36	    7.76
     61.2601	    9.00	    9.82	-1006.41	    7.76
     61.2935	    8.00	    9.83	-1007.43	    7.76
     61.3270	   13.00	    9.86	-1002.45	    7.75
     61.3604	    8.00	    9.88	-1007.47	    7.75
     61.3938	   17.00	    9.90	 -998.50	    7.74
     61.4272	   15.00	    9.93	-1000.53	    7.74
     61.4607	   18.00	    9.96	 -997.55	    7.74
     61.4941	   12.00	    9.99	-1003.59	    7.73
     61.5275	   16.00	   10.03	 -999.62	    7.73
     61.5609	   10.00	   10.06	-1005.66	    7.72
     61.5943	   16.00	   10.11	 -999.70	    7.72
     61.6278	    9.00	   10.15	-1006.75	    7.72
     61.6612	    9.00	   10.20	-1006.80	    7.71
     61.6946	   17.00	   10.26	 -998.85	    7.71
     61.7280	   16.00	   10.32	 -999.92	    7.71
     61.7615	    8.00	   10.39	-1007.99	    7.70
     61.7949	   21.00	   10.47	 -995.06	    7.70
     61.8283	   17.00	   10.56	 -999.15	    7.69
     61.8617	    6.00	   10.66	-1010.26	    7.69
     61.8952	    7.00	   10.78	-1009.38	    7.69
     61.9286	   16.00	   10.93	-1000.53	    7.68
     61.9620	   17.00	   11.13	 -999.72	    7.68
     61.9954	    7.00	   11.41	-1010.00	    7.68
     62.0288	    7.00	   11.86	-1010.46	    7.67
     62.0623	   15.00	   12.59	-1003.18	    7.67
     62.0957	   13.00	   13.52	-1006.11	    7.66
     62.1291	   24.00	   14.12	 -995.71	    7.66
     62.1625	   25.00	   13.94	 -994.54	    7.66
     62.1960	   12.00	   13.68	-1007.28	    7.65
     62.2294	   11.00	   13.82	-1008.42	    7.65
     62.2628	   17.00	   14.36	-1002.95	    7.65
     62.2962	   22.00	   14.96	 -998.56	    7.64
     62.3296	   23.00	   15.32	 -997.92	    7.64
     62.3631	   18.00	   15.74	-1003.33	    7.64
     62.3965	   19.00	   16.49	-1003.08	    7.63
     62.4299	   18.00	   17.66	-1005.26	    7.63
     62.4633	   17.00	   19.35	-1007.95	    7.63
     62.4968	   25.00	   21.74	-1002.33	    7.62
     62.5302	   24.00	   25.23	-1006.83	    7.62
     62.5636	   28.00	   30.77	-1008.37	    7.62
     62.5970	   33.00	   40.76	-1013.35	    7.61
     62.6304	   48.00	   60.60	-1018.19	    7.61
     62.6639	   86.00	   98.82	-1018.41	    7.61
     62.6973	  159.00	  160.00	-1006.60	    7.60
     62.7307	  214.00	  226.38	-1017.98	    7.60
     62.7641	  241.00	  237.47	-1002.07	    7.60
     62.7976	  177.00	  183.73	-1012.32	    7.59
     62.8310	  159.00	  136.89	 -983.49	    7.59
     62.8644	  119.00	  125.30	-1011.90	    7.59
     62.8978	  136.00	  137.97	-1007.57	    7.58
     62.9313	  142.00	  137.70	-1001.30	    7.58
     62.9647	   98.00	  104.52	-1012.11	    7.58
     62.9981	   70.00	   68.36	-1003.96	    7.58
     63.0315	   45.00	   44.69	-1005.28	    7.57
     63.0649	   31.00	   31.98	-1006.57	    7.57
     63.0984	   32.00	   25.48	 -999.07	    7.57
     63.1318	   33.00	   21.83	 -994.42	    7.56
     63.1652	   23.00	   19.49	-1002.09	    7.56
     63.1986	   12.00	   17.87	-1011.47	    7.56
     63.2321	   20.00	   16.70	-1002.30	    7.55
     63.2655	   19.00	   15.84	-1002.44	    7.55
     63.2989	   25.00	   15.21	 -995.80	    7.55
     63.3323	   13.00	   14.74	-1007.34	    7.55
     63.3657	   16.00	   14.41	-1004.01	    7.54
     63.3992	   20.00	   14.19	 -999.79	    7.54
     63.4326	   20.00	   14.07	 -999.66	    7.54
     63.4660	   16.00	   14.03	-1003.63	    7.53
     63.4994	   18.00	   14.09	-1001.68	    7.53
     63.5329	   18.00	   14.23	-1001.83	    7.53
     63.5663	   13.00	   14.48	-1007.07	    7.53
     63.5997	   18.00	   14.84	-1002.44	    7.52
     63.6331	   16.00	   15.35	-1004.94	    7.52
     63.6665	   22.00	   16.04	 -999.63	    7.52
     63.7000	   16.00	   16.97	-1006.56	    7.51
     63.7334	   22.00	   18.23	-1001.83	    7.51
     63.7668	   25.00	   19.98	-1000.58	    7.51
     63.8002	   30.00	   22.47	 -998.06	    7.51
     63.8337	   33.00	   26.18	 -998.78	    7.50
     63.8671	   39.00	   32.36	 -998.95	    7.50
     63.9005	   43.00	   44.18	-1006.78	    7.50
     63.9339	   92.00	   68.29	 -981.89	    7.50
     63.9674	  104.00	  113.14	-1014.74	    7.49
     64.0008	  182.00	  178.21	-1001.80	    7.49
     64.0342	  254.00	  225.85	 -977.44	    7.49
     64.0676	  209.00	  200.28	 -996.88	    7.49
     64.1010	  142.00	  144.98	-1008.57	    7.48
     64.1345	  123.00	  114.25	 -996.84	    7.48
     64.1679	  122.00	  116.22	 -999.81	    7.48
     64.2013	  142.00	  131.17	 -994.77	    7.48
     64.2347	  135.00	  120.14	 -990.74	    7.47
     64.2682	   82.00	   85.22	-1008.81	    7.47
     64.3016	   57.00	   55.10	-1003.70	    7.47
     64.3350	   41.00	   36.90	-1001.49	    7.47
     64.3684	   32.00	   27.39	-1000.98	    7.46
     64.4018	   30.00	   22.39	 -997.99	    7.46
     64.4353	   28.00	   19.42	 -997.02	    7.46
     64.4687	   22.00	   17.43	-1001.03	    7.46
     64.5021	   27.00	   15.99	 -994.59	    7.45
     64.5355	   24.00	   14.91	 -996.51	    7.45
     64.5690	   22.00	   14.08	 -997.67	    7.45
     64.6024	   24.00	   13.42	 -995.01	    7.45
     64.6358	   18.00	   12.89	-1000.49	    7.45
     64.6692	   13.00	   12.46	-1005.05	    7.44
     64.7026	   16.00	   12.10	-1001.70	    7.44
     64.7361	   20.00	   11.80	 -997.40	    7.44
     64.7695	    8.00	   11.55	-1009.15	    7.44
     64.8029	   20.00	   11.34	 -996.94	    7.43
     64.8363	   13.00	   11.16	-1003.76	    7.43
     64.8698	   17.00	   11.01	 -999.60	    7.43
     64.9032	   13.00	   10.88	-1003.48	    7.43
     64.9366	   16.00	   10.77	-1000.37	    7.43
     64.9700	   16.00	   10.68	-1000.28	    7.42
     65.0034	   13.00	   10.61	-1003.20	    7.42
     65.0369	    8.00	   10.55	-1008.15	    7.42
     65.0703	   19.00	   10.52	 -997.11	    7.42
     65.1037	   13.00	   10.50	-1003.09	    7.42
     65.1371	   11.00	   10.50	-1005.10	    7.41
     65.1706	   13.00	   10.54	-1003.13	    7.41
     65.2040	   19.00	   10.60	 -997.20	    7.41
     65.2374	   11.00	   10.72	-1005.32	    7.41
     65.2708	   18.00	   10.92	 -998.51	    7.41
     65.3042	   21.00	   11.24	 -995.83	    7.40
     65.3377	   15.00	   11.82	-1002.42	    7.40
     65.3711	   24.00	   13.01	 -994.61	    7.40
     65.4045	   18.00	   15.43	-1003.03	    7.40
     65.4379	   25.00	   19.73	-1000.32	    7.40
     65.4714	   32.00	   25.35	 -998.94	    7.39
     65.5048	   33.00	   28.09	-1000.68	    7.39
     65.5382	   23.00	   24.66	-1007.26	    7.39
     65.5716	   30.00	   20.11	 -995.70	    7.39
     65.6051	   18.00	   18.00	-1005.60	    7.39
     65.6385	   13.00	   18.53	-1011.13	    7.39
     65.6719	   21.00	   19.79	-1004.39	    7.38
     65.7053	   10.00	   18.61	-1014.20	    7.38
     65.7387	   20.00	   15.60	-1001.19	    7.38
     65.7722	   26.00	   13.02	 -992.62	    7.38
     65.8056	   16.00	   11.52	-1001.12	    7.38
     65.8390	   13.00	   10.73	-1003.32	    7.37
     65.8724	   10.00	   10.30	-1005.90	    7.37
     65.9059	   15.00	   10.04	-1000.64	    7.37
     65.9393	   11.00	    9.86	-1004.46	    7.37
     65.9727	    7.00	    9.88	-1008.48	    7.37
     66.0061	   15.00	    9.79	-1000.38	    7.37
     66.0396	   15.00	    9.71	-1000.31	    7.36
     66.0730	   12.00	    9.65	-1003.25	    7.36
     66.1064	   13.00	    9.60	-1002.20	    7.36
     66.1398	   13.00	    9.65	-1002.25	    7.36
     66.1732	   13.00	    9.62	-1002.22	    7.36
     66.2067	    7.00	    9.60	-1008.19	    7.36
     66.2401	   12.00	    9.57	-1003.17	    7.36
     66.2735	   18.00	    9.56	 -997.15	    7.35
     66.3069	    9.00	    9.54	-1006.14	    7.35
     66.3403	   15.00	    9.53	-1000.12	    7.35
     66.3738	    7.00	    9.52	-1008.11	    7.35
     66.4072	   11.00	    9.51	-1004.11	    7.35
     66.4406	   11.00	    9.50	-1004.10	    7.35
     66.4740	   12.00	    9.50	-1003.09	    7.34
     66.5075	   15.00	    9.50	-1000.09	    7.34
     66.5409	   19.00	    9.49	 -996.09	    7.34
     66.5743	   11.00	    9.49	-1004.09	    7.34
     66.6077	   12.00	    9.49	-1003.09	    7.34
     66.6412	   15.00	    9.50	-1000.09	    7.34
     66.6746	   10.00	    9.50	-1005.10	    7.34
     66.7080	   16.00	    9.50	 -999.10	    7.33
     66.7414	   10.00	    9.60	-1005.19	    7.33
     66.7748	   17.00	    9.61	 -998.20	    7.33
     66.8083	    9.00	    9.62	-1006.21	    7.33
     66.8417	   13.00	    9.63	-1002.22	    7.33
     66.8751	   15.00	    9.64	-1000.23	    7.33
     66.9085	    8.00	    9.65	-1007.25	    7.33
     66.9420	    8.00	    9.71	-1007.31	    7.33
     66.9754	   15.00	    9.73	-1000.32	    7.32
     67.0088	   13.00	    9.75	-1002.34	    7.32
     67.0422	    9.00	    9.77	-1006.36	    7.32
     67.0756	   17.00	    9.79	 -998.38	    7.32
     67.1091	   16.00	    9.74	 -999.33	    7.32
     67.1425	   13.00	    9.76	-1002.36	    7.32
     67.1759	   11.00	    9.79	-1004.39	    7.32
     67.2093	   11.00	    9.82	-1004.41	    7.32
     67.2428	   10.00	    9.85	-1005.45	    7.31
     67.2762	   10.00	    9.85	-1005.45	    7.31
     67.3096	    9.00	    9.89	-1006.48	    7.31
     67.3430	    6.00	    9.92	-1009.52	    7.31
     67.3764	   15.00	    9.96	-1000.56	    7.31
     67.4099	   18.00	   10.01	 -997.60	    7.31
     67.4433	    9.00	   10.05	-1006.65	    7.31
     67.4767	   12.00	   10.10	-1003.69	    7.31
     67.5101	   12.00	   10.15	-1003.74	    7.31
     67.5436	   10.00	   10.20	-1005.80	    7.30
     67.5770	   19.00	   10.26	 -996.86	    7.30
     67.6104	   10.00	   10.33	-1005.92	    7.30
     67.6438	   12.00	   10.39	-1003.99	    7.30
     67.6772	   13.00	   10.46	-1003.06	    7.30
     67.7107	   15.00	   10.54	-1001.14	    7.30
     67.7441	    9.00	   10.63	-1007.22	    7.30
     67.7775	    7.00	   10.72	-1009.31	    7.30
     67.8109	   13.00	   10.81	-1003.41	    7.30
     67.8444	   17.00	   10.92	 -999.51	    7.30
     67.8778	   13.00	   11.03	-1003.63	    7.29
     67.9112	   12.00	   11.16	-1004.75	    7.29
     67.9446	   13.00	   11.29	-1003.89	    7.29
     67.9781	   12.00	   11.44	-1005.04	    7.29
     68.0115	   17.00	   11.61	-1000.20	    7.29
     68.0449	   16.00	   11.79	-1001.38	    7.29
     68.0783	   12.00	   11.98	-1005.58	    7.29
     68.1117	   11.00	   12.20	-1006.80	    7.29
     68.1452	    9.00	   12.45	-1009.04	    7.29
     68.1786	   20.00	   12.72	 -998.32	    7.29
     68.2120	   15.00	   13.03	-1003.62	    7.29
     68.2454	   12.00	   13.37	-1006.97	    7.29
     68.2789	   20.00	   13.76	 -999.36	    7.28
     68.3123	   23.00	   14.21	 -996.81	    7.28
     68.3457	   15.00	   14.72	-1005.32	    7.28
     68.3791	   16.00	   15.31	-1004.91	    7.28
     68.4125	   20.00	   16.00	-1001.60	    7.28
     68.4460	   28.00	   16.81	 -994.41	    7.28
     68.4794	    9.00	   17.78	-1014.37	    7.28
     68.5128	   30.00	   18.94	 -994.53	    7.28
     68.5462	   23.00	   20.35	-1002.95	    7.28
     68.5797	   36.00	   22.12	 -991.71	    7.28
     68.6131	   30.00	   24.39	 -999.99	    7.28
     68.6465	   39.00	   27.45	 -994.05	    7.28
     68.6799	   28.00	   31.68	-1009.28	    7.28
     68.7133	   57.00	   37.48	 -986.08	    7.27
     68.7468	   63.00	   44.88	 -987.48	    7.27
     68.7802	   67.00	   53.69	 -992.28	    7.27
     68.8136	   80.00	   66.79	 -992.38	    7.27
     68.8470	   93.00	   92.02	-1004.61	    7.27
     68.8805	  137.00	  143.75	-1012.34	    7.27
     68.9139	  233.00	  241.51	-1014.11	    7.27
     68.9473	  370.00	  392.18	-1027.77	    7.27
     68.9807	  523.00	  536.05	-1018.65	    7.27
     69.0142	  488.00	  525.96	-1043.56	    7.27
     69.0476	  404.00	  389.13	 -990.73	    7.27
     69.0810	  258.00	  278.12	-1025.72	    7.27
     69.1144	  255.00	  244.50	 -995.10	    7.27
     69.1478	  243.00	  276.44	-1039.03	    7.27
     69.1813	  312.00	  314.02	-1007.61	    7.27
     69.2147	  266.00	  274.92	-1014.52	    7.27
     69.2481	  184.00	  189.69	-1011.29	    7.27
     69.2815	  131.00	  120.57	 -995.17	    7.26
     69.3150	   93.00	   79.31	 -991.91	    7.26
     69.3484	   57.00	   57.85	-1006.44	    7.26
     69.3818	   48.00	   46.81	-1004.40	    7.26
     69.4152	   40.00	   40.68	-1006.27	    7.26
     69.4486	   38.00	   37.12	-1004.71	    7.26
     69.4821	   36.00	   35.26	-1004.86	    7.26
     69.5155	   42.00	   34.83	 -998.42	    7.26
     69.5489	   34.00	   35.83	-1007.42	    7.26
     69.5823	   41.00	   38.66	-1003.26	    7.26
     69.6158	   50.00	   44.58	-1000.18	    7.26
     69.6492	   64.00	   56.94	 -998.54	    7.26
     69.6826	   82.00	   82.69	-1006.29	    7.26
     69.7160	  129.00	  131.01	-1007.61	    7.26
     69.7495	  235.00	  203.51	 -974.11	    7.26
     69.7829	  277.00	  267.20	 -995.80	    7.26
     69.8163	  251.00	  253.54	-1008.13	    7.26
     69.8497	  170.00	  186.78	-1022.38	    7.26
     69.8831	  105.00	  136.13	-1036.72	    7.26
     69.9166	  102.00	  122.11	-1025.70	    7.26
     69.9500	  127.00	  138.14	-1016.74	    7.26
     69.9834	  149.00	  155.79	-1012.39	    7.26
     70.0168	  128.00	  136.77	-1014.36	    7.26
     70.0502	   99.00	   96.10	-1002.70	    7.26
     70.0837	   57.00	   63.04	-1011.64	    7.25
     70.1171	   36.00	   43.11	-1012.71	    7.25
     70.1505	   25.00	   32.60	-1013.20	    7.25
     70.1839	   25.00	   27.17	-1007.76	    7.25
     70.2174	   22.00	   24.34	-1007.93	    7.25
     70.2508	   33.00	   23.12	 -995.71	    7.25
     70.2842	   13.00	   22.90	-1015.50	    7.25
     70.3176	   24.00	   22.41	-1004.01	    7.25
     70.3511	   24.00	   20.51	-1002.10	    7.25
     70.3845	   17.00	   18.32	-1006.91	    7.25
     70.4179	   17.00	   16.84	-1005.44	    7.25
     70.4513	   20.00	   16.22	-1001.82	    7.25
     70.4847	   15.00	   16.17	-1006.77	    7.25
     70.5182	    9.00	   15.95	-1012.55	    7.25
     70.5516	   19.00	   15.00	-1001.60	    7.25
     70.5850	   17.00	   13.88	-1002.48	    7.25
     70.6184	   18.00	   13.03	-1000.62	    7.25
     70.6519	    9.00	   12.45	-1009.05	    7.25
     70.6853	   10.00	   12.06	-1007.66	    7.25
     70.7187	   18.00	   11.78	 -999.37	    7.25
     70.7521	    9.00	   11.55	-1008.14	    7.25
     70.7855	   11.00	   11.35	-1005.95	    7.25
     70.8190	    7.00	   11.19	-1009.78	    7.25
     70.8524	   11.00	   11.04	-1005.63	    7.25
     70.8858	   10.00	   10.91	-1006.50	    7.25
     70.9192	    9.00	   10.79	-1007.39	    7.25
     70.9527	   16.00	   10.68	-1000.28	    7.25
     70.9861	   12.00	   10.59	-1004.18	    7.25
     71.0195	   12.00	   10.50	-1004.10	    7.25
     71.0529	   16.00	   10.42	-1000.02	    7.25
     71.0863	   16.00	   10.35	 -999.94	    7.25
     71.1198	   12.00	   10.28	-1003.88	    7.25
     71.1532	   15.00	   10.22	-1000.82	    7.25
     71.1866	   15.00	   10.16	-1000.76	    7.25
     71.2200	   11.00	   10.11	-1004.71	    7.25
     71.2535	    9.00	   10.07	-1006.66	    7.25
     71.2869	    3.00	   10.02	-1012.62	    7.25
     71.3203	   13.00	    9.98	-1002.58	    7.25
     71.3537	   10.00	    9.95	-1005.54	    7.25
     71.3872	   12.00	    9.91	-1003.51	    7.25
     71.4206	    8.00	    9.88	-1007.48	    7.25
     71.4540	   13.00	    9.86	-1002.45	    7.25
     71.4874	   19.00	    9.83	 -996.43	    7.25
     71.5208	   15.00	    9.81	-1000.41	    7.25
     71.5543	   16.00	    9.79	 -999.39	    7.25
     71.5877	   21.00	    9.78	 -994.37	    7.25
     71.6211	   10.00	    9.77	-1005.36	    7.25
     71.6545	   15.00	    9.76	-1000.35	    7.25
     71.6880	   13.00	    9.75	-1002.35	    7.25
     71.7214	    9.00	    9.75	-1006.35	    7.25
     71.7548	    9.00	    9.75	-1006.35	    7.25
     71.7882	    9.00	    9.76	-1006.36	    7.25
     71.8216	    8.00	    9.78	-1007.37	    7.25
     71.8551	   11.00	    9.80	-1004.39	    7.25
     71.8885	   13.00	    9.83	-1002.43	    7.25
     71.9219	    8.00	    9.87	-1007.47	    7.25
     71.9553	    8.00	    9.93	-1007.52	    7.25
     71.9888	   13.00	   10.00	-1002.59	    7.25
     72.0222	    9.00	   10.09	-1006.68	    7.25
     72.0556	    7.00	   10.21	-1008.81	    7.25
     72.0890	   23.00	   10.37	 -992.97	    7.25
     72.1225	   11.00	   10.42	-1005.02	    7.25
     72.1559	    8.00	   10.74	-1008.33	    7.25
     72.1893	   17.00	   11.20	 -999.79	    7.25
     72.2227	   23.00	   11.93	 -994.53	    7.25
     72.2561	   10.00	   13.26	-1008.86	    7.25
     72.2896	   21.00	   15.88	-1000.48	    7.25
     72.3230	   20.00	   20.68	-1006.28	    7.25
     72.3564	   34.00	   28.33	 -999.92	    7.25
     72.3898	   34.00	   36.28	-1007.87	    7.25
     72.4232	   39.00	   37.12	-1003.71	    7.25
     72.4567	   22.00	   30.29	-1013.89	    7.25
     72.4901	   15.00	   23.68	-1014.27	    7.25
     72.5235	   26.00	   20.74	-1000.34	    7.25
     72.5569	   19.00	   21.51	-1008.10	    7.25
     72.5904	   22.00	   24.17	-1007.76	    7.25
     72.6238	   27.00	   24.57	-1003.16	    7.25
     72.6572	   21.00	   20.87	-1005.47	    7.25
     72.6906	   10.00	   16.56	-1012.16	    7.25
     72.7241	   21.00	   13.57	 -998.16	    7.25
     72.7575	   13.00	   11.87	-1004.46	    7.25
     72.7909	    6.00	   10.96	-1010.56	    7.25
     72.8243	   15.00	   10.46	-1001.05	    7.25
     72.8577	    7.00	   10.13	-1008.73	    7.25
     72.8912	   17.00	    9.91	 -998.50	    7.25
     72.9246	    7.00	    9.74	-1008.33	    7.25
     72.9580	   15.00	    9.53	-1000.12	    7.25
     72.9914	    8.00	    9.43	-1007.02	    7.25
     73.0249	   19.00	    9.35	 -995.94	    7.25
     73.0583	    9.00	    9.28	-1005.88	    7.25
     73.0917	    8.00	    9.23	-1006.83	    7.25
     73.1251	   16.00	    9.19	 -998.78	    7.25
     73.1585	    6.00	    9.11	-1008.70	    7.25
     73.1920	   10.00	    9.08	-1004.67	    7.25
     73.2254	    9.00	    9.05	-1005.65	    7.25
     73.2588	    3.00	    9.03	-1011.63	    7.25
     73.2922	    7.00	    9.01	-1007.61	    7.25
     73.3257	    4.00	    9.00	-1010.59	    7.25
     73.3591	   16.00	    9.00	 -998.60	    7.25
     73.3925	   12.00	    8.99	-1002.58	    7.26
     73.4259	    9.00	    8.98	-1005.57	    7.26
     73.4594	    7.00	    8.97	-1007.57	    7.26
     73.4928	    6.00	    8.96	-1008.56	    7.26
     73.5262	   12.00	    8.96	-1002.55	    7.26
     73.5596	   15.00	    8.96	 -999.56	    7.26
     73.5930	   11.00	    8.96	-1003.56	    7.26
     73.6265	    9.00	    8.96	-1005.56	    7.26
     73.6599	    9.00	    8.96	-1005.56	    7.26
     73.6933	    8.00	    8.97	-1006.56	    7.26
     73.7267	   21.00	    8.97	 -993.56	    7.26
     73.7601	   15.00	    8.98	 -999.57	    7.26
     73.7936	   13.00	    8.99	-1001.58	    7.26
     73.8270	    9.00	    9.00	-1005.59	    7.26
     73.8604	    7.00	    9.02	-1007.61	    7.26
     73.8938	    7.00	    9.04	-1007.64	    7.26
     73.9273	    9.00	    9.09	-1005.68	    7.26
     73.9607	    7.00	    9.17	-1007.76	    7.26
     73.9941	    9.00	    9.29	-1005.88	    7.26
     74.0275	   11.00	    9.43	-1004.02	    7.26
     74.0610	    9.00	    9.50	-1006.10	    7.26
     74.0944	    5.00	    9.47	-1010.06	    7.26
     74.1278	   11.00	    9.44	-1004.03	    7.26
     74.1612	    6.00	    9.48	-1009.07	    7.26
     74.1946	   13.00	    9.62	-1002.21	    7.26
     74.2281	   11.00	    9.90	-1004.49	    7.26
     74.2615	   10.00	   10.40	-1005.99	    7.26
     74.2949	   10.00	   11.26	-1006.85	    7.26
     74.3283	   27.00	   12.65	 -991.25	    7.26
     74.3618	    9.00	   14.35	-1010.95	    7.26
     74.3952	   12.00	   15.03	-1008.63	    7.26
     74.4286	   22.00	   13.89	 -997.49	    7.26
     74.4620	   17.00	   12.37	-1000.97	    7.26
     74.4955	   12.00	   11.49	-1005.08	    7.26
     74.5289	   16.00	   11.39	-1000.99	    7.26
     74.5623	   13.00	   11.88	-1004.48	    7.27
     74.5957	   15.00	   12.36	-1002.95	    7.27
     74.6291	   12.00	   12.00	-1005.59	    7.27
     74.6626	   17.00	   11.11	 -999.71	    7.27
     74.6960	   16.00	   10.38	 -999.97	    7.27
     74.7294	    8.00	    9.94	-1007.53	    7.27
     74.7628	   12.00	    9.74	-1003.33	    7.27
     74.7962	    9.00	    9.68	-1006.27	    7.27
     74.8297	   10.00	    9.71	-1005.30	    7.27
     74.8631	   12.00	    9.83	-1003.42	    7.27
     74.8965	    9.00	   10.09	-1006.69	    7.27
     74.9299	    6.00	   10.64	-1010.24	    7.27
     74.9634	   17.00	   11.72	-1000.31	    7.27
     74.9968	   18.00	   13.52	-1001.11	    7.27
     75.0302	   13.00	   15.76	-1008.36	    7.27
     75.0636	   18.00	   16.88	-1004.48	    7.27
     75.0971	   16.00	   15.58	-1005.18	    7.27
     75.1305	   18.00	   13.57	-1001.16	    7.27
     75.1639	    5.00	   12.30	-1012.89	    7.27
     75.1973	    8.00	   12.04	-1009.63	    7.27
     75.2307	   15.00	   12.58	-1003.18	    7.27
     75.2642	   15.00	   13.27	-1003.87	    7.27
     75.2976	   22.00	   13.00	 -996.59	    7.27
     75.3310	   12.00	   11.87	-1005.46	    7.27
     75.3644	   10.00	   10.81	-1006.41	    7.27
     75.3979	   13.00	   10.13	-1002.73	    7.27
     75.4313	    7.00	    9.76	-1008.35	    7.27
     75.4647	    8.00	    9.56	-1007.16	    7.27
     75.4981	    9.00	    9.46	-1006.05	    7.27
     75.5315	    8.00	    9.40	-1006.99	    7.27
     75.5650	   11.00	    9.36	-1003.95	    7.28
     75.5984	    9.00	    9.33	-1005.92	    7.28
     75.6318	    8.00	    9.32	-1006.91	    7.28
     75.6652	    7.00	    9.32	-1007.92	    7.28
     75.6987	   11.00	    9.33	-1003.93	    7.28
     75.7321	   12.00	    9.36	-1002.95	    7.28
     75.7655	    7.00	    9.39	-1007.98	    7.28
     75.7989	    5.00	    9.43	-1010.03	    7.28
     75.8324	    8.00	    9.49	-1007.08	    7.28
     75.8658	   15.00	    9.57	-1000.16	    7.28
     75.8992	    9.00	    9.69	-1006.29	    7.28
     75.9326	   15.00	    9.90	-1000.49	    7.28
     75.9660	   15.00	   10.25	-1000.84	    7.28
     75.9995	   11.00	   10.80	-1005.39	    7.28
     76.0329	    8.00	   11.48	-1009.08	    7.28
     76.0663	   15.00	   11.92	-1002.51	    7.28
     76.0997	   12.00	   11.74	-1005.34	    7.28
     76.1331	   17.00	   11.39	 -999.99	    7.28
     76.1666	    9.00	   11.27	-1007.86	    7.28
     76.2000	   10.00	   11.47	-1007.07	    7.28
     76.2334	   10.00	   11.99	-1007.59	    7.28
     76.2668	    9.00	   12.72	-1009.32	    7.28
     76.3003	   12.00	   13.46	-1007.06	    7.28
     76.3337	   11.00	   14.36	-1008.95	    7.28
     76.3671	   24.00	   16.13	 -997.72	    7.28
     76.4005	   25.00	   19.87	-1000.47	    7.28
     76.4340	   20.00	   27.12	-1012.72	    7.28
     76.4674	   38.00	   38.95	-1006.54	    7.28
     76.5008	   57.00	   53.05	-1001.65	    7.28
     76.5342	   75.00	   58.89	 -989.49	    7.29
     76.5676	   60.00	   49.85	 -995.44	    7.29
     76.6011	   32.00	   37.20	-1010.80	    7.29
     76.6345	   17.00	   29.35	-1017.94	    7.29
     76.6679	   16.00	   27.72	-1017.31	    7.29
     76.7013	   38.00	   31.09	 -998.68	    7.29
     76.7348	   42.00	   35.70	 -999.30	    7.29
     76.7682	   35.00	   34.72	-1005.32	    7.29
     76.8016	   27.00	   27.84	-1006.44	    7.29
     76.8350	   26.00	   20.95	-1000.54	    7.29
     76.8684	   17.00	   16.31	-1004.91	    7.29
     76.9019	   18.00	   13.68	-1001.28	    7.29
     76.9353	   17.00	   12.27	-1000.86	    7.29
     76.9687	   22.00	   11.45	 -995.05	    7.29
     77.0021	   10.00	   10.93	-1006.52	    7.29
     77.0356	    5.00	   10.55	-1011.15	    7.29
     77.0690	    5.00	   10.27	-1010.87	    7.29
     77.1024	    5.00	   10.06	-1010.66	    7.29
     77.1358	    4.00	    9.89	-1011.49	    7.29
     77.1693	    5.00	    9.76	-1010.35	    7.29
     77.2027	   11.00	    9.65	-1004.24	    7.29
     77.2361	    9.00	    9.55	-1006.15	    7.29
     77.2695	   11.00	    9.48	-1004.07	    7.29
     77.3029	   11.00	    9.41	-1004.01	    7.29
     77.3364	   12.00	    9.36	-1002.95	    7.29
     77.3698	   10.00	    9.31	-1004.90	    7.29
     77.4032	   10.00	    9.27	-1004.86	    7.29
     77.4366	   10.00	    9.23	-1004.83	    7.29
     77.4701	   12.00	    9.20	-1002.80	    7.29
     77.5035	   11.00	    9.17	-1003.77	    7.29
     77.5369	   11.00	    9.15	-1003.74	    7.29
     77.5703	    9.00	    9.13	-1005.72	    7.29
     77.6037	   12.00	    9.11	-1002.70	    7.30
     77.6372	   10.00	    9.09	-1004.68	    7.30
     77.6706	    4.00	    9.07	-1010.67	    7.30
     77.7040	    6.00	    9.06	-1008.65	    7.30
     77.7374	   13.00	    9.05	-1001.64	    7.30
     77.7709	    9.00	    9.04	-1005.63	    7.30
     77.8043	   10.00	    9.03	-1004.62	    7.30
     77.8377	   11.00	    9.02	-1003.61	    7.30
     77.8711	    7.00	    9.01	-1007.60	    7.30
     77.9045	    7.00	    9.00	-1007.60	    7.30
     77.9380	   12.00	    8.99	-1002.59	    7.30
     77.9714	    9.00	    8.99	-1005.58	    7.30
     78.0048	    5.00	    8.98	-1009.58	    7.30
     78.0382	    9.00	    8.98	-1005.57	    7.30
     78.0717	    8.00	    8.97	-1006.57	    7.30
     78.1051	    6.00	    8.97	-1008.57	    7.30
     78.1385	    7.00	    8.97	-1007.56	    7.30
     78.1719	    6.00	    8.96	-1008.56	    7.30
     78.2054	   10.00	    8.96	-1004.56	    7.30
     78.2388	   12.00	    8.96	-1002.56	    7.30
     78.2722	    7.00	    8.96	-1007.55	    7.30
     78.3056	   11.00	    8.96	-1003.55	    7.30
     78.3390	    7.00	    8.96	-1007.55	    7.30
     78.3725	   10.00	    8.96	-1004.55	    7.30
     78.4059	    5.00	    8.96	-1009.55	    7.30
     78.4393	    7.00	    8.96	-1007.55	    7.30
     78.4727	    3.00	    8.96	-1011.55	    7.30
     78.5061	   13.00	    8.96	-1001.56	    7.30
     78.5396	    7.00	    8.96	-1007.56	    7.30
     78.5730	   10.00	    8.96	-1004.56	    7.30
     78.6064	    7.00	    8.97	-1007.56	    7.30
     78.6398	    7.00	    8.97	-1007.57	    7.30
     78.6733	    7.00	    8.98	-1007.57	    7.30
     78.7067	    7.00	    8.98	-1007.58	    7.30
     78.7401	    7.00	    8.99	-1007.58	    7.30
     78.7735	    9.00	    8.99	-1005.59	    7.30
     78.8070	   10.00	    9.00	-1004.60	    7.30
     78.8404	    6.00	    9.01	-1008.61	    7.30
     78.8738	   10.00	    9.02	-1004.62	    7.30
     78.9072	   17.00	    9.03	 -997.63	    7.30
     78.9406	   11.00	    9.04	-1003.64	    7.30
     78.9741	   10.00	    9.06	-1004.65	    7.30
     79.0075	    8.00	    9.11	-1006.70	    7.30
     79.0409	   11.00	    9.13	-1003.72	    7.30
     79.0743	    8.00	    9.15	-1006.74	    7.30
     79.1078	   11.00	    9.17	-1003.77	    7.30
     79.1412	   10.00	    9.20	-1004.80	    7.30
     79.1746	   12.00	    9.23	-1002.83	    7.30
     79.2080	    7.00	    9.27	-1007.87	    7.30
     79.2414	   11.00	    9.33	-1003.93	    7.30
     79.2749	    6.00	    9.38	-1008.98	    7.30
     79.3083	    6.00	    9.44	-1009.04	    7.30
     79.3417	   10.00	    9.52	-1005.12	    7.30
     79.3751	   13.00	    9.61	-1002.21	    7.30
     79.4086	    7.00	    9.72	-1008.32	    7.30
     79.4420	   11.00	    9.86	-1004.46	    7.30
     79.4754	    9.00	   10.04	-1006.63	    7.30
     79.5088	   13.00	   10.27	-1002.86	    7.30
     79.5423	   11.00	   10.57	-1005.17	    7.30
     79.5757	   12.00	   11.00	-1004.60	    7.30
     79.6091	    5.00	   11.63	-1012.23	    7.30
     79.6425	   11.00	   12.68	-1007.28	    7.30
     79.6759	   12.00	   14.61	-1008.20	    7.30
     79.7094	   15.00	   18.24	-1008.83	    7.30
     79.7428	   25.00	   24.45	-1005.05	    7.30
     79.7762	   27.00	   33.11	-1011.71	    7.30
     79.8096	   27.00	   40.29	-1018.89	    7.30
     79.8430	   54.00	   38.84	 -990.43	    7.30
     79.8765	   41.00	   30.97	 -995.57	    7.30
     79.9099	   21.00	   24.00	-1008.60	    7.30
     79.9433	   18.00	   20.55	-1008.15	    7.30
     79.9767	   15.00	   20.65	-1011.25	    7.30
     80.0102	   25.00	   23.35	-1003.94	    7.30
     80.0436	   17.00	   26.14	-1014.74	    7.30
     80.0770	   25.00	   25.08	-1005.67	    7.30
     80.1104	    9.00	   20.68	-1017.27	    7.30
     80.1439	   11.00	   16.45	-1011.05	    7.30
     80.1773	   17.00	   13.62	-1002.22	    7.30
     80.2107	   11.00	   12.00	-1006.60	    7.30
     80.2441	    7.00	   11.12	-1009.72	    7.30
     80.2775	    8.00	   10.61	-1008.21	    7.30
     80.3110	   11.00	   10.28	-1004.88	    7.30
     80.3444	    6.00	   10.05	-1009.65	    7.30
     80.3778	   10.00	    9.88	-1005.47	    7.30
     80.4112	   10.00	    9.75	-1005.34	    7.30
     80.4447	   11.00	    9.65	-1004.24	    7.30
     80.4781	    5.00	    9.57	-1010.17	    7.30
     80.5115	   12.00	    9.51	-1003.11	    7.30
     80.5449	   11.00	    9.47	-1004.06	    7.30
     80.5784	    7.00	    9.44	-1008.04	    7.30
     80.6118	   12.00	    9.44	-1003.03	    7.30
     80.6452	    3.00	    9.46	-1012.06	    7.30
     80.6786	   13.00	    9.53	-1002.12	    7.30
     80.7120	    7.00	    9.60	-1008.19	    7.30
     80.7455	    6.00	    9.60	-1009.19	    7.30
     80.7789	    8.00	    9.52	-1007.11	    7.30
     80.8123	   13.00	    9.42	-1002.02	    7.30
     80.8457	   11.00	    9.37	-1003.96	    7.30
     80.8792	    8.00	    9.37	-1006.97	    7.30
     80.9126	    6.00	    9.39	-1008.99	    7.30
     80.9460	   10.00	    9.43	-1005.02	    7.30
     80.9794	    8.00	    9.44	-1007.03	    7.30
     81.0128	    9.00	    9.41	-1006.00	    7.30
     81.0463	   11.00	    9.37	-1003.96	    7.30
     81.0797	    7.00	    9.34	-1007.93	    7.30
     81.1131	    6.00	    9.34	-1008.93	    7.30
     81.1465	   12.00	    9.34	-1002.93	    7.30
     81.1800	    5.00	    9.34	-1009.94	    7.30
     81.2134	    8.00	    9.36	-1006.95	    7.30
     81.2468	    8.00	    9.37	-1006.97	    7.30
     81.2802	    9.00	    9.39	-1005.99	    7.30
     81.3136	   12.00	    9.42	-1003.01	    7.30
     81.3471	   12.00	    9.44	-1003.04	    7.30
     81.3805	   18.00	    9.48	 -997.07	    7.30
     81.4139	    8.00	    9.51	-1007.11	    7.30
     81.4473	   10.00	    9.55	-1005.15	    7.30
     81.4808	    8.00	    9.59	-1007.19	    7.29
     81.5142	    9.00	    9.65	-1006.24	    7.29
     81.5476	    9.00	    9.70	-1006.30	    7.29
     81.5810	   10.00	    9.77	-1005.37	    7.29
     81.6144	   11.00	    9.85	-1004.44	    7.29
     81.6479	   12.00	    9.93	-1003.53	    7.29
     81.6813	    6.00	   10.03	-1009.63	    7.29
     81.7147	    7.00	   10.15	-1008.74	    7.29
     81.7481	   12.00	   10.29	-1003.88	    7.29
     81.7816	    7.00	   10.45	-1009.04	    7.29
     81.8150	   11.00	   10.64	-1005.23	    7.29
     81.8484	   15.00	   10.87	-1001.46	    7.29
     81.8818	   12.00	   11.15	-1004.74	    7.29
     81.9153	   12.00	   11.49	-1005.09	    7.29
     81.9487	   12.00	   11.93	-1005.52	    7.29
     81.9821	   16.00	   12.48	-1002.08	    7.29
     82.0155	   15.00	   13.21	-1003.80	    7.29
     82.0489	   15.00	   14.19	-1004.78	    7.29
     82.0824	   25.00	   15.57	 -996.17	    7.29
     82.1158	   12.00	   17.66	-1011.26	    7.29
     82.1492	   27.00	   21.12	 -999.71	    7.29
     82.1826	   23.00	   27.33	-1009.93	    7.29
     82.2160	   53.00	   38.58	 -991.18	    7.28
     82.2495	   61.00	   57.26	-1001.85	    7.28
     82.2829	  100.00	   82.30	 -987.89	    7.28
     82.3163	  109.00	  101.35	 -997.94	    7.28
     82.3497	  105.00	   95.16	 -995.75	    7.28
     82.3832	   80.00	   72.30	 -997.90	    7.28
     82.4166	   73.00	   52.46	 -985.05	    7.28
     82.4500	   54.00	   42.28	 -993.87	    7.28
     82.4834	   34.00	   41.81	-1013.41	    7.28
     82.5169	   61.00	   48.95	 -993.55	    7.28
     82.5503	   77.00	   58.33	 -986.93	    7.28
     82.5837	   76.00	   59.10	 -988.70	    7.28
     82.6171	   71.00	   48.65	 -983.25	    7.28
     82.6505	   33.00	   36.81	-1009.41	    7.28
     82.6840	   30.00	   28.41	-1004.00	    7.28
     82.7174	   13.00	   22.81	-1015.40	    7.27
     82.7508	   12.00	   18.85	-1012.45	    7.27
     82.7842	   15.00	   16.24	-1006.83	    7.27
     82.8177	   15.00	   14.64	-1005.24	    7.27
     82.8511	   10.00	   13.79	-1009.39	    7.27
     82.8845	    9.00	   13.47	-1010.07	    7.27
     82.9179	   10.00	   13.45	-1009.04	    7.27
     82.9514	   11.00	   13.28	-1007.87	    7.27
     82.9848	   11.00	   12.68	-1007.28	    7.27
     83.0182	   12.00	   11.99	-1005.59	    7.27
     83.0516	   13.00	   11.50	-1004.09	    7.27
     83.0850	    7.00	   11.28	-1009.87	    7.27
     83.1185	    9.00	   11.31	-1007.90	    7.27
     83.1519	   11.00	   11.50	-1006.10	    7.26
     83.1853	   19.00	   11.60	 -998.20	    7.26
     83.2187	   13.00	   11.36	-1003.95	    7.26
     83.2522	    7.00	   10.94	-1009.53	    7.26
     83.2856	    9.00	   10.60	-1007.19	    7.26
     83.3190	   11.00	   10.42	-1005.01	    7.26
     83.3524	   11.00	   10.39	-1004.98	    7.26
     83.3858	   11.00	   10.47	-1005.07	    7.26
     83.4193	   10.00	   10.59	-1006.19	    7.26
     83.4527	    9.00	   10.59	-1007.18	    7.26
     83.4861	    4.00	   10.43	-1012.03	    7.26
     83.5195	   22.00	   10.26	 -993.85	    7.25
     83.5530	   11.00	   10.15	-1004.75	    7.25
     83.5864	    9.00	   10.11	-1006.70	    7.25
     83.6198	    7.00	   10.12	-1008.71	    7.25
     83.6532	   15.00	   10.16	-1000.75	    7.25
     83.6866	   11.00	   10.23	-1004.82	    7.25
     83.7201	   10.00	   10.33	-1005.92	    7.25
     83.7535	   12.00	   10.45	-1004.05	    7.25
     83.7869	    7.00	   10.62	-1009.21	    7.25
     83.8203	   16.00	   10.83	-1000.42	    7.25
     83.8538	    8.00	   11.10	-1008.69	    7.24
     83.8872	   11.00	   11.44	-1006.04	    7.24
     83.9206	   11.00	   11.90	-1006.50	    7.24
     83.9540	   13.00	   12.52	-1005.11	    7.24
     83.9874	   13.00	   13.38	-1005.98	    7.24
     84.0209	   22.00	   14.68	 -998.27	    7.24
     84.0543	   18.00	   16.80	-1004.40	    7.24
     84.0877	   23.00	   20.66	-1003.26	    7.24
     84.1211	   22.00	   27.77	-1011.37	    7.24
     84.1546	   33.00	   39.75	-1012.35	    7.23
     84.1880	   48.00	   56.47	-1014.07	    7.23
     84.2214	   82.00	   71.34	 -994.93	    7.23
     84.2548	   76.00	   70.76	-1000.35	    7.23
     84.2883	   52.00	   56.08	-1009.67	    7.23
     84.3217	   54.00	   41.22	 -992.81	    7.23
     84.3551	   28.00	   32.33	-1009.93	    7.23
     84.3885	   30.00	   30.06	-1005.66	    7.23
     84.4219	   37.00	   33.37	-1001.97	    7.22
     84.4554	   45.00	   39.92	-1000.51	    7.22
     84.4888	   41.00	   43.82	-1008.42	    7.22
     84.5222	   45.00	   39.20	 -999.79	    7.22
     84.5556	   35.00	   30.21	-1000.81	    7.22
     84.5891	   32.00	   22.56	 -996.16	    7.22
     84.6225	   16.00	   17.57	-1007.17	    7.22
     84.6559	   22.00	   14.71	 -998.30	    7.21
     84.6893	   12.00	   13.11	-1006.70	    7.21
     84.7227	   10.00	   12.15	-1007.74	    7.21
     84.7562	   12.00	   11.51	-1005.11	    7.21
     84.7896	   12.00	   11.05	-1004.65	    7.21
     84.8230	    8.00	   10.71	-1008.30	    7.21
     84.8564	    9.00	   10.44	-1007.03	    7.21
     84.8899	   13.00	   10.22	-1002.81	    7.20
     84.9233	    9.00	   10.04	-1006.64	    7.20
     84.9567	   13.00	    9.90	-1002.49	    7.20
     84.9901	    6.00	    9.78	-1009.37	    7.20
     85.0235	   16.00	    9.68	 -999.27	    7.20
     85.0570	   13.00	    9.59	-1002.18	    7.20
     85.0904	   13.00	    9.51	-1002.11	    7.20
     85.1238	    7.00	    9.45	-1008.04	    7.19
     85.1572	    8.00	    9.39	-1006.98	    7.19
     85.1907	   10.00	    9.34	-1004.93	    7.19
     85.2241	   10.00	    9.29	-1004.89	    7.19
     85.2575	   10.00	    9.25	-1004.85	    7.19
     85.2909	    9.00	    9.22	-1005.81	    7.19
     85.3244	    8.00	    9.18	-1006.78	    7.18
     85.3578	   13.00	    9.15	-1001.75	    7.18
     85.3912	    9.00	    9.13	-1005.72	    7.18
     85.4246	   10.00	    9.10	-1004.70	    7.18
     85.4580	   10.00	    9.08	-1004.68	    7.18
     85.4915	    7.00	    9.06	-1007.66	    7.18
     85.5249	    7.00	    9.04	-1007.64	    7.17
     85.5583	    8.00	    9.03	-1006.62	    7.17
     85.5917	   13.00	    9.01	-1001.61	    7.17
     85.6252	   12.00	    9.00	-1002.59	    7.17
     85.6586	   17.00	    8.98	 -997.58	    7.17
     85.6920	    8.00	    8.97	-1006.57	    7.17
     85.7254	    8.00	    8.93	-1006.52	    7.16
     85.7589	   11.00	    8.92	-1003.51	    7.16
     85.7923	    7.00	    8.91	-1007.50	    7.16
     85.8257	   17.00	    8.90	 -997.49	    7.16
     85.8591	    9.00	    8.89	-1005.49	    7.16
     85.8925	   15.00	    8.88	 -999.48	    7.15
     85.9259	    6.00	    8.88	-1008.47	    7.15
     85.9594	   11.00	    8.87	-1003.47	    7.15
     85.9928	   11.00	    8.85	-1003.45	    7.15
     86.0262	   11.00	    8.90	-1003.50	    7.15
     86.0596	   11.00	    8.90	-1003.49	    7.14
     86.0931	    6.00	    8.89	-1008.49	    7.14
     86.1265	    7.00	    8.89	-1007.49	    7.14
     86.1599	    8.00	    8.89	-1006.49	    7.14
     86.1933	   10.00	    8.89	-1004.49	    7.14
     86.2268	    5.00	    8.89	-1009.49	    7.13
     86.2602	    7.00	    8.89	-1007.49	    7.13
     86.2936	    8.00	    8.92	-1006.52	    7.13
     86.3270	    8.00	    8.92	-1006.52	    7.13
     86.3604	   11.00	    8.93	-1003.52	    7.13
     86.3939	    8.00	    8.93	-1006.52	    7.12
     86.4273	    5.00	    8.93	-1009.53	    7.12
     86.4607	    4.00	    8.94	-1010.54	    7.12
     86.4941	    9.00	    8.95	-1005.54	    7.12
     86.5276	   13.00	    8.95	-1001.55	    7.12
     86.5610	    6.00	    8.96	-1008.56	    7.11
     86.5944	    9.00	    8.97	-1005.57	    7.11
     86.6278	   10.00	    8.99	-1004.58	    7.11
     86.6613	   10.00	    9.00	-1004.60	    7.11
     86.6947	    8.00	    9.02	-1006.61	    7.10
     86.7281	   15.00	    9.04	 -999.63	    7.10
     86.7615	   11.00	    9.06	-1003.65	    7.10
     86.7949	   13.00	    9.08	-1001.68	    7.10
     86.8284	   10.00	    9.11	-1004.71	    7.10
     86.8618	    7.00	    9.15	-1007.74	    7.09
     86.8952	    5.00	    9.19	-1009.78	    7.09
     86.9286	    9.00	    9.23	-1005.83	    7.09
     86.9621	    8.00	    9.29	-1006.89	    7.09
     86.9955	   12.00	    9.36	-1002.96	    7.08
     87.0289	   13.00	    9.45	-1002.04	    7.08
     87.0623	   13.00	    9.55	-1002.15	    7.08
     87.0957	    9.00	    9.68	-1006.28	    7.08
     87.1292	    7.00	    9.88	-1008.47	    7.07
     87.1626	   19.00	   10.10	 -996.69	    7.07
     87.1960	   11.00	   10.40	-1004.99	    7.07
     87.2294	   15.00	   10.81	-1001.41	    7.07
     87.2629	   16.00	   11.46	-1001.06	    7.06
     87.2963	   11.00	   12.57	-1007.16	    7.06
     87.3297	   13.00	   14.58	-1007.17	    7.06
     87.3631	   21.00	   18.12	-1002.71	    7.06
     87.3965	   28.00	   23.63	-1001.22	    7.05
     87.4300	   21.00	   30.38	-1014.98	    7.05
     87.4634	   30.00	   34.53	-1010.12	    7.05
     87.4968	   37.00	   31.89	-1000.48	    7.05
     87.5302	   33.00	   25.64	 -998.23	    7.04
     87.5637	   24.00	   20.36	-1001.96	    7.04
     87.5971	   17.00	   17.46	-1006.06	    7.04
     87.6305	   19.00	   16.92	-1003.52	    7.04
     87.6639	   17.00	   18.36	-1006.95	    7.03
     87.6974	   16.00	   20.95	-1010.55	    7.03
     87.7308	   30.00	   22.73	 -998.32	    7.03
     87.7642	   16.00	   21.30	-1010.89	    7.02
     87.7976	   21.00	   17.89	-1002.49	    7.02
     87.8310	   18.00	   14.79	-1002.39	    7.02
     87.8645	   18.00	   12.69	-1000.29	    7.02
     87.8979	   10.00	   11.45	-1007.05	    7.01
     87.9313	   11.00	   10.76	-1005.36	    7.01
     87.9647	   10.00	   10.35	-1005.94	    7.01
     87.9982	   15.00	   10.09	-1000.68	    7.00
     88.0316	    8.00	    9.91	-1007.51	    7.00
     88.0650	   12.00	    9.78	-1003.38	    7.00
     88.0984	   11.00	    9.69	-1004.28	    7.00
     88.1318	    8.00	    9.62	-1007.21	    6.99
     88.1653	   10.00	    9.57	-1005.16	    6.99
     88.1987	   11.00	    9.53	-1004.13	    6.99
     88.2321	   12.00	    9.50	-1003.10	    6.98
     88.2655	    9.00	    9.49	-1006.09	    6.98
     88.2990	   11.00	    9.48	-1004.08	    6.98
     88.3324	   10.00	    9.48	-1005.08	    6.97
     88.3658	    9.00	    9.49	-1006.09	    6.97
     88.3992	   16.00	    9.51	 -999.10	    6.97
     88.4326	   17.00	    9.53	 -998.12	    6.97
     88.4661	    5.00	    9.55	-1010.15	    6.96
     88.4995	    8.00	    9.58	-1007.18	    6.96
     88.5329	    7.00	    9.62	-1008.22	    6.96
     88.5663	   13.00	    9.67	-1002.26	    6.95
     88.5998	    9.00	    9.72	-1006.32	    6.95
     88.6332	    9.00	    9.78	-1006.38	    6.95
     88.6666	   10.00	    9.85	-1005.45	    6.94
     88.7000	   17.00	    9.93	 -998.53	    6.94
     88.7334	    8.00	   10.03	-1007.62	    6.94
     88.7669	    5.00	   10.13	-1010.73	    6.93
     88.8003	   13.00	   10.25	-1002.85	    6.93
     88.8337	   13.00	   10.39	-1002.98	    6.93
     88.8671	    8.00	   10.55	-1008.14	    6.92
     88.9006	    8.00	   10.73	-1008.33	    6.92
     88.9340	    6.00	   10.95	-1010.54	    6.92
     88.9674	   12.00	   11.20	-1004.79	    6.91
     89.0008	   18.00	   11.50	 -999.09	    6.91
     89.0343	   15.00	   11.85	-1002.45	    6.91
     89.0677	   10.00	   12.28	-1007.87	    6.90
     89.1011	   13.00	   12.80	-1005.39	    6.90
     89.1345	   10.00	   13.44	-1009.04	    6.89
     89.1679	   17.00	   14.25	-1002.84	    6.89
     89.2014	   16.00	   15.28	-1004.87	    6.89
     89.2348	   21.00	   16.63	-1001.22	    6.88
     89.2682	   17.00	   18.45	-1007.04	    6.88
     89.3016	   30.00	   21.04	 -996.64	    6.88
     89.3351	   31.00	   25.07	 -999.66	    6.87
     89.3685	   27.00	   31.96	-1010.56	    6.87
     89.4019	   30.00	   44.38	-1019.98	    6.87
     89.4353	   57.00	   65.86	-1014.46	    6.86
     89.4688	  106.00	   98.70	 -998.30	    6.86
     89.5022	  162.00	  138.03	 -981.63	    6.85
     89.5356	  156.00	  161.41	-1011.00	    6.85
     89.5690	  156.00	  145.60	 -995.20	    6.85
     89.6024	   86.00	  109.01	-1028.61	    6.84
     89.6359	   81.00	   77.59	-1002.19	    6.84
     89.6693	   58.00	   59.54	-1007.13	    6.84
     89.7027	   51.00	   54.83	-1009.43	    6.83
     89.7361	   68.00	   61.51	 -999.10	    6.83
     89.7695	   70.00	   76.15	-1011.74	    6.82
     89.8030	   85.00	   89.70	-1010.29	    6.82
     89.8364	   86.00	   87.11	-1006.70	    6.82
     89.8698	   79.00	   68.98	 -995.58	    6.81
     89.9032	   52.00	   49.50	-1003.10	    6.81
     89.9367	   37.00	   35.26	-1003.86	    6.80
     89.9701	   16.00	   26.46	-1016.05	    6.80
     90.0035	   20.00	   21.45	-1007.04	    6.80
     90.0369	   22.00	   18.58	-1002.18	    6.79
     90.0703	   18.00	   16.83	-1004.42	    6.79
     90.1038	   15.00	   15.67	-1006.26	    6.78
     90.1372	   19.00	   14.86	-1001.46	    6.78
     90.1706	   19.00	   14.31	-1000.90	    6.78
     90.2040	    9.00	   13.94	-1010.54	    6.77
     90.2375	   13.00	   13.74	-1006.33	    6.77
     90.2709	   17.00	   13.68	-1002.27	    6.76
     90.3043	   19.00	   13.76	-1000.36	    6.76
     90.3377	   16.00	   14.01	-1003.61	    6.75
     90.3712	   18.00	   14.45	-1002.05	    6.75
     90.4046	   18.00	   15.14	-1002.74	    6.75
     90.4380	   19.00	   16.21	-1002.81	    6.74
     90.4714	   21.00	   17.91	-1002.51	    6.74
     90.5048	   18.00	   20.83	-1008.43	    6.73
     90.5383	   30.00	   26.14	-1001.73	    6.73
     90.5717	   37.00	   35.60	-1004.20	    6.72
     90.6051	   57.00	   50.94	 -999.53	    6.72
     90.6385	   77.00	   71.65	-1000.25	    6.72
     90.6720	  107.00	   90.07	 -988.67	    6.71
     90.7054	   92.00	   90.66	-1004.26	    6.71
     90.7388	   85.00	   73.31	 -993.90	    6.70
     90.7722	   49.00	   53.77	-1010.36	    6.70
     90.8056	   33.00	   40.31	-1012.90	    6.69
     90.8391	   33.00	   34.23	-1006.82	    6.69
     90.8725	   24.00	   34.77	-1016.36	    6.68
     90.9059	   38.00	   40.68	-1008.28	    6.68
     90.9393	   49.00	   49.33	-1005.92	    6.67
     90.9728	   39.00	   53.94	-1020.53	    6.67
     91.0062	   58.00	   48.28	 -995.88	    6.67
     91.0396	   34.00	   37.28	-1008.87	    6.66
     91.0730	   31.00	   27.54	-1002.13	    6.66
     91.1064	   24.00	   20.89	-1002.48	    6.65
     91.1399	   13.00	   16.89	-1009.48	    6.65
     91.1733	   15.00	   14.58	-1005.18	    6.64
     91.2067	   19.00	   13.20	 -999.79	    6.64
     91.2401	   13.00	   12.29	-1004.88	    6.63
     91.2736	   15.00	   11.63	-1002.23	    6.63
     91.3070	    6.00	   11.13	-1010.72	    6.62
     91.3404	    6.00	   10.74	-1010.33	    6.62
     91.3738	   15.00	   10.42	-1001.02	    6.61
     91.4073	   11.00	   10.16	-1004.76	    6.61
     91.4407	   18.00	    9.95	 -997.55	    6.60
     91.4741	    6.00	    9.77	-1009.37	    6.60
     91.5075	   17.00	    9.62	 -998.21	    6.59
     91.5409	    8.00	    9.53	-1007.13	    6.59
     91.5744	    9.00	    9.42	-1006.01	    6.58
     91.6078	    7.00	    9.31	-1007.91	    6.58
     91.6412	    6.00	    9.22	-1008.82	    6.57
     91.6746	   10.00	    9.14	-1004.74	    6.57
     91.7081	    9.00	    9.07	-1005.67	    6.56
     91.7415	   12.00	    9.01	-1002.60	    6.56
     91.7749	    6.00	    8.95	-1008.55	    6.55
     91.8083	   19.00	    8.90	 -995.49	    6.55
     91.8418	    5.00	    8.87	-1009.47	    6.54
     91.8752	   13.00	    8.83	-1001.42	    6.54
     91.9086	   13.00	    8.79	-1001.38	    6.53
     91.9420	    7.00	    8.75	-1007.35	    6.53
     91.9754	   10.00	    8.72	-1004.31	    6.52
     92.0089	   10.00	    8.68	-1004.28	    6.51
     92.0423	   10.00	    8.65	-1004.25	    6.51
     92.0757	    9.00	    8.62	-1005.22	    6.50
     92.1091	   12.00	    8.60	-1002.19	    6.50
     92.1425	    9.00	    8.57	-1005.17	    6.49
     92.1760	   13.00	    8.55	-1001.15	    6.49
     92.2094	    7.00	    8.53	-1007.12	    6.48
     92.2428	   16.00	    8.51	 -998.10	    6.48
     92.2762	   11.00	    8.52	-1003.12	    6.47
     92.3097	    6.00	    8.51	-1008.10	    6.47
     92.3431	   12.00	    8.49	-1002.09	    6.46
     92.3765	   10.00	    8.47	-1004.07	    6.45
     92.4099	   12.00	    8.46	-1002.05	    6.45
     92.4433	   17.00	    8.45	 -997.04	    6.44
     92.4768	    9.00	    8.43	-1005.03	    6.44
     92.5102	   10.00	    8.42	-1004.02	    6.43
     92.5436	    7.00	    8.41	-1007.00	    6.43
     92.5770	   12.00	    8.42	-1002.01	    6.42
     92.6105	    7.00	    8.41	-1007.00	    6.41
     92.6439	    6.00	    8.40	-1007.99	    6.41
     92.6773	   12.00	    8.39	-1001.98	    6.40
     92.7107	    5.00	    8.38	-1008.97	    6.40
     92.7442	   15.00	    8.37	 -998.97	    6.39
     92.7776	   11.00	    8.37	-1002.96	    6.39
     92.8110	   11.00	    8.36	-1002.96	    6.38
     92.8444	    6.00	    8.36	-1007.95	    6.37
     92.8778	   13.00	    8.35	-1000.95	    6.37
     92.9113	    6.00	    8.35	-1007.94	    6.36
     92.9447	    6.00	    8.35	-1007.94	    6.36
     92.9781	    8.00	    8.35	-1005.94	    6.35
     93.0115	    8.00	    8.35	-1005.95	    6.34
     93.0450	   18.00	    8.36	 -995.95	    6.34
     93.0784	    7.00	    8.37	-1006.97	    6.33
     93.1118	    9.00	    8.40	-1004.99	    6.32
     93.1452	   11.00	    8.40	-1002.99	    6.32
     93.1786	    8.00	    8.48	-1006.07	    6.31
     93.2121	   16.00	    8.58	 -998.18	    6.31
     93.2455	   19.00	    8.67	 -995.26	    6.30
     93.2789	   13.00	    8.66	-1001.25	    6.29
     93.3123	   12.00	    8.57	-1002.16	    6.29
     93.3458	   12.00	    8.48	-1002.07	    6.28
     93.3792	    8.00	    8.44	-1006.03	    6.27
     93.4126	    9.00	    8.41	-1005.01	    6.27
     93.4460	   12.00	    8.39	-1001.99	    6.26
     93.4794	    9.00	    8.43	-1005.02	    6.26
     93.5129	   12.00	    8.48	-1002.07	    6.25
     93.5463	    8.00	    8.52	-1006.11	    6.24
     93.5797	   10.00	    8.51	-1004.11	    6.24
     93.6131	   15.00	    8.47	 -999.07	    6.23
     93.6466	   11.00	    8.44	-1003.03	    6.22
     93.6800	    8.00	    8.41	-1006.01	    6.22
     93.7134	    7.00	    8.42	-1007.01	    6.21
     93.7468	    9.00	    8.42	-1005.02	    6.20
     93.7803	    9.00	    8.43	-1005.03	    6.20
     93.8137	    8.00	    8.45	-1006.05	    6.19
     93.8471	   17.00	    8.47	 -997.07	    6.18
     93.8805	   12.00	    8.50	-1002.10	    6.18
     93.9139	    9.00	    8.54	-1005.13	    6.17
     93.9474	   13.00	    8.58	-1001.17	    6.16
     93.9808	   13.00	    8.63	-1001.23	    6.16
     94.0142	   11.00	    8.70	-1003.29	    6.15
     94.0476	    4.00	    8.80	-1010.39	    6.14
     94.0811	    7.00	    8.95	-1007.55	    6.14
     94.1145	    6.00	    9.19	-1008.79	    6.13
     94.1479	    6.00	    9.56	-1009.15	    6.12
     94.1813	    9.00	   10.03	-1006.62	    6.11
     94.2148	   10.00	   10.45	-1006.05	    6.11
     94.2482	    8.00	   10.53	-1008.12	    6.10
     94.2816	   11.00	   10.25	-1004.84	    6.09
     94.3150	   11.00	    9.88	-1004.48	    6.09
     94.3484	   13.00	    9.66	-1002.26	    6.08
     94.3819	   16.00	    9.59	 -999.19	    6.07
     94.4153	   10.00	    9.66	-1005.26	    6.06
     94.4487	   21.00	    9.85	 -994.45	    6.06
     94.4821	    8.00	   10.14	-1007.73	    6.05
     94.5155	    8.00	   10.44	-1008.03	    6.04
     94.5490	   13.00	   10.60	-1003.20	    6.04
     94.5824	   12.00	   10.60	-1004.20	    6.03
     94.6158	   10.00	   10.57	-1006.17	    6.02
     94.6492	   11.00	   10.63	-1005.23	    6.01
     94.6827	   15.00	   10.79	-1001.39	    6.01
     94.7161	   12.00	   11.05	-1004.65	    6.00
     94.7495	   21.00	   11.40	 -996.00	    5.99
     94.7829	   13.00	   11.84	-1004.44	    5.98
     94.8163	    9.00	   12.40	-1008.99	    5.98
     94.8498	   28.00	   13.10	 -990.69	    5.97
     94.8832	   15.00	   13.98	-1004.57	    5.96
     94.9166	   19.00	   15.11	-1001.71	    5.95
     94.9500	   22.00	   16.62	-1000.21	    5.95
     94.9835	   24.00	   18.70	-1000.29	    5.94
     95.0169	   26.00	   21.79	-1001.38	    5.93
     95.0503	   40.00	   26.81	 -992.40	    5.92
     95.0837	   30.00	   35.49	-1011.08	    5.92
     95.1172	   56.00	   50.40	-1000.00	    5.91
     95.1506	   78.00	   73.99	-1001.59	    5.90
     95.1840	  115.00	  105.87	 -996.47	    5.89
     95.2174	  149.00	  136.37	 -992.97	    5.89
     95.2508	  140.00	  143.38	-1008.97	    5.88
     95.2843	  121.00	  120.40	-1005.00	    5.87
     95.3177	   98.00	   88.97	 -996.57	    5.86
     95.3511	   62.00	   64.57	-1008.17	    5.85
     95.3845	   51.00	   50.78	-1005.38	    5.85
     95.4180	   38.00	   46.95	-1014.54	    5.84
     95.4514	   56.00	   51.67	-1001.26	    5.83
     95.4848	   60.00	   63.22	-1008.81	    5.82
     95.5182	   84.00	   77.21	 -998.80	    5.81
     95.5517	   87.00	   83.15	-1001.75	    5.81
     95.5851	   85.00	   73.71	 -994.30	    5.80
     95.6185	   60.00	   57.19	-1002.78	    5.79
     95.6519	   52.00	   42.86	 -996.46	    5.78
     95.6853	   48.00	   33.36	 -990.96	    5.77
     95.7188	   27.00	   28.19	-1006.79	    5.76
     95.7522	   26.00	   26.23	-1005.82	    5.76
     95.7856	   22.00	   26.77	-1010.36	    5.75
     95.8190	   33.00	   30.05	-1002.64	    5.74
     95.8524	   42.00	   37.28	-1000.88	    5.73
     95.8859	   63.00	   50.22	 -992.82	    5.72
     95.9193	   79.00	   69.84	 -996.44	    5.71
     95.9527	  111.00	   93.19	 -987.79	    5.71
     95.9861	  146.00	  108.10	 -967.69	    5.70
     96.0196	  108.00	  100.70	 -998.30	    5.69
     96.0530	   75.00	   78.77	-1009.37	    5.68
     96.0864	   67.00	   57.70	 -996.30	    5.67
     96.1198	   48.00	   43.54	-1001.14	    5.66
     96.1533	   39.00	   36.81	-1003.41	    5.65
     96.1867	   48.00	   36.62	 -994.22	    5.65
     96.2201	   43.00	   41.99	-1004.59	    5.64
     96.2535	   69.00	   51.33	 -987.93	    5.63
     96.2869	   56.00	   59.96	-1009.56	    5.62
     96.3204	   63.00	   59.67	-1002.27	    5.61
     96.3538	   60.00	   49.55	 -995.14	    5.60
     96.3872	   47.00	   37.37	 -995.96	    5.59
     96.4206	   31.00	   27.76	-1002.35	    5.58
     96.4541	   26.00	   21.42	-1001.02	    5.58
     96.4875	   19.00	   17.61	-1004.21	    5.57
     96.5209	   17.00	   15.39	-1003.98	    5.56
     96.5543	   15.00	   14.04	-1004.63	    5.55
     96.5877	   16.00	   13.16	-1002.75	    5.54
     96.6212	   12.00	   12.56	-1006.15	    5.53
     96.6546	   20.00	   12.15	 -997.75	    5.52
     96.6880	   15.00	   11.89	-1002.49	    5.51
     96.7214	   10.00	   11.76	-1007.36	    5.50
     96.7549	   10.00	   11.75	-1007.34	    5.49
     96.7883	   19.00	   11.86	 -998.45	    5.49
     96.8217	   15.00	   12.11	-1002.71	    5.48
     96.8551	    9.00	   12.55	-1009.15	    5.47
     96.8885	   12.00	   13.25	-1006.85	    5.46
     96.9220	   21.00	   14.38	 -998.98	    5.45
     96.9554	   19.00	   16.31	-1002.91	    5.44
     96.9888	   17.00	   19.73	-1008.32	    5.43
     97.0222	   20.00	   25.66	-1011.25	    5.42
     97.0557	   39.00	   35.14	-1001.74	    5.41
     97.0891	   47.00	   48.22	-1006.81	    5.40
     97.1225	   84.00	   61.57	 -983.16	    5.39
     97.1559	   76.00	   66.36	 -995.95	    5.38
     97.1893	   66.00	   58.03	 -997.63	    5.37
     97.2228	   39.00	   44.56	-1011.15	    5.36
     97.2562	   39.00	   33.29	 -999.89	    5.35
     97.2896	   35.00	   26.30	 -996.89	    5.34
     97.3230	   31.00	   23.45	 -998.05	    5.33
     97.3565	   19.00	   24.21	-1010.80	    5.32
     97.3899	   34.00	   28.01	 -999.60	    5.32
     97.4233	   35.00	   33.78	-1004.38	    5.31
     97.4567	   36.00	   38.38	-1007.97	    5.30
     97.4902	   54.00	   37.16	 -988.75	    5.29
     97.5236	   31.00	   30.72	-1005.31	    5.28
     97.5570	   27.00	   23.62	-1002.22	    5.27
     97.5904	   24.00	   18.16	 -999.76	    5.26
     97.6238	   22.00	   14.58	 -998.18	    5.25
     97.6573	   12.00	   12.41	-1006.01	    5.24
     97.6907	   15.00	   11.11	-1001.71	    5.23
     97.7241	   11.00	   10.29	-1004.89	    5.22
     97.7575	    5.00	    9.72	-1010.32	    5.21
     97.7910	    5.00	    9.30	-1009.90	    5.20
     97.8244	   10.00	    8.97	-1004.57	    5.19
     97.8578	   16.00	    8.71	 -998.31	    5.18
     97.8912	   12.00	    8.50	-1002.10	    5.17
     97.9247	   11.00	    8.33	-1002.92	    5.16
     97.9581	    8.00	    8.18	-1005.78	    5.14
     97.9915	   13.00	    8.06	-1000.66	    5.13
     98.0249	   10.00	    7.97	-1003.56	    5.12
     98.0583	    6.00	    7.89	-1007.48	    5.11
     98.0918	    3.00	    7.83	-1010.43	    5.10
     98.1252	    8.00	    7.80	-1005.40	    5.09
     98.1586	    9.00	    7.82	-1004.41	    5.08
     98.1920	    3.00	    7.90	-1010.49	    5.07
     98.2254	   13.00	    8.06	-1000.66	    5.06
     98.2589	    9.00	    8.32	-1004.91	    5.05
     98.2923	    9.00	    8.61	-1005.20	    5.04
     98.3257	   11.00	    8.76	-1003.35	    5.03
     98.3591	    7.00	    8.68	-1007.27	    5.02
     98.3926	    8.00	    8.54	-1006.14	    5.01
     98.4260	    9.00	    8.52	-1005.11	    5.00
     98.4594	   15.00	    8.58	 -999.18	    4.99
     98.4928	    5.00	    8.56	-1009.16	    4.98
     98.5262	   12.00	    8.36	-1001.95	    4.97
     98.5597	    5.00	    8.13	-1008.72	    4.95
     98.5931	   13.00	    7.99	-1000.59	    4.94
     98.6265	   10.00	    7.94	-1003.53	    4.93
     98.6599	    7.00	    7.86	-1006.46	    4.92
     98.6934	    7.00	    7.73	-1006.32	    4.91
     98.7268	    8.00	    7.61	-1005.21	    4.90
     98.7602	    3.00	    7.57	-1010.17	    4.89
     98.7936	    5.00	    7.56	-1008.16	    4.88
     98.8271	   16.00	    7.49	 -997.08	    4.87
     98.8605	   10.00	    7.32	-1002.91	    4.86
     98.8939	   15.00	    7.13	 -997.72	    4.84
     98.9273	    9.00	    6.97	-1003.57	    4.83
     98.9607	   11.00	    6.86	-1001.46	    4.82
     98.9942	    6.00	    6.79	-1006.38	    4.81
     99.0276	    7.00	    6.68	-1005.28	    4.80
     99.0610	    4.00	    6.64	-1008.24	    4.79
     99.0944	    9.00	    6.61	-1003.20	    4.78
     99.1279	   13.00	    6.58	 -999.17	    4.77
     99.1613	    3.00	    6.55	-1009.15	    4.75
     99.1947	    4.00	    6.53	-1008.12	    4.74
     99.2281	   10.00	    6.50	-1002.10	    4.73
     99.2616	    8.00	    6.48	-1004.08	    4.72
     99.2950	    9.00	    6.46	-1003.06	    4.71
     99.3284	    8.00	    6.44	-1004.04	    4.70
     99.3618	    6.00	    6.40	-1006.00	    4.68
     99.3952	    8.00	    6.39	-1003.98	    4.67
     99.4287	   10.00	    6.37	-1001.97	    4.66
     99.4621	   13.00	    6.36	 -998.95	    4.65
     99.4955	   12.00	    6.35	 -999.94	    4.64
     99.5289	   13.00	    6.34	 -998.93	    4.63
     99.5623	    4.00	    6.33	-1007.93	    4.61
     99.5958	    3.00	    6.34	-1008.93	    4.60
     99.6292	    8.00	    6.35	-1003.94	    4.59
     99.6626	   11.00	    6.38	-1000.98	    4.58
     99.6960	    5.00	    6.45	-1007.04	    4.57
     99.7295	    7.00	    6.56	-1005.16	    4.55
     99.7629	   13.00	    6.72	 -999.31	    4.54
     99.7963	   13.00	    6.83	 -999.42	    4.53
     99.8297	    7.00	    6.86	-1005.45	    4.52
     99.8632	    8.00	    6.73	-1004.33	    4.51
     99.8966	   11.00	    6.55	-1001.14	    4.49
     99.9300	   13.00	    6.39	 -998.99	    4.48
     99.9634	    4.00	    6.29	-1007.88	    4.47
     99.9968	    7.00	    6.23	-1004.83	    4.46
     25.3109	        	        	        	        	    -251	(  1  0  1)	  0  1 :  2
     25.3742	        	        	        	        	    -251	(  1  0  1)	  0  2 :  2
     27.4317	        	        	        	        	       0	(  1  1  0)	  0  1 :  1
     27.5005	        	        	        	        	       0	(  1  1  0)	  0  2 :  1
     36.0750	        	        	        	        	       0	(  1  0  1)	  0  1 :  1
     36.1668	        	        	        	        	       0	(  1  0  1)	  0  2 :  1
     36.9529	        	        	        	        	    -251	(  1  0  3)	  0  1 :  2
     37.0471	        	        	        	        	    -251	(  1  0  3)	  0  2 :  2
     37.7898	        	        	        	        	    -251	(  0  0  4)	  0  1 :  2
     37.8864	        	        	        	        	    -251	(  0  0  4)	  0  2 :  2
     38.5763	        	        	        	        	    -251	(  1  1  2)	  0  1 :  2
     38.6750	        	        	        	        	    -251	(  1  1  2)	  0  2 :  2
     39.1845	        	        	        	        	       0	(  2  0  0)	  0  1 :  1
     39.2849	        	        	        	        	       0	(  2  0  0)	  0  2 :  1
     41.2340	        	        	        	        	       0	(  1  1  1)	  0  1 :  1
     41.3401	        	        	        	        	       0	(  1  1  1)	  0  2 :  1
     44.0369	        	        	        	        	       0	(  2  1  0)	  0  1 :  1
     44.1510	        	        	        	        	       0	(  2  1  0)	  0  2 :  1
     48.0547	        	        	        	        	    -251	(  2  0  0)	  0  1 :  2
     48.1804	        	        	        	        	    -251	(  2  0  0)	  0  2 :  2
     51.9765	        	        	        	        	    -251	(  2  0  2)	  0  1 :  2
     52.1140	        	        	        	        	    -251	(  2  0  2)	  0  2 :  2
     53.8867	        	        	        	        	    -251	(  1  0  5)	  0  1 :  2
     54.0300	        	        	        	        	    -251	(  1  0  5)	  0  2 :  2
     54.3133	        	        	        	        	       0	(  2  1  1)	  0  1 :  1
     54.4579	        	        	        	        	       0	(  2  1  1)	  0  2 :  1
     55.0812	        	        	        	        	    -251	(  2  1  1)	  0  1 :  2
     55.2283	        	        	        	        	    -251	(  2  1  1)	  0  2 :  2
     56.6178	        	        	        	        	       0	(  2  2  0)	  0  1 :  1
     56.7698	        	        	        	        	       0	(  2  2  0)	  0  2 :  1
     62.1252	        	        	        	        	    -251	(  2  1  3)	  0  1 :  2
     62.2951	        	        	        	        	    -251	(  2  1  3)	  0  2 :  2
     62.6984	        	        	        	        	    -251	(  2  0  4)	  0  1 :  2
     62.7513	        	        	        	        	       0	(  0  0  2)	  0  1 :  1
     62.8702	        	        	        	        	    -251	(  2  0  4)	  0  2 :  2
     62.9233	        	        	        	        	       0	(  0  0  2)	  0  2 :  1
     64.0382	        	        	        	        	       0	(  3  1  0)	  0  1 :  1
     64.2145	        	        	        	        	       0	(  3  1  0)	  0  2 :  1
     65.5008	        	        	        	        	       0	(  2  2  1)	  0  1 :  1
     65.6822	        	        	        	        	       0	(  2  2  1)	  0  2 :  1
     68.7594	        	        	        	        	    -251	(  1  1  6)	  0  1 :  2
     68.9524	        	        	        	        	    -251	(  1  1  6)	  0  2 :  2
     68.9946	        	        	        	        	       0	(  3  0  1)	  0  1 :  1
     69.1884	        	        	        	        	       0	(  3  0  1)	  0  2 :  1
     69.7935	        	        	        	        	       0	(  1  1  2)	  0  1 :  1
     69.9902	        	        	        	        	       0	(  1  1  2)	  0  2 :  1
     70.3162	        	        	        	        	    -251	(  2  2  0)	  0  1 :  2
     70.5149	        	        	        	        	    -251	(  2  2  0)	  0  2 :  2
     72.4083	        	        	        	        	       0	(  3  1  1)	  0  1 :  1
     72.6148	        	        	        	        	       0	(  3  1  1)	  0  2 :  1
     74.0521	        	        	        	        	    -251	(  1  0  7)	  0  1 :  2
     74.2649	        	        	        	        	    -251	(  1  0  7)	  0  2 :  2
     74.3893	        	        	        	        	       0	(  3  2  0)	  0  1 :  1
     74.6034	        	        	        	        	       0	(  3  2  0)	  0  2 :  1
     75.0609	        	        	        	        	    -251	(  2  1  5)	  0  1 :  2
     75.2776	        	        	        	        	    -251	(  2  1  5)	  0  2 :  2
     76.0650	        	        	        	        	    -251	(  3  0  1)	  0  1 :  2
     76.2857	        	        	        	        	    -251	(  3  0  1)	  0  2 :  2
     76.5288	        	        	        	        	       0	(  2  0  2)	  0  1 :  1
     76.7514	        	        	        	        	       0	(  2  0  2)	  0  2 :  1
     78.6684	        	        	        	        	    -251	(  2  0  6)	  0  1 :  2
     78.8996	        	        	        	        	    -251	(  2  0  6)	  0  2 :  2
     79.8206	        	        	        	        	       0	(  2  1  2)	  0  1 :  1
     80.0566	        	        	        	        	       0	(  2  1  2)	  0  2 :  1
     80.7338	        	        	        	        	    -251	(  0  0  8)	  0  1 :  2
     80.9737	        	        	        	        	    -251	(  0  0  8)	  0  2 :  2
     82.1866	        	        	        	        	    -251	(  3  0  3)	  0  1 :  2
     82.3247	        	        	        	        	       0	(  3  2  1)	  0  1 :  1
     82.4327	        	        	        	        	    -251	(  3  0  3)	  0  2 :  2
     82.5714	        	        	        	        	       0	(  3  2  1)	  0  2 :  1
     82.6991	        	        	        	        	    -251	(  2  2  4)	  0  1 :  2
     82.9474	        	        	        	        	    -251	(  2  2  4)	  0  2 :  2
     83.1890	        	        	        	        	    -251	(  3  1  2)	  0  1 :  2
     83.4395	        	        	        	        	    -251	(  3  1  2)	  0  2 :  2
     84.2363	        	        	        	        	       0	(  4  0  0)	  0  1 :  1
     84.4915	        	        	        	        	       0	(  4  0  0)	  0  2 :  1
     87.4666	        	        	        	        	       0	(  4  1  0)	  0  1 :  1
     87.7367	        	        	        	        	       0	(  4  1  0)	  0  2 :  1
     89.5383	        	        	        	        	       0	(  2  2  2)	  0  1 :  1
     89.8183	        	        	        	        	       0	(  2  2  2)	  0  2 :  1
     90.6889	        	        	        	        	       0	(  3  3  0)	  0  1 :  1
     90.9746	        	        	        	        	       0	(  3  3  0)	  0  2 :  1
     92.2189	        	        	        	        	    -251	(  3  1  4)	  0  1 :  2
     92.5124	        	        	        	        	    -251	(  3  1  4)	  0  2 :  2
     93.2580	        	        	        	        	    -251	(  2  1  7)	  0  1 :  2
     93.5569	        	        	        	        	    -251	(  2  1  7)	  0  2 :  2
     94.2325	        	        	        	        	    -251	(  3  0  5)	  0  1 :  2
     94.5365	        	        	        	        	    -251	(  3  0  5)	  0  2 :  2
     95.2081	        	        	        	        	    -251	(  3  2  1)	  0  1 :  2
     95.2407	        	        	        	        	       0	(  4  1  1)	  0  1 :  1
     95.5174	        	        	        	        	    -251	(  3  2  1)	  0  2 :  2
     95.5502	        	        	        	        	       0	(  4  1  1)	  0  2 :  1
     95.9921	        	        	        	        	       0	(  3  1  2)	  0  1 :  1
     96.3057	        	        	        	        	       0	(  3  1  2)	  0  2 :  1
     97.1504	        	        	        	        	       0	(  4  2  0)	  0  1 :  1
     97.4704	        	        	        	        	       0	(  4  2  0)	  0  2 :  1
     98.3221	        	        	        	        	    -251	(  1  0  9)	  0  1 :  2
     98.4859	        	        	        	        	       0	(  3  3  1)	  0  1 :  1
     98.6488	        	        	        	        	    -251	(  1  0  9)	  0  2 :  2
     98.8135	        	        	        	        	       0	(  3  3  1)	  0  2 :  1
     99.8213	        	        	        	        	    -251	(  2  0  8)	  0  1 :  2
    100.1568	        	        	        	        	    -251	(  2  0  8)	  0  2 :  2
    101.2827	        	        	        	        	    -251	(  3  2  3)	  0  1 :  2
    101.6270	        	        	        	        	    -251	(  3  2  3)	  0  2 :  2
    105.0710	        	        	        	        	       0	(  4  2  1)	  0  1 :  1
    105.4397	        	        	        	        	       0	(  4  2  1)	  0  2 :  1
    105.8469	        	        	        	        	       0	(  3  2  2)	  0  1 :  1
    106.0263	        	        	        	        	       0	(  1  0  3)	  0  1 :  1
    106.2207	        	        	        	        	       0	(  3  2  2)	  0  2 :  1
    106.4014	        	        	        	        	       0	(  1  0  3)	  0  2 :  1
    107.5121	        	        	        	        	    -251	(  3  1  6)	  0  1 :  2
    107.8975	        	        	        	        	    -251	(  3  1  6)	  0  2 :  2
