 TiO2   Chi2:  1.4631  CELL:    4.59399   4.59399   2.95887   90.0000   90.0000   90.0000   SPGR: P 42/m n m             TEMP:      0.00
  2   2394     1.54060     1.54439     0.00000     0.03598     0.00000    0
    56    56     0     0     0
 2Theta	Yobs	Ycal	Yobs-Ycal	Backg	Posr	(hkl)	K
     20.0167	   47.00	   43.44	-1225.82	   41.76
     20.0501	   60.00	   43.38	-1212.76	   41.70
     20.0836	   48.00	   43.32	-1224.70	   41.64
     20.1170	   50.00	   43.26	-1222.64	   41.58
     20.1504	   52.00	   43.20	-1220.58	   41.52
     20.1838	   45.00	   43.14	-1227.52	   41.46
     20.2172	   51.00	   43.09	-1221.47	   41.40
     20.2507	   49.00	   43.03	-1223.41	   41.34
     20.2841	   54.00	   42.97	-1218.35	   41.28
     20.3175	   48.00	   42.91	-1224.29	   41.22
     20.3509	   71.00	   42.85	-1201.23	   41.16
     20.3844	   45.00	   42.79	-1227.17	   41.10
     20.4178	   52.00	   42.73	-1220.11	   41.04
     20.4512	   57.00	   42.67	-1215.05	   40.99
     20.4846	   51.00	   42.61	-1220.99	   40.93
     20.5181	   64.00	   42.55	-1207.93	   40.87
     20.5515	   49.00	   42.49	-1222.87	   40.81
     20.5849	   47.00	   42.44	-1224.82	   40.75
     20.6183	   58.00	   42.38	-1213.76	   40.69
     20.6517	   49.00	   42.32	-1222.70	   40.63
     20.6852	   50.00	   42.26	-1221.64	   40.57
     20.7186	   62.00	   42.20	-1209.58	   40.52
     20.7520	   54.00	   42.14	-1217.52	   40.46
     20.7854	   52.00	   42.09	-1219.47	   40.40
     20.8189	   46.00	   42.03	-1225.41	   40.34
     20.8523	   45.00	   41.97	-1226.35	   40.28
     20.8857	   58.00	   41.91	-1213.29	   40.23
     20.9191	   64.00	   41.85	-1207.23	   40.17
     20.9525	   50.00	   41.80	-1221.18	   40.11
     20.9860	   41.00	   41.74	-1230.12	   40.05
     21.0194	   46.00	   41.68	-1225.06	   39.99
     21.0528	   40.00	   41.62	-1231.00	   39.94
     21.0862	   40.00	   41.56	-1230.94	   39.88
     21.1197	   58.00	   41.51	-1212.89	   39.82
     21.1531	   49.00	   41.45	-1221.83	   39.76
     21.1865	   46.00	   41.39	-1224.77	   39.71
     21.2199	   53.00	   41.33	-1217.71	   39.65
     21.2533	   53.00	   41.28	-1217.66	   39.59
     21.2868	   40.00	   41.22	-1230.60	   39.53
     21.3202	   45.00	   41.16	-1225.54	   39.48
     21.3536	   39.00	   41.11	-1231.49	   39.42
     21.3870	   57.00	   41.05	-1213.43	   39.36
     21.4205	   52.00	   40.99	-1218.37	   39.31
     21.4539	   31.00	   40.93	-1239.31	   39.25
     21.4873	   51.00	   40.88	-1219.26	   39.19
     21.5207	   70.00	   40.82	-1200.20	   39.14
     21.5541	   50.00	   40.76	-1220.14	   39.08
     21.5876	   53.00	   40.71	-1217.09	   39.02
     21.6210	   51.00	   40.65	-1219.03	   38.97
     21.6544	   35.00	   40.59	-1234.97	   38.91
     21.6878	   40.00	   40.54	-1229.92	   38.85
     21.7213	   47.00	   40.48	-1222.86	   38.80
     21.7547	   34.00	   40.43	-1235.81	   38.74
     21.7881	   34.00	   40.37	-1235.75	   38.68
     21.8215	   45.00	   40.31	-1224.69	   38.63
     21.8550	   56.00	   40.26	-1213.64	   38.57
     21.8884	   45.00	   40.20	-1224.58	   38.52
     21.9218	   56.00	   40.15	-1213.52	   38.46
     21.9552	   38.00	   40.09	-1231.47	   38.40
     21.9886	   39.00	   40.03	-1230.41	   38.35
     22.0221	   45.00	   39.98	-1224.36	   38.29
     22.0555	   41.00	   39.92	-1228.30	   38.24
     22.0889	   50.00	   39.87	-1219.25	   38.18
     22.1223	   51.00	   39.81	-1218.19	   38.12
     22.1558	   40.00	   39.76	-1229.13	   38.07
     22.1892	   46.00	   39.70	-1223.08	   38.01
     22.2226	   38.00	   39.64	-1231.02	   37.96
     22.2560	   48.00	   39.59	-1220.97	   37.90
     22.2894	   45.00	   39.53	-1223.91	   37.85
     22.3229	   30.00	   39.48	-1238.86	   37.79
     22.3563	   42.00	   39.42	-1226.80	   37.74
     22.3897	   41.00	   39.37	-1227.75	   37.68
     22.4231	   39.00	   39.31	-1229.69	   37.63
     22.4566	   50.00	   39.26	-1218.64	   37.57
     22.4900	   51.00	   39.20	-1217.58	   37.52
     22.5234	   62.00	   39.15	-1206.53	   37.46
     22.5568	   42.00	   39.09	-1226.47	   37.41
     22.5902	   48.00	   39.04	-1220.42	   37.35
     22.6237	   33.00	   38.98	-1235.36	   37.30
     22.6571	   50.00	   38.93	-1218.31	   37.24
     22.6905	   35.00	   38.88	-1233.26	   37.19
     22.7239	   41.00	   38.82	-1227.20	   37.14
     22.7574	   38.00	   38.80	-1230.18	   37.08
     22.7908	   41.00	   38.74	-1227.12	   37.03
     22.8242	   50.00	   38.71	-1218.09	   36.97
     22.8576	   42.00	   38.65	-1226.03	   36.92
     22.8911	   48.00	   38.60	-1219.98	   36.87
     22.9245	   60.00	   38.55	-1207.93	   36.81
     22.9579	   43.00	   38.50	-1224.88	   36.76
     22.9913	   39.00	   38.44	-1228.82	   36.70
     23.0247	   36.00	   38.39	-1231.77	   36.65
     23.0582	   49.00	   38.34	-1218.72	   36.60
     23.0916	   38.00	   38.29	-1229.67	   36.54
     23.1250	   41.00	   38.23	-1226.61	   36.49
     23.1584	   37.00	   38.18	-1230.56	   36.43
     23.1919	   40.00	   38.13	-1227.51	   36.38
     23.2253	   41.00	   38.08	-1226.46	   36.33
     23.2587	   49.00	   38.03	-1218.41	   36.27
     23.2921	   34.00	   37.98	-1233.36	   36.22
     23.3255	   43.00	   37.93	-1224.31	   36.17
     23.3590	   34.00	   37.88	-1233.26	   36.12
     23.3924	   39.00	   37.83	-1228.21	   36.06
     23.4258	   49.00	   37.78	-1218.16	   36.01
     23.4592	   41.00	   37.73	-1226.11	   35.96
     23.4927	   41.00	   37.68	-1226.06	   35.90
     23.5261	   45.00	   37.63	-1222.01	   35.85
     23.5595	   57.00	   37.58	-1209.96	   35.80
     23.5929	   42.00	   37.53	-1224.91	   35.74
     23.6263	   43.00	   37.48	-1223.86	   35.69
     23.6598	   30.00	   37.43	-1236.81	   35.64
     23.6932	   33.00	   37.38	-1233.76	   35.59
     23.7266	   33.00	   37.33	-1233.71	   35.53
     23.7600	   39.00	   37.29	-1227.67	   35.48
     23.7935	   49.00	   37.24	-1217.62	   35.43
     23.8269	   46.00	   37.19	-1220.57	   35.38
     23.8603	   47.00	   37.15	-1219.53	   35.33
     23.8937	   38.00	   37.10	-1228.48	   35.27
     23.9271	   40.00	   37.05	-1226.43	   35.22
     23.9606	   36.00	   37.01	-1230.39	   35.17
     23.9940	   28.00	   36.97	-1238.34	   35.12
     24.0274	   40.00	   36.92	-1226.30	   35.07
     24.0608	   39.00	   36.88	-1227.26	   35.01
     24.0943	   35.00	   36.84	-1231.22	   34.96
     24.1277	   35.00	   36.79	-1231.17	   34.91
     24.1611	   30.00	   36.75	-1236.13	   34.86
     24.1945	   45.00	   36.72	-1221.09	   34.81
     24.2280	   31.00	   36.68	-1235.06	   34.76
     24.2614	   49.00	   36.64	-1217.02	   34.70
     24.2948	   45.00	   36.60	-1220.98	   34.65
     24.3282	   37.00	   36.57	-1228.95	   34.60
     24.3616	   49.00	   36.54	-1216.92	   34.55
     24.3951	   41.00	   36.51	-1224.89	   34.50
     24.4285	   42.00	   36.48	-1223.86	   34.45
     24.4619	   45.00	   36.46	-1220.84	   34.40
     24.4953	   38.00	   36.43	-1227.81	   34.35
     24.5288	   38.00	   36.42	-1227.80	   34.30
     24.5622	   37.00	   36.40	-1228.78	   34.24
     24.5956	   47.00	   36.39	-1218.77	   34.19
     24.6290	   38.00	   36.39	-1227.77	   34.14
     24.6624	   34.00	   36.40	-1231.78	   34.09
     24.6959	   36.00	   36.41	-1229.79	   34.04
     24.7293	   41.00	   36.43	-1224.81	   33.99
     24.7627	   38.00	   36.47	-1227.85	   33.94
     24.7961	   46.00	   36.52	-1219.90	   33.89
     24.8296	   34.00	   36.59	-1231.97	   33.84
     24.8630	   46.00	   36.69	-1220.07	   33.79
     24.8964	   38.00	   37.96	-1229.34	   33.74
     24.9298	   37.00	   38.16	-1230.54	   33.69
     24.9632	   38.00	   38.99	-1230.37	   33.64
     24.9967	   46.00	   39.35	-1222.73	   33.59
     25.0301	   32.00	   39.82	-1237.20	   33.54
     25.0635	   41.00	   40.46	-1228.84	   33.49
     25.0969	   54.00	   41.35	-1216.73	   33.44
     25.1304	   32.00	   42.65	-1240.03	   33.39
     25.1638	   54.00	   44.65	-1220.03	   33.34
     25.1972	   58.00	   48.10	-1219.48	   33.29
     25.2306	   55.00	   55.61	-1229.99	   33.24
     25.2640	   86.00	   74.30	-1217.67	   33.19
     25.2975	  144.00	  113.68	-1199.06	   33.14
     25.3309	  149.00	  163.73	-1244.11	   33.09
     25.3643	  143.00	  170.83	-1257.21	   33.04
     25.3977	  164.00	  145.94	-1211.32	   32.99
     25.4312	  104.00	  108.15	-1233.53	   32.95
     25.4646	   77.00	   74.27	-1226.65	   32.90
     25.4980	   63.00	   56.24	-1222.62	   32.85
     25.5314	   58.00	   48.42	-1219.80	   32.80
     25.5649	   53.00	   44.91	-1221.29	   32.75
     25.5983	   52.00	   42.99	-1220.37	   32.70
     25.6317	   45.00	   41.79	-1226.17	   32.65
     25.6651	   47.00	   40.99	-1223.37	   32.60
     25.6985	   40.00	   40.44	-1229.82	   32.55
     25.7320	   33.00	   40.07	-1236.45	   32.51
     25.7654	   34.00	   39.81	-1235.19	   32.46
     25.7988	   39.00	   39.63	-1230.01	   32.41
     25.8322	   34.00	   39.53	-1234.91	   32.36
     25.8657	   35.00	   39.47	-1233.85	   32.31
     25.8991	   27.00	   39.46	-1241.84	   32.26
     25.9325	   46.00	   39.49	-1222.87	   32.21
     25.9659	   39.00	   39.54	-1229.92	   32.17
     25.9993	   41.00	   39.63	-1228.01	   32.12
     26.0328	   33.00	   39.74	-1236.12	   32.07
     26.0662	   35.00	   39.89	-1234.27	   32.02
     26.0996	   40.00	   40.05	-1229.43	   31.97
     26.1330	   41.00	   40.25	-1228.63	   31.93
     26.1665	   43.00	   40.47	-1226.85	   31.88
     26.1999	   34.00	   40.73	-1236.11	   31.83
     26.2333	   34.00	   41.01	-1236.39	   31.78
     26.2667	   24.00	   41.33	-1246.71	   31.74
     26.3001	   49.00	   41.68	-1222.06	   31.69
     26.3336	   38.00	   42.08	-1233.46	   31.64
     26.3670	   39.00	   42.52	-1232.90	   31.59
     26.4004	   49.00	   43.01	-1223.39	   31.55
     26.4338	   48.00	   43.55	-1224.93	   31.50
     26.4673	   49.00	   44.16	-1224.54	   31.45
     26.5007	   38.00	   44.84	-1236.22	   31.40
     26.5341	   62.00	   45.59	-1212.97	   31.36
     26.5675	   61.00	   46.44	-1214.82	   31.31
     26.6010	   61.00	   47.40	-1215.77	   31.26
     26.6344	   54.00	   48.47	-1223.85	   31.22
     26.6678	   69.00	   49.69	-1210.07	   31.17
     26.7012	   68.00	   51.07	-1212.45	   31.12
     26.7346	   68.00	   52.64	-1214.02	   31.07
     26.7681	   55.00	   54.45	-1228.83	   31.03
     26.8015	   51.00	   56.54	-1234.92	   30.98
     26.8349	   77.00	   58.96	-1211.34	   30.93
     26.8683	   79.00	   61.79	-1212.17	   30.89
     26.9018	   85.00	   65.12	-1209.50	   30.84
     26.9352	   87.00	   69.08	-1211.46	   30.80
     26.9686	   81.00	   73.84	-1222.22	   30.75
     27.0020	   81.00	   79.61	-1227.99	   30.70
     27.0354	   94.00	   86.70	-1222.08	   30.66
     27.0689	   90.00	   95.54	-1234.92	   30.61
     27.1023	  101.00	  106.77	-1235.15	   30.56
     27.1357	  127.00	  121.29	-1223.67	   30.52
     27.1691	  159.00	  140.55	-1210.93	   30.47
     27.2026	  165.00	  166.80	-1231.18	   30.43
     27.2360	  217.00	  203.87	-1216.25	   30.38
     27.2694	  257.00	  258.60	-1230.98	   30.33
     27.3028	  380.00	  345.52	-1194.90	   30.29
     27.3362	  533.00	  507.64	-1204.02	   30.24
     27.3697	  917.00	  886.76	-1199.14	   30.20
     27.4031	 1873.00	 1798.25	-1154.63	   30.15
     27.4365	 3597.00	 3470.61	-1102.99	   30.11
     27.4699	 4852.00	 4917.52	-1294.90	   30.06
     27.5034	 4603.00	 4540.55	-1166.93	   30.02
     27.5368	 3638.00	 3617.69	-1209.07	   29.97
     27.5702	 2291.00	 2295.48	-1233.86	   29.92
     27.6036	 1345.00	 1209.17	-1093.55	   29.88
     27.6371	  671.00	  646.69	-1205.07	   29.83
     27.6705	  444.00	  401.42	-1186.80	   29.79
     27.7039	  264.00	  286.57	-1251.95	   29.74
     27.7373	  199.00	  220.79	-1251.17	   29.70
     27.7707	  161.00	  177.85	-1246.23	   29.65
     27.8042	  125.00	  148.01	-1252.39	   29.61
     27.8376	  124.00	  126.42	-1231.80	   29.56
     27.8710	   88.00	  110.29	-1251.67	   29.52
     27.9044	  112.00	   97.92	-1215.30	   29.47
     27.9379	   91.00	   88.22	-1226.60	   29.43
     27.9713	   84.00	   80.45	-1225.83	   29.39
     28.0047	   73.00	   74.15	-1230.53	   29.34
     28.0381	   70.00	   68.98	-1228.36	   29.30
     28.0715	   63.00	   64.68	-1231.06	   29.25
     28.1050	   58.00	   61.05	-1232.43	   29.21
     28.1384	   46.00	   57.96	-1241.34	   29.16
     28.1718	   49.00	   55.32	-1235.70	   29.12
     28.2052	   67.00	   53.03	-1215.41	   29.08
     28.2387	   53.00	   51.03	-1227.41	   29.03
     28.2721	   48.00	   49.28	-1230.66	   28.99
     28.3055	   47.00	   47.74	-1230.12	   28.94
     28.3389	   51.00	   46.37	-1224.75	   28.90
     28.3723	   55.00	   45.15	-1219.53	   28.86
     28.4058	   50.00	   44.06	-1223.44	   28.81
     28.4392	   36.00	   43.07	-1236.45	   28.77
     28.4726	   48.00	   42.18	-1223.56	   28.72
     28.5060	   52.00	   41.38	-1218.76	   28.68
     28.5395	   53.00	   40.64	-1217.02	   28.64
     28.5729	   49.00	   39.97	-1220.35	   28.59
     28.6063	   60.00	   39.35	-1208.73	   28.55
     28.6397	   40.00	   38.79	-1228.17	   28.51
     28.6731	   31.00	   38.26	-1236.64	   28.46
     28.7066	   47.00	   37.78	-1220.16	   28.42
     28.7400	   33.00	   37.33	-1233.71	   28.38
     28.7734	   38.00	   36.91	-1228.29	   28.33
     28.8068	   41.00	   36.52	-1224.90	   28.29
     28.8403	   38.00	   36.16	-1227.54	   28.25
     28.8737	   30.00	   35.82	-1235.20	   28.20
     28.9071	   41.00	   35.50	-1223.88	   28.16
     28.9405	   46.00	   35.20	-1218.58	   28.12
     28.9740	   39.00	   34.92	-1225.30	   28.08
     29.0074	   34.00	   34.65	-1230.03	   28.03
     29.0408	   33.00	   34.39	-1230.77	   27.99
     29.0742	   40.00	   34.15	-1223.53	   27.95
     29.1076	   30.00	   33.93	-1233.31	   27.91
     29.1411	   31.00	   33.71	-1232.09	   27.86
     29.1745	   26.00	   33.50	-1236.88	   27.82
     29.2079	   47.00	   33.31	-1215.69	   27.78
     29.2413	   35.00	   33.12	-1227.50	   27.74
     29.2748	   26.00	   32.94	-1236.32	   27.69
     29.3082	   32.00	   32.77	-1230.15	   27.65
     29.3416	   37.00	   32.60	-1224.98	   27.61
     29.3750	   31.00	   32.44	-1230.82	   27.57
     29.4084	   40.00	   32.29	-1221.67	   27.52
     29.4419	   34.00	   32.15	-1227.52	   27.48
     29.4753	   36.00	   32.00	-1225.38	   27.44
     29.5087	   27.00	   31.87	-1234.25	   27.40
     29.5421	   33.00	   31.74	-1228.12	   27.36
     29.5756	   28.00	   31.61	-1232.99	   27.32
     29.6090	   40.00	   31.48	-1220.86	   27.27
     29.6424	   30.00	   31.37	-1230.74	   27.23
     29.6758	   36.00	   31.25	-1224.63	   27.19
     29.7092	   35.00	   31.14	-1225.52	   27.15
     29.7427	   23.00	   31.03	-1237.41	   27.11
     29.7761	   25.00	   30.92	-1235.30	   27.07
     29.8095	   26.00	   30.82	-1234.20	   27.02
     29.8429	   28.00	   30.72	-1232.10	   26.98
     29.8764	   24.00	   30.62	-1236.00	   26.94
     29.9098	   28.00	   30.52	-1231.90	   26.90
     29.9432	   23.00	   30.43	-1236.81	   26.86
     29.9766	   18.00	   30.34	-1241.72	   26.82
     30.0101	   31.00	   30.25	-1228.63	   26.78
     30.0435	   28.00	   30.16	-1231.54	   26.74
     30.0769	   26.00	   28.96	-1232.34	   26.70
     30.1103	   27.00	   28.91	-1231.29	   26.65
     30.1437	   35.00	   28.30	-1222.68	   26.61
     30.1772	   31.00	   28.26	-1226.64	   26.57
     30.2106	   27.00	   28.22	-1230.60	   26.53
     30.2440	   26.00	   28.18	-1231.56	   26.49
     30.2774	   25.00	   28.14	-1232.52	   26.45
     30.3109	   24.00	   28.10	-1233.48	   26.41
     30.3443	   39.00	   28.06	-1218.44	   26.37
     30.3777	   25.00	   28.02	-1232.40	   26.33
     30.4111	   24.00	   27.98	-1233.36	   26.29
     30.4445	   25.00	   27.94	-1232.31	   26.25
     30.4780	   28.00	   27.90	-1229.27	   26.21
     30.5114	   27.00	   27.85	-1230.23	   26.17
     30.5448	   25.00	   27.81	-1232.19	   26.13
     30.5782	   30.00	   27.77	-1227.15	   26.09
     30.6117	   27.00	   27.73	-1230.11	   26.05
     30.6451	   30.00	   27.69	-1227.07	   26.01
     30.6785	   41.00	   27.65	-1216.03	   25.97
     30.7119	   25.00	   27.61	-1231.99	   25.93
     30.7453	   13.00	   27.58	-1243.95	   25.89
     30.7788	   24.00	   27.54	-1232.92	   25.85
     30.8122	   22.00	   27.50	-1234.88	   25.81
     30.8456	   23.00	   27.46	-1233.84	   25.77
     30.8790	   23.00	   27.42	-1233.80	   25.73
     30.9125	   22.00	   27.38	-1234.76	   25.69
     30.9459	   24.00	   27.34	-1232.72	   25.65
     30.9793	   31.00	   27.30	-1225.68	   25.61
     31.0127	   28.00	   27.26	-1228.64	   25.57
     31.0462	   23.00	   27.22	-1233.60	   25.53
     31.0796	   25.00	   27.18	-1231.56	   25.49
     31.1130	   35.00	   27.14	-1221.52	   25.46
     31.1464	   24.00	   27.10	-1232.48	   25.42
     31.1798	   34.00	   27.06	-1222.44	   25.38
     31.2133	   24.00	   27.02	-1232.40	   25.34
     31.2467	   24.00	   26.99	-1232.36	   25.30
     31.2801	   34.00	   26.95	-1222.33	   25.26
     31.3135	   33.00	   26.91	-1223.29	   25.22
     31.3470	   19.00	   26.87	-1237.25	   25.18
     31.3804	   35.00	   26.83	-1221.21	   25.14
     31.4138	   19.00	   26.79	-1237.17	   25.11
     31.4472	   33.00	   26.75	-1223.13	   25.07
     31.4806	   31.00	   26.71	-1225.09	   25.03
     31.5141	   23.00	   26.68	-1233.06	   24.99
     31.5475	   28.00	   26.64	-1228.02	   24.95
     31.5809	   31.00	   26.60	-1224.98	   24.91
     31.6143	   21.00	   26.56	-1234.94	   24.87
     31.6478	   35.00	   26.52	-1220.90	   24.84
     31.6812	   24.00	   26.48	-1231.86	   24.80
     31.7146	   32.00	   26.45	-1223.83	   24.76
     31.7480	   28.00	   26.41	-1227.79	   24.72
     31.7814	   35.00	   26.37	-1220.75	   24.68
     31.8149	   27.00	   26.33	-1228.71	   24.65
     31.8483	   22.00	   26.29	-1233.67	   24.61
     31.8817	   24.00	   26.26	-1231.64	   24.57
     31.9151	   25.00	   26.22	-1230.60	   24.53
     31.9486	   27.00	   26.18	-1228.56	   24.49
     31.9820	   17.00	   26.14	-1238.52	   24.46
     32.0154	   23.00	   26.10	-1232.48	   24.42
     32.0488	   28.00	   26.07	-1227.45	   24.38
     32.0822	   24.00	   26.03	-1231.41	   24.34
     32.1157	   32.00	   25.99	-1223.37	   24.31
     32.1491	   24.00	   25.95	-1231.33	   24.27
     32.1825	   26.00	   25.92	-1229.30	   24.23
     32.2159	   20.00	   25.88	-1235.26	   24.19
     32.2494	   27.00	   25.84	-1228.22	   24.16
     32.2828	   22.00	   25.81	-1233.19	   24.12
     32.3162	   33.00	   25.77	-1222.15	   24.08
     32.3496	   25.00	   25.73	-1230.11	   24.05
     32.3830	   23.00	   25.69	-1232.07	   24.01
     32.4165	   30.00	   25.66	-1225.04	   23.97
     32.4499	   22.00	   25.62	-1233.00	   23.93
     32.4833	   45.00	   25.58	-1209.96	   23.90
     32.5167	   21.00	   25.55	-1233.93	   23.86
     32.5502	   17.00	   25.51	-1237.89	   23.82
     32.5836	   25.00	   25.47	-1229.85	   23.79
     32.6170	   25.00	   25.44	-1229.82	   23.75
     32.6504	   19.00	   25.40	-1235.78	   23.71
     32.6839	   27.00	   25.36	-1227.74	   23.68
     32.7173	   25.00	   25.33	-1229.71	   23.64
     32.7507	   24.00	   25.29	-1230.67	   23.60
     32.7841	   19.00	   25.25	-1235.63	   23.57
     32.8175	   32.00	   25.22	-1222.60	   23.53
     32.8510	   21.00	   25.18	-1233.56	   23.49
     32.8844	   20.00	   25.14	-1234.52	   23.46
     32.9178	   20.00	   25.11	-1234.49	   23.42
     32.9512	   30.00	   25.07	-1224.45	   23.39
     32.9847	   17.00	   25.04	-1237.42	   23.35
     33.0181	   22.00	   25.00	-1232.38	   23.31
     33.0515	   23.00	   24.96	-1231.34	   23.28
     33.0849	   22.00	   24.93	-1232.31	   23.24
     33.1183	   16.00	   24.89	-1238.27	   23.21
     33.1518	   37.00	   24.86	-1217.24	   23.17
     33.1852	   30.00	   24.82	-1224.20	   23.13
     33.2186	   24.00	   24.78	-1230.16	   23.10
     33.2520	   27.00	   24.75	-1227.13	   23.06
     33.2855	   32.00	   24.71	-1222.09	   23.03
     33.3189	   26.00	   24.68	-1228.06	   22.99
     33.3523	   21.00	   24.64	-1233.02	   22.96
     33.3857	   25.00	   24.61	-1228.99	   22.92
     33.4192	   20.00	   24.57	-1233.95	   22.89
     33.4526	   33.00	   25.03	-1221.41	   22.85
     33.4860	   32.00	   25.01	-1222.39	   22.81
     33.5194	   20.00	   24.98	-1234.36	   22.78
     33.5528	   15.00	   25.21	-1239.59	   22.74
     33.5863	   25.00	   25.20	-1229.58	   22.71
     33.6197	   26.00	   25.18	-1228.56	   22.67
     33.6531	   23.00	   25.17	-1231.55	   22.64
     33.6865	   20.00	   25.16	-1234.54	   22.60
     33.7200	   23.00	   25.15	-1231.53	   22.57
     33.7534	   27.00	   25.14	-1227.52	   22.53
     33.7868	   22.00	   25.13	-1232.51	   22.50
     33.8202	   22.00	   25.12	-1232.50	   22.46
     33.8536	   20.00	   25.11	-1234.49	   22.43
     33.8871	   18.00	   25.11	-1236.49	   22.40
     33.9205	   20.00	   25.11	-1234.49	   22.36
     33.9539	   27.00	   25.10	-1227.48	   22.33
     33.9873	   11.00	   25.10	-1243.48	   22.29
     34.0208	   17.00	   25.10	-1237.48	   22.26
     34.0542	   24.00	   25.11	-1230.49	   22.22
     34.0876	   36.00	   25.11	-1218.49	   22.19
     34.1210	   27.00	   25.12	-1227.50	   22.15
     34.1544	   21.00	   25.13	-1233.51	   22.12
     34.1879	   22.00	   25.14	-1232.52	   22.09
     34.2213	   26.00	   25.15	-1228.53	   22.05
     34.2547	   22.00	   25.17	-1232.55	   22.02
     34.2881	   22.00	   25.19	-1232.57	   21.98
     34.3216	   24.00	   25.21	-1230.59	   21.95
     34.3550	   25.00	   25.24	-1229.62	   21.92
     34.3884	   24.00	   25.27	-1230.65	   21.88
     34.4218	   22.00	   25.30	-1232.68	   21.85
     34.4552	   27.00	   25.34	-1227.72	   21.81
     34.4887	   26.00	   25.38	-1228.76	   21.78
     34.5221	   26.00	   25.43	-1228.81	   21.75
     34.5555	   24.00	   25.48	-1230.86	   21.71
     34.5889	   23.00	   25.54	-1231.92	   21.68
     34.6224	   25.00	   25.60	-1229.98	   21.65
     34.6558	   22.00	   25.67	-1233.05	   21.61
     34.6892	   17.00	   25.75	-1238.13	   21.58
     34.7226	   27.00	   25.83	-1228.21	   21.55
     34.7561	   21.00	   25.93	-1234.30	   21.51
     34.7895	   32.00	   26.03	-1223.41	   21.48
     34.8229	   17.00	   26.14	-1238.52	   21.45
     34.8563	   28.00	   26.27	-1227.65	   21.41
     34.8897	   28.00	   26.41	-1227.79	   21.38
     34.9232	   42.00	   26.56	-1213.94	   21.35
     34.9566	   27.00	   26.73	-1229.11	   21.31
     34.9900	   27.00	   26.91	-1229.29	   21.28
     35.0234	   35.00	   27.12	-1221.50	   21.25
     35.0569	   23.00	   27.35	-1233.73	   21.21
     35.0903	   11.00	   27.61	-1245.99	   21.18
     35.1237	   28.00	   27.89	-1229.27	   21.15
     35.1571	   36.00	   28.21	-1221.59	   21.12
     35.1905	   26.00	   28.57	-1231.95	   21.08
     35.2240	   22.00	   28.96	-1236.34	   21.05
     35.2574	   20.00	   29.41	-1238.79	   21.02
     35.2908	   36.00	   29.92	-1223.30	   20.99
     35.3242	   26.00	   30.49	-1233.87	   20.95
     35.3577	   27.00	   31.14	-1233.52	   20.92
     35.3911	   37.00	   31.89	-1224.27	   20.89
     35.4245	   35.00	   32.75	-1227.13	   20.86
     35.4579	   33.00	   33.74	-1230.12	   20.82
     35.4913	   34.00	   34.90	-1230.28	   20.79
     35.5248	   45.00	   36.25	-1220.63	   20.76
     35.5582	   45.00	   37.85	-1222.23	   20.73
     35.5916	   36.00	   39.76	-1233.14	   20.70
     35.6250	   39.00	   42.05	-1232.43	   20.66
     35.6585	   35.00	   44.86	-1239.23	   20.63
     35.6919	   35.00	   48.32	-1242.70	   20.60
     35.7253	   48.00	   52.66	-1234.04	   20.57
     35.7587	   50.00	   58.20	-1237.58	   20.54
     35.7921	   48.00	   65.44	-1246.82	   20.50
     35.8256	   63.00	   75.12	-1241.50	   20.47
     35.8590	  106.00	   88.48	-1211.86	   20.44
     35.8924	   99.00	  107.61	-1237.99	   20.41
     35.9258	  119.00	  136.60	-1246.98	   20.38
     35.9593	  189.00	  185.64	-1226.02	   20.35
     35.9927	  278.00	  287.74	-1239.12	   20.31
     36.0261	  473.00	  532.01	-1288.39	   20.28
     36.0595	  988.00	 1044.22	-1285.60	   20.25
     36.0930	 1804.00	 1752.46	-1177.84	   20.22
     36.1264	 1822.00	 1956.66	-1364.04	   20.19
     36.1598	 1594.00	 1603.33	-1238.71	   20.16
     36.1932	 1299.00	 1375.85	-1306.23	   20.13
     36.2266	  978.00	 1029.11	-1280.49	   20.10
     36.2601	  587.00	  598.61	-1240.99	   20.06
     36.2935	  325.00	  327.26	-1231.64	   20.03
     36.3269	  195.00	  198.25	-1232.63	   20.00
     36.3603	  114.00	  139.65	-1255.03	   19.97
     36.3938	   96.00	  108.29	-1241.67	   19.94
     36.4272	   70.00	   88.43	-1247.81	   19.91
     36.4606	   42.00	   74.76	-1262.14	   19.88
     36.4940	   57.00	   64.91	-1237.29	   19.85
     36.5274	   47.00	   57.57	-1239.95	   19.82
     36.5609	   52.00	   52.03	-1229.41	   19.79
     36.5943	   58.00	   47.63	-1219.01	   19.76
     36.6277	   47.00	   44.14	-1226.52	   19.73
     36.6611	   27.00	   41.35	-1243.73	   19.70
     36.6946	   23.00	   39.03	-1245.41	   19.67
     36.7280	   32.00	   37.12	-1234.50	   19.63
     36.7614	   33.00	   35.54	-1231.92	   19.60
     36.7948	   27.00	   34.24	-1236.62	   19.57
     36.8282	   24.00	   33.21	-1238.59	   19.54
     36.8617	   35.00	   32.50	-1226.88	   19.51
     36.8951	   35.00	   32.38	-1226.76	   19.48
     36.9285	   27.00	   33.31	-1235.69	   19.45
     36.9619	   30.00	   35.36	-1234.74	   19.42
     36.9954	   31.00	   36.31	-1234.69	   19.39
     37.0288	   33.00	   34.54	-1230.92	   19.36
     37.0622	   41.00	   33.00	-1221.38	   19.33
     37.0956	   32.00	   31.55	-1228.93	   19.30
     37.1291	   27.00	   29.43	-1231.81	   19.27
     37.1625	   21.00	   27.78	-1236.16	   19.24
     37.1959	   31.00	   26.80	-1225.18	   19.21
     37.2293	   18.00	   26.21	-1237.59	   19.18
     37.2627	   11.00	   25.80	-1244.18	   19.16
     37.2962	   34.00	   25.47	-1220.85	   19.13
     37.3296	   25.00	   25.19	-1229.57	   19.10
     37.3630	   31.00	   24.96	-1223.34	   19.07
     37.3964	   37.00	   24.76	-1217.14	   19.04
     37.4299	   24.00	   24.60	-1229.98	   19.01
     37.4633	   24.00	   24.46	-1229.84	   18.98
     37.4967	   16.00	   24.36	-1237.74	   18.95
     37.5301	   28.00	   24.30	-1225.68	   18.92
     37.5635	   33.00	   24.29	-1220.67	   18.89
     37.5970	   28.00	   24.35	-1225.73	   18.86
     37.6304	   25.00	   24.51	-1228.89	   18.83
     37.6638	   27.00	   24.84	-1227.22	   18.80
     37.6972	   28.00	   25.58	-1226.96	   18.78
     37.7307	   27.00	   27.40	-1229.77	   18.75
     37.7641	   27.00	   31.74	-1234.12	   18.72
     37.7975	   52.00	   39.61	-1216.99	   18.69
     37.8309	   52.00	   46.73	-1224.11	   18.66
     37.8643	   49.00	   44.53	-1224.91	   18.63
     37.8978	   55.00	   40.35	-1214.73	   18.60
     37.9312	   47.00	   37.98	-1220.36	   18.57
     37.9646	   35.00	   33.05	-1227.43	   18.54
     37.9980	   33.00	   28.22	-1224.60	   18.52
     38.0315	   17.00	   25.45	-1237.83	   18.49
     38.0649	   25.00	   24.16	-1228.54	   18.46
     38.0983	   21.00	   23.54	-1231.92	   18.43
     38.1317	   26.00	   23.18	-1226.56	   18.40
     38.1651	   21.00	   22.94	-1231.32	   18.37
     38.1986	   33.00	   22.78	-1219.16	   18.35
     38.2320	   25.00	   22.67	-1227.05	   18.32
     38.2654	   25.00	   22.61	-1226.98	   18.29
     38.2988	   20.00	   22.57	-1231.95	   18.26
     38.3323	   22.00	   22.58	-1229.96	   18.23
     38.3657	   24.00	   22.62	-1228.00	   18.21
     38.3991	   16.00	   22.71	-1236.09	   18.18
     38.4325	   17.00	   22.89	-1235.26	   18.15
     38.4660	   31.00	   23.21	-1221.59	   18.12
     38.4994	   18.00	   23.92	-1235.30	   18.09
     38.5328	   26.00	   25.53	-1228.91	   18.07
     38.5662	   27.00	   28.63	-1231.01	   18.04
     38.5996	   30.00	   31.43	-1230.81	   18.01
     38.6331	   34.00	   30.97	-1226.35	   17.98
     38.6665	   25.00	   29.72	-1234.10	   17.96
     38.6999	   23.00	   29.23	-1235.61	   17.93
     38.7333	   32.00	   27.94	-1225.32	   17.90
     38.7668	   26.00	   26.56	-1229.94	   17.87
     38.8002	   27.00	   25.52	-1227.90	   17.85
     38.8336	   24.00	   25.67	-1231.05	   17.82
     38.8670	   19.00	   26.28	-1236.66	   17.79
     38.9004	   21.00	   27.01	-1235.39	   17.76
     38.9339	   27.00	   28.41	-1230.79	   17.74
     38.9673	   24.00	   30.39	-1235.77	   17.71
     39.0007	   32.00	   33.28	-1230.66	   17.68
     39.0341	   40.00	   37.68	-1227.06	   17.66
     39.0676	   37.00	   45.14	-1237.52	   17.63
     39.1010	   51.00	   60.63	-1239.01	   17.60
     39.1344	   81.00	   97.27	-1245.65	   17.57
     39.1678	  144.00	  173.52	-1258.90	   17.55
     39.2012	  265.00	  279.63	-1244.01	   17.52
     39.2347	  295.00	  312.96	-1247.34	   17.49
     39.2681	  204.00	  255.73	-1281.11	   17.47
     39.3015	  199.00	  222.68	-1253.06	   17.44
     39.3349	  150.00	  188.93	-1268.31	   17.41
     39.3684	  132.00	  125.20	-1222.58	   17.39
     39.4018	   77.00	   76.55	-1228.93	   17.36
     39.4352	   60.00	   51.38	-1220.76	   17.33
     39.4686	   41.00	   39.99	-1228.37	   17.31
     39.5021	   39.00	   34.27	-1224.65	   17.28
     39.5355	   35.00	   30.82	-1225.20	   17.25
     39.5689	   26.00	   28.49	-1231.87	   17.23
     39.6023	   21.00	   26.83	-1235.21	   17.20
     39.6357	   21.00	   25.60	-1233.98	   17.18
     39.6692	   21.00	   24.67	-1233.05	   17.15
     39.7026	   12.00	   23.95	-1241.33	   17.12
     39.7360	   17.00	   23.38	-1235.76	   17.10
     39.7694	   19.00	   22.93	-1233.31	   17.07
     39.8029	   24.00	   22.56	-1227.94	   17.04
     39.8363	   18.00	   22.26	-1233.64	   17.02
     39.8697	   24.00	   22.02	-1227.40	   16.99
     39.9031	   15.00	   21.82	-1236.20	   16.97
     39.9365	   18.00	   21.66	-1233.04	   16.94
     39.9700	   13.00	   21.53	-1237.91	   16.92
     40.0034	   18.00	   21.42	-1232.80	   16.89
     40.0368	   27.00	   21.34	-1223.72	   16.86
     40.0702	   23.00	   21.28	-1227.66	   16.84
     40.1037	   16.00	   21.24	-1234.62	   16.81
     40.1371	   23.00	   21.22	-1227.60	   16.79
     40.1705	   22.00	   21.21	-1228.59	   16.76
     40.2039	   23.00	   21.22	-1227.60	   16.74
     40.2373	   11.00	   21.25	-1239.63	   16.71
     40.2708	   20.00	   21.30	-1230.68	   16.69
     40.3042	   22.00	   21.37	-1228.75	   16.66
     40.3376	   21.00	   21.45	-1229.83	   16.63
     40.3710	   22.00	   21.56	-1228.94	   16.61
     40.4045	   25.00	   21.69	-1226.07	   16.58
     40.4379	   28.00	   21.85	-1223.23	   16.56
     40.4713	   25.00	   22.04	-1226.42	   16.53
     40.5047	   26.00	   22.26	-1225.64	   16.51
     40.5382	   23.00	   22.52	-1228.90	   16.48
     40.5716	   17.00	   22.83	-1235.21	   16.46
     40.6050	   22.00	   23.19	-1230.57	   16.43
     40.6384	   25.00	   23.62	-1228.00	   16.41
     40.6718	   30.00	   24.12	-1223.50	   16.38
     40.7053	   17.00	   24.73	-1237.11	   16.36
     40.7387	   24.00	   25.46	-1230.84	   16.33
     40.7721	   31.00	   26.34	-1224.72	   16.31
     40.8055	   25.00	   27.41	-1231.79	   16.28
     40.8390	   24.00	   28.74	-1234.12	   16.26
     40.8724	   34.00	   30.40	-1225.78	   16.24
     40.9058	   32.00	   32.52	-1229.90	   16.21
     40.9392	   34.00	   35.26	-1230.64	   16.19
     40.9726	   35.00	   38.90	-1233.28	   16.16
     41.0061	   49.00	   43.87	-1224.25	   16.14
     41.0395	   43.00	   50.89	-1237.27	   16.11
     41.0729	   75.00	   61.29	-1215.67	   16.09
     41.1063	   80.00	   78.16	-1227.54	   16.06
     41.1398	  107.00	  110.93	-1233.31	   16.04
     41.1732	  170.00	  186.80	-1246.18	   16.02
     41.2066	  376.00	  353.32	-1206.70	   15.99
     41.2400	  691.00	  622.13	-1160.51	   15.97
     41.2734	  901.00	  799.07	-1127.45	   15.94
     41.3069	  700.00	  677.47	-1206.85	   15.92
     41.3403	  584.00	  553.92	-1199.30	   15.90
     41.3737	  538.00	  507.83	-1199.21	   15.87
     41.4071	  411.00	  374.12	-1192.50	   15.85
     41.4406	  249.00	  220.62	-1201.00	   15.82
     41.4740	  144.00	  127.36	-1212.74	   15.80
     41.5074	   71.00	   83.13	-1241.51	   15.78
     41.5408	   62.00	   62.50	-1229.88	   15.75
     41.5742	   43.00	   51.07	-1237.45	   15.73
     41.6077	   39.00	   43.68	-1234.06	   15.71
     41.6411	   35.00	   38.52	-1232.90	   15.68
     41.6745	   37.00	   34.75	-1227.13	   15.66
     41.7079	   23.00	   31.92	-1238.30	   15.63
     41.7414	   28.00	   29.73	-1231.11	   15.61
     41.7748	   26.00	   28.00	-1231.38	   15.59
     41.8082	   24.00	   26.61	-1231.99	   15.56
     41.8416	   19.00	   25.47	-1235.85	   15.54
     41.8751	   25.00	   24.53	-1228.91	   15.52
     41.9085	   21.00	   23.74	-1232.12	   15.49
     41.9419	   32.00	   22.99	-1220.37	   15.47
     41.9753	   33.00	   22.42	-1218.80	   15.45
     42.0087	   30.00	   21.93	-1221.31	   15.42
     42.0422	   26.00	   21.47	-1224.85	   15.40
     42.0756	   28.00	   21.09	-1222.47	   15.38
     42.1090	   21.00	   20.76	-1229.14	   15.36
     42.1424	   19.00	   20.47	-1230.85	   15.33
     42.1759	   18.00	   20.21	-1231.59	   15.31
     42.2093	   10.00	   19.98	-1239.36	   15.29
     42.2427	   12.00	   19.77	-1237.15	   15.26
     42.2761	   20.00	   19.58	-1228.96	   15.24
     42.3095	    9.00	   19.41	-1239.79	   15.22
     42.3430	   11.00	   19.25	-1237.63	   15.20
     42.3764	   22.00	   19.11	-1226.49	   15.17
     42.4098	   21.00	   18.98	-1227.36	   15.15
     42.4432	   27.00	   18.86	-1221.24	   15.13
     42.4767	   27.00	   18.76	-1221.14	   15.11
     42.5101	   12.00	   18.66	-1236.04	   15.08
     42.5435	   19.00	   18.57	-1228.95	   15.06
     42.5769	   21.00	   18.48	-1226.86	   15.04
     42.6103	   23.00	   18.41	-1224.79	   15.02
     42.6438	   20.00	   18.34	-1227.72	   14.99
     42.6772	   19.00	   18.27	-1228.65	   14.97
     42.7106	   19.00	   18.21	-1228.59	   14.95
     42.7440	   16.00	   18.16	-1231.54	   14.93
     42.7775	   24.00	   18.11	-1223.49	   14.90
     42.8109	   13.00	   18.07	-1234.45	   14.88
     42.8443	   13.00	   18.03	-1234.41	   14.86
     42.8777	   20.00	   18.00	-1227.38	   14.84
     42.9111	    8.00	   17.97	-1239.35	   14.82
     42.9446	   18.00	   17.95	-1229.33	   14.79
     42.9780	   15.00	   17.93	-1232.31	   14.77
     43.0114	   18.00	   17.92	-1229.30	   14.75
     43.0448	   21.00	   17.92	-1226.30	   14.73
     43.0783	   16.00	   17.92	-1231.30	   14.71
     43.1117	   25.00	   17.92	-1222.30	   14.69
     43.1451	   19.00	   17.94	-1228.32	   14.66
     43.1785	   15.00	   17.96	-1232.34	   14.64
     43.2120	   24.00	   17.99	-1223.37	   14.62
     43.2454	   19.00	   18.03	-1228.41	   14.60
     43.2788	   16.00	   18.09	-1231.47	   14.58
     43.3122	   22.00	   18.15	-1225.53	   14.56
     43.3456	   15.00	   18.24	-1232.62	   14.53
     43.3791	   21.00	   18.34	-1226.72	   14.51
     43.4125	   15.00	   18.46	-1232.84	   14.49
     43.4459	   18.00	   18.61	-1229.99	   14.47
     43.4793	   20.00	   18.78	-1228.16	   14.45
     43.5128	   15.00	   19.00	-1233.38	   14.43
     43.5462	   18.00	   19.26	-1230.64	   14.41
     43.5796	   20.00	   19.59	-1228.97	   14.39
     43.6130	   25.00	   19.99	-1224.37	   14.36
     43.6464	   19.00	   20.49	-1230.87	   14.34
     43.6799	   13.00	   21.12	-1237.50	   14.32
     43.7133	   19.00	   21.93	-1232.31	   14.30
     43.7467	   32.00	   22.98	-1220.36	   14.28
     43.7801	   23.00	   24.40	-1230.78	   14.26
     43.8136	   31.00	   26.34	-1224.72	   14.24
     43.8470	   34.00	   29.11	-1224.49	   14.22
     43.8804	   47.00	   33.25	-1215.63	   14.20
     43.9138	   47.00	   40.14	-1222.52	   14.18
     43.9473	   39.00	   53.97	-1244.35	   14.16
     43.9807	   85.00	   85.99	-1230.37	   14.13
     44.0141	  138.00	  153.08	-1244.46	   14.11
     44.0475	  283.00	  253.08	-1199.46	   14.09
     44.0809	  307.00	  301.74	-1224.12	   14.07
     44.1144	  235.00	  246.36	-1240.74	   14.05
     44.1478	  233.00	  203.01	-1199.39	   14.03
     44.1812	  195.00	  193.54	-1227.92	   14.01
     44.2146	  174.00	  152.66	-1208.04	   13.99
     44.2481	   96.00	   96.15	-1229.53	   13.97
     44.2815	   71.00	   59.33	-1217.71	   13.95
     44.3149	   52.00	   41.30	-1218.68	   13.93
     44.3483	   26.00	   32.92	-1236.30	   13.91
     44.3817	   34.00	   28.41	-1223.79	   13.89
     44.4152	   30.00	   25.53	-1224.91	   13.87
     44.4486	   24.00	   23.52	-1228.90	   13.85
     44.4820	   26.00	   22.07	-1225.45	   13.83
     44.5154	   17.00	   20.97	-1233.35	   13.81
     44.5489	   10.00	   20.12	-1239.50	   13.79
     44.5823	   13.00	   19.44	-1235.82	   13.77
     44.6157	    9.00	   18.90	-1239.28	   13.75
     44.6491	   19.00	   18.45	-1228.83	   13.73
     44.6825	   13.00	   18.08	-1234.46	   13.71
     44.7160	   18.00	   17.77	-1229.15	   13.69
     44.7494	   16.00	   17.50	-1230.88	   13.67
     44.7828	    7.00	   17.27	-1239.65	   13.65
     44.8162	   19.00	   17.07	-1227.45	   13.63
     44.8497	   15.00	   16.89	-1231.27	   13.61
     44.8831	   10.00	   16.74	-1236.12	   13.59
     44.9165	   13.00	   16.60	-1232.98	   13.57
     44.9499	   12.00	   16.47	-1233.85	   13.55
     44.9833	   18.00	   16.36	-1227.74	   13.53
     45.0168	   19.00	   16.26	-1226.64	   13.51
     45.0502	   19.00	   16.16	-1226.54	   13.49
     45.0836	   18.00	   16.08	-1227.46	   13.47
     45.1170	   17.00	   16.00	-1228.38	   13.46
     45.1505	   18.00	   15.92	-1227.30	   13.44
     45.1839	   20.00	   15.85	-1225.23	   13.42
     45.2173	   21.00	   15.79	-1224.17	   13.40
     45.2507	   13.00	   15.73	-1232.11	   13.38
     45.2841	    9.00	   15.67	-1236.05	   13.36
     45.3176	   12.00	   15.63	-1233.01	   13.34
     45.3510	   17.00	   15.58	-1227.96	   13.32
     45.3844	   23.00	   15.53	-1221.91	   13.30
     45.4178	   18.00	   15.49	-1226.87	   13.28
     45.4513	   18.00	   15.44	-1226.82	   13.26
     45.4847	   17.00	   15.40	-1227.78	   13.25
     45.5181	   15.00	   15.36	-1229.74	   13.23
     45.5515	   17.00	   15.32	-1227.70	   13.21
     45.5850	   22.00	   15.29	-1222.67	   13.19
     45.6184	   15.00	   15.25	-1229.63	   13.17
     45.6518	   15.00	   15.22	-1229.60	   13.15
     45.6852	   18.00	   15.18	-1226.56	   13.13
     45.7186	    9.00	   15.15	-1235.53	   13.11
     45.7521	   12.00	   15.12	-1232.50	   13.10
     45.7855	   12.00	   15.09	-1232.47	   13.08
     45.8189	   11.00	   15.06	-1233.44	   13.06
     45.8523	   15.00	   15.03	-1229.41	   13.04
     45.8858	   10.00	   15.00	-1234.38	   13.02
     45.9192	   10.00	   14.97	-1234.35	   13.00
     45.9526	   17.00	   14.95	-1227.33	   12.98
     45.9860	   12.00	   14.92	-1232.30	   12.97
     46.0194	   17.00	   14.89	-1227.27	   12.95
     46.0529	   12.00	   14.87	-1232.25	   12.93
     46.0863	   18.00	   14.84	-1226.22	   12.91
     46.1197	   11.00	   14.82	-1233.20	   12.89
     46.1531	   12.00	   14.79	-1232.17	   12.88
     46.1866	   13.00	   14.77	-1231.15	   12.86
     46.2200	   17.00	   14.75	-1227.13	   12.84
     46.2534	   23.00	   14.72	-1221.10	   12.82
     46.2868	   18.00	   14.70	-1226.08	   12.80
     46.3203	   25.00	   14.68	-1219.06	   12.79
     46.3537	   22.00	   14.66	-1222.04	   12.77
     46.3871	   12.00	   14.63	-1232.01	   12.75
     46.4205	   18.00	   14.61	-1225.99	   12.73
     46.4539	   12.00	   14.59	-1231.97	   12.71
     46.4874	   12.00	   14.57	-1231.95	   12.70
     46.5208	   15.00	   14.55	-1228.93	   12.68
     46.5542	   18.00	   14.53	-1225.91	   12.66
     46.5876	   21.00	   14.51	-1222.89	   12.64
     46.6211	   13.00	   14.49	-1230.87	   12.63
     46.6545	   12.00	   14.47	-1231.85	   12.61
     46.6879	   15.00	   14.45	-1228.83	   12.59
     46.7213	   16.00	   14.44	-1227.82	   12.57
     46.7547	   11.00	   14.42	-1232.80	   12.56
     46.7882	   18.00	   14.40	-1225.78	   12.54
     46.8216	   13.00	   14.31	-1230.69	   12.52
     46.8550	   11.00	   14.29	-1232.67	   12.50
     46.8884	   20.00	   14.28	-1223.66	   12.49
     46.9219	   12.00	   14.26	-1231.64	   12.47
     46.9553	   16.00	   14.21	-1227.59	   12.45
     46.9887	   17.00	   14.20	-1226.58	   12.43
     47.0221	   24.00	   14.19	-1219.57	   12.42
     47.0555	   19.00	   14.18	-1224.55	   12.40
     47.0890	    9.00	   14.16	-1234.54	   12.38
     47.1224	    8.00	   14.15	-1235.53	   12.37
     47.1558	   16.00	   14.14	-1227.52	   12.35
     47.1892	   19.00	   14.13	-1224.51	   12.33
     47.2227	   13.00	   14.13	-1230.51	   12.31
     47.2561	    9.00	   14.12	-1234.50	   12.30
     47.2895	   10.00	   14.11	-1233.49	   12.28
     47.3229	    9.00	   14.11	-1234.49	   12.26
     47.3563	   19.00	   14.11	-1224.49	   12.25
     47.3898	   13.00	   14.11	-1230.49	   12.23
     47.4232	   15.00	   14.11	-1228.49	   12.21
     47.4566	   23.00	   14.12	-1220.50	   12.20
     47.4900	   19.00	   14.13	-1224.51	   12.18
     47.5235	   17.00	   14.14	-1226.52	   12.16
     47.5569	   19.00	   14.16	-1224.54	   12.15
     47.5903	   24.00	   14.19	-1219.57	   12.13
     47.6237	   11.00	   14.22	-1232.60	   12.11
     47.6572	   19.00	   14.27	-1224.65	   12.10
     47.6906	   23.00	   14.34	-1220.72	   12.08
     47.7240	   17.00	   14.43	-1226.81	   12.06
     47.7574	   15.00	   14.55	-1228.93	   12.05
     47.7908	   17.00	   14.71	-1227.09	   12.03
     47.8243	   15.00	   14.95	-1229.33	   12.02
     47.8577	   16.00	   15.29	-1228.67	   12.00
     47.8911	   15.00	   15.83	-1230.21	   11.98
     47.9245	   12.00	   16.79	-1234.17	   11.97
     47.9580	   13.00	   18.85	-1235.23	   11.95
     47.9914	   22.00	   23.52	-1230.90	   11.93
     48.0248	   32.00	   32.37	-1229.75	   11.92
     48.0582	   38.00	   42.90	-1234.28	   11.90
     48.0916	   50.00	   43.72	-1223.10	   11.89
     48.1251	   36.00	   36.23	-1229.61	   11.87
     48.1585	   40.00	   32.54	-1221.92	   11.85
     48.1919	   22.00	   32.53	-1239.90	   11.84
     48.2253	   35.00	   28.74	-1223.12	   11.82
     48.2588	   26.00	   22.68	-1226.06	   11.81
     48.2922	   17.00	   18.52	-1230.90	   11.79
     48.3256	   19.00	   16.42	-1226.80	   11.78
     48.3590	   17.00	   15.42	-1227.80	   11.76
     48.3924	   21.00	   14.89	-1223.27	   11.74
     48.4259	   17.00	   14.55	-1226.93	   11.73
     48.4593	   21.00	   14.31	-1222.69	   11.71
     48.4927	   16.00	   14.13	-1227.51	   11.70
     48.5261	   13.00	   13.99	-1230.37	   11.68
     48.5596	   19.00	   13.88	-1224.26	   11.67
     48.5930	   11.00	   13.79	-1232.17	   11.65
     48.6264	   21.00	   13.72	-1222.10	   11.64
     48.6598	   21.00	   13.65	-1222.03	   11.62
     48.6932	   19.00	   13.60	-1223.98	   11.60
     48.7267	   16.00	   13.55	-1226.93	   11.59
     48.7601	   13.00	   13.51	-1229.89	   11.57
     48.7935	   13.00	   13.47	-1229.85	   11.56
     48.8269	   11.00	   13.43	-1231.81	   11.54
     48.8604	   15.00	   13.40	-1227.78	   11.53
     48.8938	   13.00	   13.37	-1229.75	   11.51
     48.9272	   10.00	   13.34	-1232.72	   11.50
     48.9606	   18.00	   13.31	-1224.69	   11.48
     48.9940	   19.00	   13.28	-1223.66	   11.47
     49.0275	   26.00	   13.26	-1216.64	   11.45
     49.0609	   11.00	   13.24	-1231.62	   11.44
     49.0943	   10.00	   13.21	-1232.59	   11.42
     49.1277	   13.00	   13.19	-1229.57	   11.41
     49.1612	    5.00	   13.17	-1237.55	   11.39
     49.1946	   12.00	   13.15	-1230.53	   11.38
     49.2280	   20.00	   13.13	-1222.51	   11.36
     49.2614	   17.00	   13.11	-1225.49	   11.35
     49.2949	   19.00	   13.09	-1223.47	   11.33
     49.3283	   16.00	   13.07	-1226.45	   11.32
     49.3617	   18.00	   13.05	-1224.43	   11.30
     49.3951	   11.00	   13.04	-1231.42	   11.29
     49.4285	   17.00	   13.02	-1225.40	   11.28
     49.4620	   15.00	   13.00	-1227.38	   11.26
     49.4954	   20.00	   12.98	-1222.36	   11.25
     49.5288	   13.00	   12.97	-1229.35	   11.23
     49.5622	   21.00	   12.95	-1221.33	   11.22
     49.5957	    9.00	   12.93	-1233.31	   11.20
     49.6291	   10.00	   12.92	-1232.30	   11.19
     49.6625	   17.00	   12.90	-1225.28	   11.17
     49.6959	   13.00	   12.89	-1229.27	   11.16
     49.7293	   17.00	   12.87	-1225.25	   11.15
     49.7628	   17.00	   12.85	-1225.23	   11.13
     49.7962	   19.00	   12.84	-1223.22	   11.12
     49.8296	   15.00	   12.82	-1227.20	   11.10
     49.8630	   21.00	   12.81	-1221.19	   11.09
     49.8965	   18.00	   12.79	-1224.17	   11.07
     49.9299	   15.00	   12.78	-1227.16	   11.06
     49.9633	   13.00	   12.76	-1229.14	   11.05
     49.9967	   13.00	   12.75	-1229.13	   11.03
     50.0302	   20.00	   12.73	-1222.11	   11.02
     50.0636	   20.00	   12.72	-1222.10	   11.00
     50.0970	   15.00	   12.70	-1227.08	   10.99
     50.1304	   15.00	   12.69	-1227.07	   10.98
     50.1638	   24.00	   12.67	-1218.05	   10.96
     50.1973	   11.00	   12.66	-1231.04	   10.95
     50.2307	   17.00	   12.64	-1225.02	   10.93
     50.2641	   12.00	   12.63	-1230.01	   10.92
     50.2975	   17.00	   12.61	-1224.99	   10.91
     50.3310	   13.00	   12.60	-1228.98	   10.89
     50.3644	   10.00	   12.58	-1231.96	   10.88
     50.3978	   11.00	   12.57	-1230.95	   10.87
     50.4312	   23.00	   12.56	-1218.94	   10.85
     50.4646	   17.00	   12.54	-1224.92	   10.84
     50.4981	   13.00	   12.53	-1228.91	   10.82
     50.5315	   12.00	   12.51	-1229.89	   10.81
     50.5649	   20.00	   12.50	-1221.88	   10.80
     50.5983	   11.00	   12.49	-1230.87	   10.78
     50.6318	   12.00	   12.47	-1229.85	   10.77
     50.6652	   15.00	   12.46	-1226.84	   10.76
     50.6986	   15.00	   12.44	-1226.82	   10.74
     50.7320	   10.00	   12.43	-1231.81	   10.73
     50.7654	   15.00	   12.42	-1226.80	   10.72
     50.7989	    8.00	   12.40	-1233.78	   10.70
     50.8323	    9.00	   12.39	-1232.77	   10.69
     50.8657	   10.00	   12.37	-1231.75	   10.68
     50.8991	    9.00	   12.36	-1232.73	   10.66
     50.9326	   15.00	   12.34	-1226.72	   10.65
     50.9660	   12.00	   12.33	-1229.71	   10.64
     50.9994	   11.00	   12.31	-1230.69	   10.63
     51.0328	   23.00	   12.30	-1218.68	   10.61
     51.0662	   16.00	   12.29	-1225.66	   10.60
     51.0997	   11.00	   12.28	-1230.66	   10.59
     51.1331	   16.00	   12.26	-1225.64	   10.57
     51.1665	   11.00	   12.25	-1230.63	   10.56
     51.1999	   13.00	   12.24	-1228.62	   10.55
     51.2334	   15.00	   12.23	-1226.61	   10.53
     51.2668	   17.00	   12.22	-1224.60	   10.52
     51.3002	    9.00	   12.20	-1232.58	   10.51
     51.3336	   19.00	   12.19	-1222.57	   10.50
     51.3671	   21.00	   12.18	-1220.56	   10.48
     51.4005	   10.00	   12.17	-1231.55	   10.47
     51.4339	   18.00	   12.15	-1223.53	   10.46
     51.4673	   18.00	   12.14	-1223.52	   10.45
     51.5007	   12.00	   12.72	-1230.10	   10.43
     51.5342	   11.00	   12.73	-1231.11	   10.42
     51.5676	   16.00	   12.73	-1226.11	   10.41
     51.6010	    5.00	   12.73	-1237.11	   10.40
     51.6344	   12.00	   12.74	-1230.11	   10.38
     51.6679	   15.00	   13.04	-1227.42	   10.37
     51.7013	   15.00	   13.05	-1227.43	   10.36
     51.7347	   13.00	   13.07	-1229.44	   10.35
     51.7681	   12.00	   13.08	-1230.46	   10.33
     51.8015	   19.00	   13.09	-1223.47	   10.32
     51.8350	    6.00	   13.11	-1236.49	   10.31
     51.8684	   15.00	   13.13	-1227.51	   10.30
     51.9018	   10.00	   13.15	-1232.53	   10.28
     51.9352	   19.00	   13.17	-1223.55	   10.27
     51.9687	   17.00	   13.19	-1225.57	   10.26
     52.0021	   20.00	   13.21	-1222.59	   10.25
     52.0355	   15.00	   13.24	-1227.62	   10.24
     52.0689	   16.00	   13.26	-1226.64	   10.22
     52.1023	   17.00	   13.29	-1225.67	   10.21
     52.1358	   13.00	   13.32	-1229.70	   10.20
     52.1692	   21.00	   13.35	-1221.73	   10.19
     52.2026	   18.00	   13.39	-1224.77	   10.18
     52.2360	   17.00	   13.43	-1225.81	   10.16
     52.2695	   19.00	   13.46	-1223.84	   10.15
     52.3029	   13.00	   13.51	-1229.89	   10.14
     52.3363	   16.00	   13.55	-1226.93	   10.13
     52.3697	   23.00	   13.60	-1219.97	   10.12
     52.4032	   18.00	   13.65	-1225.03	   10.10
     52.4366	   17.00	   13.70	-1226.08	   10.09
     52.4700	   21.00	   13.76	-1222.14	   10.08
     52.5034	   17.00	   13.81	-1226.19	   10.07
     52.5368	   12.00	   13.88	-1231.26	   10.06
     52.5703	   22.00	   13.95	-1221.33	   10.05
     52.6037	   25.00	   14.02	-1218.40	   10.03
     52.6371	   10.00	   14.10	-1233.48	   10.02
     52.6705	   21.00	   14.18	-1222.56	   10.01
     52.7040	   18.00	   14.27	-1225.65	   10.00
     52.7374	   19.00	   14.36	-1224.74	    9.99
     52.7708	   16.00	   14.46	-1227.84	    9.98
     52.8042	   18.00	   14.57	-1225.95	    9.97
     52.8376	   22.00	   14.69	-1222.07	    9.95
     52.8711	   15.00	   14.81	-1229.19	    9.94
     52.9045	   27.00	   14.94	-1217.32	    9.93
     52.9379	   28.00	   15.09	-1216.47	    9.92
     52.9713	   19.00	   15.25	-1225.62	    9.91
     53.0048	   19.00	   15.41	-1225.79	    9.90
     53.0382	   21.00	   15.60	-1223.97	    9.89
     53.0716	   26.00	   15.79	-1219.17	    9.88
     53.1050	   27.00	   16.01	-1218.39	    9.86
     53.1384	   25.00	   16.24	-1220.62	    9.85
     53.1719	   27.00	   16.49	-1218.87	    9.84
     53.2053	   21.00	   16.77	-1225.15	    9.83
     53.2387	   21.00	   17.07	-1225.45	    9.82
     53.2721	   25.00	   17.40	-1221.78	    9.81
     53.3056	   20.00	   17.76	-1227.14	    9.80
     53.3390	   17.00	   18.17	-1230.55	    9.79
     53.3724	   19.00	   18.61	-1228.99	    9.78
     53.4058	   18.00	   19.10	-1230.48	    9.77
     53.4393	   22.00	   19.65	-1227.03	    9.76
     53.4727	   33.00	   20.27	-1216.65	    9.74
     53.5061	   19.00	   20.96	-1231.34	    9.73
     53.5395	   20.00	   21.74	-1231.12	    9.72
     53.5729	   27.00	   22.63	-1225.01	    9.71
     53.6064	   28.00	   23.65	-1225.03	    9.70
     53.6398	   27.00	   24.83	-1227.21	    9.69
     53.6732	   26.00	   26.20	-1229.58	    9.68
     53.7066	   28.00	   27.83	-1229.21	    9.67
     53.7401	   34.00	   29.80	-1225.18	    9.66
     53.7735	   28.00	   32.48	-1233.86	    9.65
     53.8069	   43.00	   35.97	-1222.35	    9.64
     53.8403	   46.00	   41.39	-1224.77	    9.63
     53.8737	   55.00	   49.76	-1224.14	    9.62
     53.9072	   49.00	   60.18	-1240.56	    9.61
     53.9406	   70.00	   66.59	-1225.97	    9.60
     53.9740	   78.00	   68.00	-1219.38	    9.59
     54.0074	   86.00	   72.45	-1215.83	    9.58
     54.0409	   90.00	   82.75	-1222.13	    9.56
     54.0743	  109.00	   96.83	-1217.21	    9.55
     54.1077	  126.00	  113.22	-1216.60	    9.54
     54.1411	  154.00	  137.95	-1213.33	    9.53
     54.1745	  192.00	  180.43	-1217.81	    9.52
     54.2080	  243.00	  262.75	-1249.13	    9.51
     54.2414	  402.00	  444.26	-1271.64	    9.50
     54.2748	  800.00	  829.67	-1259.04	    9.49
     54.3082	 1545.00	 1472.81	-1157.19	    9.48
     54.3417	 2087.00	 2053.59	-1195.97	    9.47
     54.3751	 1819.00	 1869.10	-1279.48	    9.46
     54.4085	 1280.00	 1342.21	-1291.59	    9.45
     54.4419	 1103.00	 1124.64	-1251.02	    9.44
     54.4753	 1248.00	 1200.21	-1181.59	    9.43
     54.5088	 1164.00	 1112.65	-1178.03	    9.42
     54.5422	  806.00	  745.20	-1168.58	    9.41
     54.5756	  414.00	  428.72	-1244.10	    9.40
     54.6090	  281.00	  249.97	-1198.35	    9.39
     54.6425	  188.00	  164.20	-1205.58	    9.38
     54.6759	  140.00	  121.32	-1210.70	    9.37
     54.7093	   87.00	   96.00	-1238.37	    9.36
     54.7427	   72.00	   78.99	-1236.37	    9.35
     54.7761	   73.00	   66.84	-1223.22	    9.35
     54.8096	   66.00	   57.85	-1221.23	    9.34
     54.8430	   49.00	   51.04	-1231.42	    9.33
     54.8764	   37.00	   45.80	-1238.18	    9.32
     54.9098	   45.00	   41.78	-1226.16	    9.31
     54.9433	   39.00	   38.82	-1229.20	    9.30
     54.9767	   41.00	   37.11	-1225.49	    9.29
     55.0101	   50.00	   37.32	-1216.70	    9.28
     55.0435	   51.00	   40.22	-1218.60	    9.27
     55.0770	   40.00	   44.74	-1234.12	    9.26
     55.1104	   39.00	   44.80	-1235.18	    9.25
     55.1438	   41.00	   38.95	-1227.33	    9.24
     55.1772	   34.00	   34.36	-1229.74	    9.23
     55.2106	   34.00	   33.25	-1228.63	    9.22
     55.2441	   36.00	   32.98	-1226.36	    9.21
     55.2775	   45.00	   29.81	-1214.19	    9.20
     55.3109	   31.00	   25.83	-1224.21	    9.19
     55.3443	   28.00	   23.05	-1224.43	    9.18
     55.3778	   25.00	   21.42	-1225.80	    9.18
     55.4112	   27.00	   20.43	-1222.81	    9.17
     55.4446	   33.00	   19.75	-1216.13	    9.16
     55.4780	   24.00	   19.22	-1224.60	    9.15
     55.5114	   21.00	   18.79	-1227.17	    9.14
     55.5449	   31.00	   18.44	-1216.82	    9.13
     55.5783	   13.00	   18.14	-1234.52	    9.12
     55.6117	   22.00	   17.90	-1225.28	    9.11
     55.6451	   26.00	   17.70	-1221.08	    9.10
     55.6786	   20.00	   17.54	-1226.92	    9.09
     55.7120	   21.00	   17.42	-1225.80	    9.08
     55.7454	   26.00	   17.34	-1220.72	    9.08
     55.7788	   20.00	   17.29	-1226.67	    9.07
     55.8122	   11.00	   17.28	-1235.66	    9.06
     55.8457	   25.00	   17.31	-1221.69	    9.05
     55.8791	   16.00	   17.38	-1230.76	    9.04
     55.9125	   18.00	   17.50	-1228.88	    9.03
     55.9459	   16.00	   17.66	-1231.04	    9.02
     55.9794	   26.00	   17.88	-1221.26	    9.01
     56.0128	   18.00	   18.17	-1229.55	    9.01
     56.0462	   27.00	   18.53	-1220.91	    9.00
     56.0796	   25.00	   18.98	-1223.36	    8.99
     56.1131	   25.00	   19.54	-1223.92	    8.98
     56.1465	   23.00	   20.24	-1226.62	    8.97
     56.1799	   20.00	   21.10	-1230.48	    8.96
     56.2133	   33.00	   22.19	-1218.57	    8.95
     56.2467	   33.00	   23.55	-1219.93	    8.94
     56.2802	   27.00	   25.30	-1227.68	    8.94
     56.3136	   31.00	   27.57	-1225.95	    8.93
     56.3470	   35.00	   30.57	-1224.95	    8.92
     56.3804	   41.00	   34.65	-1223.03	    8.91
     56.4139	   51.00	   40.36	-1218.74	    8.90
     56.4473	   66.00	   48.75	-1212.13	    8.89
     56.4807	   81.00	   62.23	-1210.61	    8.89
     56.5141	   82.00	   87.81	-1235.19	    8.88
     56.5475	  135.00	  143.54	-1237.92	    8.87
     56.5810	  254.00	  259.07	-1234.45	    8.86
     56.6144	  434.00	  445.94	-1241.32	    8.85
     56.6478	  593.00	  603.98	-1240.36	    8.84
     56.6812	  520.00	  540.02	-1249.40	    8.84
     56.7147	  389.00	  385.49	-1225.87	    8.83
     56.7481	  354.00	  319.07	-1194.45	    8.82
     56.7815	  342.00	  343.13	-1230.51	    8.81
     56.8149	  372.00	  339.71	-1197.08	    8.80
     56.8483	  270.00	  243.33	-1202.71	    8.80
     56.8818	  159.00	  146.52	-1216.90	    8.79
     56.9152	   86.00	   88.18	-1231.56	    8.78
     56.9486	   62.00	   59.40	-1226.78	    8.77
     56.9820	   43.00	   45.25	-1231.63	    8.76
     57.0155	   37.00	   37.16	-1229.53	    8.76
     57.0489	   32.00	   31.81	-1229.19	    8.75
     57.0823	   27.00	   28.00	-1230.38	    8.74
     57.1157	   28.00	   25.18	-1226.56	    8.73
     57.1492	   25.00	   23.01	-1227.39	    8.72
     57.1826	   30.00	   21.32	-1220.70	    8.72
     57.2160	   21.00	   19.38	-1227.76	    8.71
     57.2494	   20.00	   18.29	-1227.66	    8.70
     57.2828	   28.00	   17.39	-1218.77	    8.69
     57.3163	   17.00	   16.63	-1229.01	    8.69
     57.3497	   30.00	   16.00	-1215.38	    8.68
     57.3831	   21.00	   15.17	-1223.55	    8.67
     57.4165	   13.00	   14.71	-1231.09	    8.66
     57.4500	   15.00	   14.31	-1228.69	    8.65
     57.4834	   20.00	   13.97	-1223.34	    8.65
     57.5168	   20.00	   13.66	-1223.04	    8.64
     57.5502	   33.00	   13.39	-1209.77	    8.63
     57.5836	   19.00	   13.15	-1223.53	    8.62
     57.6171	   16.00	   12.94	-1226.32	    8.62
     57.6505	   15.00	   12.74	-1227.12	    8.61
     57.6839	   27.00	   12.57	-1214.95	    8.60
     57.7173	   17.00	   12.41	-1224.79	    8.59
     57.7508	   11.00	   12.27	-1230.65	    8.59
     57.7842	   19.00	   12.14	-1222.52	    8.58
     57.8176	   19.00	   12.02	-1222.40	    8.57
     57.8510	   12.00	   11.91	-1229.29	    8.56
     57.8844	    4.00	   11.81	-1237.19	    8.56
     57.9179	    7.00	   11.72	-1234.10	    8.55
     57.9513	   12.00	   11.63	-1229.01	    8.54
     57.9847	   16.00	   11.55	-1224.93	    8.54
     58.0181	   20.00	   11.47	-1220.85	    8.53
     58.0516	   18.00	   11.40	-1222.78	    8.52
     58.0850	   17.00	   11.34	-1223.72	    8.51
     58.1184	   25.00	   11.28	-1215.66	    8.51
     58.1518	   13.00	   11.22	-1227.60	    8.50
     58.1852	    7.00	   11.17	-1233.54	    8.49
     58.2187	   11.00	   11.11	-1229.49	    8.49
     58.2521	   15.00	   11.07	-1225.45	    8.48
     58.2855	   10.00	   11.02	-1230.40	    8.47
     58.3189	   18.00	   10.98	-1222.36	    8.46
     58.3524	   11.00	   10.94	-1229.32	    8.46
     58.3858	   13.00	   10.90	-1227.28	    8.45
     58.4192	    9.00	   10.86	-1231.24	    8.44
     58.4526	   17.00	   10.83	-1223.21	    8.44
     58.4861	   19.00	   10.80	-1221.18	    8.43
     58.5195	   17.00	   10.76	-1223.14	    8.42
     58.5529	   17.00	   10.73	-1223.11	    8.42
     58.5863	   12.00	   10.70	-1228.08	    8.41
     58.6197	   10.00	   10.68	-1230.06	    8.40
     58.6532	   11.00	   10.65	-1229.03	    8.40
     58.6866	    7.00	   10.62	-1233.00	    8.39
     58.7200	   20.00	   10.60	-1219.98	    8.38
     58.7534	   17.00	   10.58	-1222.96	    8.38
     58.7869	   13.00	   10.55	-1226.93	    8.37
     58.8203	   11.00	   10.53	-1228.91	    8.36
     58.8537	   12.00	   10.51	-1227.89	    8.36
     58.8871	    9.00	   10.49	-1230.87	    8.35
     58.9205	    9.00	   10.47	-1230.85	    8.34
     58.9540	   18.00	   10.45	-1221.83	    8.34
     58.9874	   15.00	   10.43	-1224.81	    8.33
     59.0208	   15.00	   10.41	-1224.79	    8.32
     59.0542	   15.00	   10.39	-1224.77	    8.32
     59.0877	   12.00	   10.38	-1227.76	    8.31
     59.1211	   13.00	   10.36	-1226.74	    8.30
     59.1545	    8.00	   10.34	-1231.72	    8.30
     59.1879	   12.00	   10.33	-1227.71	    8.29
     59.2213	   11.00	   10.31	-1228.69	    8.28
     59.2548	   17.00	   10.30	-1222.68	    8.28
     59.2882	   12.00	   10.28	-1227.66	    8.27
     59.3216	    9.00	   10.27	-1230.65	    8.27
     59.3550	   16.00	   10.25	-1223.63	    8.26
     59.3885	   15.00	   10.24	-1224.62	    8.25
     59.4219	   13.00	   10.23	-1226.61	    8.25
     59.4553	   18.00	   10.21	-1221.59	    8.24
     59.4887	   10.00	   10.20	-1229.58	    8.23
     59.5222	   12.00	   10.19	-1227.57	    8.23
     59.5556	    8.00	   10.00	-1231.38	    8.22
     59.5890	   12.00	   10.00	-1227.37	    8.22
     59.6224	   13.00	    9.99	-1226.37	    8.21
     59.6558	   19.00	    9.98	-1220.36	    8.20
     59.6893	   18.00	    9.97	-1221.35	    8.20
     59.7227	    9.00	    9.88	-1230.26	    8.19
     59.7561	   19.00	    9.88	-1220.26	    8.19
     59.7895	   16.00	    9.87	-1223.25	    8.18
     59.8230	   11.00	    9.95	-1228.33	    8.17
     59.8564	   10.00	    9.94	-1229.32	    8.17
     59.8898	   15.00	    9.94	-1224.32	    8.16
     59.9232	    6.00	    9.94	-1233.32	    8.16
     59.9566	   11.00	    9.93	-1228.31	    8.15
     59.9901	    6.00	    9.97	-1233.35	    8.14
     60.0235	   15.00	    9.97	-1224.35	    8.14
     60.0569	   16.00	    9.97	-1223.35	    8.13
     60.0903	   13.00	    9.97	-1226.34	    8.13
     60.1238	    5.00	    9.96	-1234.34	    8.12
     60.1572	   16.00	    9.96	-1223.34	    8.11
     60.1906	   17.00	    9.96	-1222.34	    8.11
     60.2240	   19.00	    9.96	-1220.34	    8.10
     60.2574	   15.00	    9.96	-1224.34	    8.10
     60.2909	   11.00	    9.96	-1228.34	    8.09
     60.3243	   19.00	    9.96	-1220.33	    8.09
     60.3577	    7.00	    9.95	-1232.33	    8.08
     60.3911	   11.00	    9.95	-1228.33	    8.07
     60.4246	   10.00	    9.95	-1229.33	    8.07
     60.4580	   15.00	    9.95	-1224.33	    8.06
     60.4914	   15.00	    9.95	-1224.33	    8.06
     60.5248	   10.00	    9.95	-1229.33	    8.05
     60.5583	    8.00	    9.96	-1231.34	    8.05
     60.5917	   11.00	    9.96	-1228.34	    8.04
     60.6251	    8.00	    9.96	-1231.34	    8.04
     60.6585	   12.00	    9.96	-1227.34	    8.03
     60.6919	   13.00	    9.96	-1226.34	    8.02
     60.7254	   10.00	    9.97	-1229.35	    8.02
     60.7588	    9.00	    9.97	-1230.35	    8.01
     60.7922	   15.00	    9.97	-1224.35	    8.01
     60.8256	   21.00	    9.98	-1218.36	    8.00
     60.8591	   12.00	    9.98	-1227.36	    8.00
     60.8925	    9.00	    9.99	-1230.37	    7.99
     60.9259	   11.00	    9.99	-1228.37	    7.99
     60.9593	    8.00	   10.00	-1231.38	    7.98
     60.9927	    6.00	   10.01	-1233.39	    7.98
     61.0262	   10.00	   10.01	-1229.39	    7.97
     61.0596	   18.00	   10.02	-1221.40	    7.97
     61.0930	   10.00	   10.11	-1229.49	    7.96
     61.1264	    9.00	   10.12	-1230.50	    7.96
     61.1599	    8.00	   10.14	-1231.52	    7.95
     61.1933	    5.00	   10.15	-1234.53	    7.95
     61.2267	    8.00	   10.17	-1231.55	    7.94
     61.2601	   12.00	   10.22	-1227.60	    7.94
     61.2935	    8.00	   10.24	-1231.62	    7.93
     61.3270	   10.00	   10.26	-1229.64	    7.92
     61.3604	   12.00	   10.28	-1227.66	    7.92
     61.3938	   13.00	   10.31	-1226.69	    7.91
     61.4272	    9.00	   10.33	-1230.71	    7.91
     61.4607	   19.00	   10.36	-1220.74	    7.90
     61.4941	    3.00	   10.40	-1236.78	    7.90
     61.5275	   11.00	   10.43	-1228.81	    7.89
     61.5609	   12.00	   10.47	-1227.85	    7.89
     61.5943	    8.00	   10.51	-1231.89	    7.89
     61.6278	   12.00	   10.55	-1227.93	    7.88
     61.6612	   15.00	   10.60	-1224.98	    7.88
     61.6946	    9.00	   10.66	-1231.04	    7.87
     61.7280	   17.00	   10.72	-1223.10	    7.87
     61.7615	   12.00	   10.79	-1228.17	    7.86
     61.7949	   15.00	   10.87	-1225.25	    7.86
     61.8283	   11.00	   10.96	-1229.34	    7.85
     61.8617	   11.00	   11.06	-1229.44	    7.85
     61.8952	   11.00	   11.18	-1229.56	    7.84
     61.9286	   21.00	   11.32	-1219.70	    7.84
     61.9620	   18.00	   11.49	-1222.87	    7.83
     61.9954	   19.00	   11.73	-1222.11	    7.83
     62.0288	   16.00	   12.11	-1225.49	    7.82
     62.0623	   16.00	   12.76	-1226.14	    7.82
     62.0957	   12.00	   13.79	-1231.17	    7.81
     62.1291	   19.00	   14.92	-1225.30	    7.81
     62.1625	   13.00	   15.21	-1231.59	    7.80
     62.1960	   23.00	   14.70	-1221.08	    7.80
     62.2294	   21.00	   14.44	-1222.82	    7.80
     62.2628	   20.00	   14.76	-1224.14	    7.79
     62.2962	   12.00	   15.47	-1232.85	    7.79
     62.3296	   20.00	   15.99	-1225.37	    7.78
     62.3631	   20.00	   16.21	-1225.59	    7.78
     62.3965	   13.00	   16.64	-1233.02	    7.77
     62.4299	   10.00	   17.50	-1236.88	    7.77
     62.4633	   24.00	   18.83	-1224.21	    7.76
     62.4968	   26.00	   20.71	-1224.09	    7.76
     62.5302	   28.00	   23.38	-1224.76	    7.76
     62.5636	   15.00	   27.27	-1241.65	    7.75
     62.5970	   31.00	   33.46	-1231.84	    7.75
     62.6304	   34.00	   44.72	-1240.10	    7.74
     62.6639	   72.00	   67.53	-1224.91	    7.74
     62.6973	  114.00	  112.72	-1228.10	    7.73
     62.7307	  160.00	  186.74	-1256.12	    7.73
     62.7641	  249.00	  270.34	-1250.72	    7.73
     62.7976	  270.00	  286.31	-1245.69	    7.72
     62.8310	  194.00	  217.54	-1252.92	    7.72
     62.8644	  155.00	  157.83	-1232.21	    7.71
     62.8978	  127.00	  143.75	-1246.12	    7.71
     62.9313	  171.00	  161.54	-1219.92	    7.70
     62.9647	  147.00	  163.90	-1246.28	    7.70
     62.9981	  110.00	  122.92	-1242.29	    7.70
     63.0315	   90.00	   78.07	-1217.45	    7.69
     63.0649	   51.00	   49.49	-1227.87	    7.69
     63.0984	   38.00	   34.77	-1226.15	    7.68
     63.1318	   32.00	   27.50	-1224.88	    7.68
     63.1652	   23.00	   23.46	-1229.84	    7.68
     63.1986	   31.00	   20.87	-1219.25	    7.67
     63.2321	   23.00	   19.07	-1225.45	    7.67
     63.2655	   18.00	   17.77	-1229.15	    7.66
     63.2989	   17.00	   16.82	-1229.20	    7.66
     63.3323	   23.00	   16.12	-1222.50	    7.66
     63.3657	   19.00	   15.60	-1225.98	    7.65
     63.3992	   17.00	   15.23	-1227.61	    7.65
     63.4326	   22.00	   14.98	-1222.36	    7.64
     63.4660	   13.00	   14.84	-1231.22	    7.64
     63.4994	   11.00	   14.80	-1233.18	    7.64
     63.5329	   18.00	   14.85	-1226.23	    7.63
     63.5663	   21.00	   15.01	-1223.39	    7.63
     63.5997	   25.00	   15.27	-1219.65	    7.62
     63.6331	   12.00	   15.66	-1233.04	    7.62
     63.6665	   17.00	   16.20	-1228.58	    7.62
     63.7000	   25.00	   16.94	-1221.32	    7.61
     63.7334	   24.00	   17.94	-1223.32	    7.61
     63.7668	   22.00	   19.31	-1226.69	    7.61
     63.8002	   33.00	   21.19	-1217.57	    7.60
     63.8337	   32.00	   23.86	-1221.24	    7.60
     63.8671	   32.00	   27.84	-1225.22	    7.59
     63.9005	   36.00	   34.36	-1227.74	    7.59
     63.9339	   69.00	   46.92	-1207.30	    7.59
     63.9674	   78.00	   73.56	-1224.94	    7.58
     64.0008	  138.00	  125.86	-1217.24	    7.58
     64.0342	  205.00	  205.94	-1230.32	    7.58
     64.0676	  261.00	  269.95	-1238.33	    7.57
     64.1010	  244.00	  241.19	-1226.57	    7.57
     64.1345	  186.00	  170.13	-1213.51	    7.57
     64.1679	  130.00	  129.83	-1229.21	    7.56
     64.2013	  119.00	  132.32	-1242.70	    7.56
     64.2347	  151.00	  153.82	-1232.20	    7.56
     64.2682	  153.00	  143.51	-1219.89	    7.55
     64.3016	   96.00	  100.47	-1233.85	    7.55
     64.3350	   67.00	   63.00	-1225.38	    7.55
     64.3684	   56.00	   40.90	-1214.28	    7.54
     64.4018	   33.00	   29.81	-1226.19	    7.54
     64.4353	   35.00	   24.15	-1218.53	    7.53
     64.4687	   25.00	   20.83	-1225.21	    7.53
     64.5021	   20.00	   18.60	-1227.98	    7.53
     64.5355	   22.00	   17.00	-1224.38	    7.52
     64.5690	   12.00	   15.79	-1233.17	    7.52
     64.6024	   20.00	   14.87	-1224.25	    7.52
     64.6358	   13.00	   14.14	-1230.52	    7.51
     64.6692	   12.00	   13.55	-1230.93	    7.51
     64.7026	   13.00	   13.08	-1229.46	    7.51
     64.7361	   16.00	   12.68	-1226.06	    7.51
     64.7695	   16.00	   12.35	-1225.73	    7.50
     64.8029	   10.00	   12.08	-1231.46	    7.50
     64.8363	    7.00	   11.84	-1234.22	    7.50
     64.8698	   10.00	   11.64	-1231.02	    7.49
     64.9032	   13.00	   11.48	-1227.86	    7.49
     64.9366	   11.00	   11.33	-1229.71	    7.49
     64.9700	   13.00	   11.21	-1227.59	    7.48
     65.0034	    6.00	   11.11	-1234.49	    7.48
     65.0369	   24.00	   11.03	-1216.41	    7.48
     65.0703	   15.00	   10.97	-1225.35	    7.47
     65.1037	    8.00	   10.93	-1232.31	    7.47
     65.1371	   22.00	   10.91	-1218.29	    7.47
     65.1706	   15.00	   10.92	-1225.30	    7.46
     65.2040	   16.00	   10.96	-1224.34	    7.46
     65.2374	   13.00	   11.04	-1227.42	    7.46
     65.2708	   16.00	   11.17	-1224.55	    7.46
     65.3042	   21.00	   11.39	-1219.77	    7.45
     65.3377	   18.00	   11.74	-1223.12	    7.45
     65.3711	   10.00	   12.39	-1231.77	    7.45
     65.4045	   18.00	   13.72	-1225.10	    7.44
     65.4379	   23.00	   16.56	-1222.94	    7.44
     65.4714	   34.00	   21.86	-1217.24	    7.44
     65.5048	   34.00	   29.13	-1224.51	    7.43
     65.5382	   30.00	   33.04	-1232.42	    7.43
     65.5716	   34.00	   28.68	-1224.06	    7.43
     65.6051	   24.00	   22.63	-1228.01	    7.43
     65.6385	   11.00	   19.84	-1238.22	    7.42
     65.6719	   24.00	   20.59	-1225.97	    7.42
     65.7053	   19.00	   22.46	-1232.84	    7.42
     65.7387	   17.00	   21.16	-1233.54	    7.41
     65.7722	   24.00	   17.23	-1222.61	    7.41
     65.8056	   17.00	   14.03	-1226.41	    7.41
     65.8390	   13.00	   12.16	-1228.54	    7.41
     65.8724	   15.00	   11.22	-1225.60	    7.40
     65.9059	   15.00	   10.72	-1225.10	    7.40
     65.9393	   15.00	   10.38	-1224.76	    7.40
     65.9727	   12.00	   10.38	-1227.76	    7.40
     66.0061	    9.00	   10.24	-1230.62	    7.39
     66.0396	   10.00	   10.12	-1229.50	    7.39
     66.0730	   19.00	   10.04	-1220.42	    7.39
     66.1064	   11.00	    9.97	-1228.35	    7.38
     66.1398	   12.00	    9.91	-1227.29	    7.38
     66.1732	   19.00	    9.96	-1220.34	    7.38
     66.2067	   10.00	    9.93	-1229.31	    7.38
     66.2401	   12.00	    9.90	-1227.28	    7.37
     66.2735	   16.00	    9.87	-1223.25	    7.37
     66.3069	   11.00	    9.85	-1228.23	    7.37
     66.3403	   10.00	    9.83	-1229.21	    7.37
     66.3738	   10.00	    9.82	-1229.20	    7.36
     66.4072	   12.00	    9.80	-1227.18	    7.36
     66.4406	    8.00	    9.79	-1231.17	    7.36
     66.4740	   13.00	    9.79	-1226.17	    7.36
     66.5075	   13.00	    9.78	-1226.16	    7.35
     66.5409	   18.00	    9.78	-1221.16	    7.35
     66.5743	   15.00	    9.77	-1224.15	    7.35
     66.6077	   13.00	    9.77	-1226.15	    7.35
     66.6412	   11.00	    9.77	-1228.15	    7.34
     66.6746	   12.00	    9.77	-1227.15	    7.34
     66.7080	   11.00	    9.77	-1228.15	    7.34
     66.7414	   17.00	    9.88	-1222.26	    7.34
     66.7748	    8.00	    9.88	-1231.26	    7.33
     66.8083	   18.00	    9.89	-1221.27	    7.33
     66.8417	    8.00	    9.90	-1231.28	    7.33
     66.8751	   13.00	    9.91	-1226.29	    7.33
     66.9085	   12.00	    9.92	-1227.30	    7.33
     66.9420	   18.00	    9.99	-1221.36	    7.32
     66.9754	    9.00	   10.00	-1230.38	    7.32
     67.0088	   19.00	   10.02	-1220.40	    7.32
     67.0422	    9.00	   10.04	-1230.42	    7.32
     67.0756	   18.00	    9.98	-1221.36	    7.31
     67.1091	   13.00	   10.00	-1226.38	    7.31
     67.1425	   17.00	   10.03	-1222.41	    7.31
     67.1759	   15.00	   10.05	-1224.43	    7.31
     67.2093	    9.00	   10.08	-1230.46	    7.31
     67.2428	   13.00	   10.12	-1226.50	    7.30
     67.2762	   21.00	   10.11	-1218.49	    7.30
     67.3096	    9.00	   10.15	-1230.53	    7.30
     67.3430	   15.00	   10.18	-1224.56	    7.30
     67.3764	   13.00	   10.22	-1226.60	    7.29
     67.4099	   20.00	   10.27	-1219.65	    7.29
     67.4433	   20.00	   10.31	-1219.69	    7.29
     67.4767	   11.00	   10.36	-1228.74	    7.29
     67.5101	    8.00	   10.41	-1231.79	    7.29
     67.5436	   12.00	   10.47	-1227.85	    7.28
     67.5770	   15.00	   10.53	-1224.91	    7.28
     67.6104	   17.00	   10.59	-1222.97	    7.28
     67.6438	    9.00	   10.66	-1231.04	    7.28
     67.6772	   17.00	   10.73	-1223.11	    7.28
     67.7107	   18.00	   10.81	-1222.19	    7.27
     67.7441	    9.00	   10.90	-1231.28	    7.27
     67.7775	   18.00	   10.99	-1222.37	    7.27
     67.8109	   13.00	   11.09	-1227.47	    7.27
     67.8444	   13.00	   11.19	-1227.57	    7.27
     67.8778	    9.00	   11.31	-1231.69	    7.26
     67.9112	    8.00	   11.44	-1232.82	    7.26
     67.9446	   10.00	   11.57	-1230.95	    7.26
     67.9781	   17.00	   11.72	-1224.10	    7.26
     68.0115	   10.00	   11.89	-1231.27	    7.26
     68.0449	   17.00	   12.06	-1224.44	    7.25
     68.0783	   18.00	   12.26	-1223.64	    7.25
     68.1117	   20.00	   12.48	-1221.86	    7.25
     68.1452	   20.00	   12.72	-1222.10	    7.25
     68.1786	   16.00	   12.99	-1226.37	    7.25
     68.2120	   17.00	   13.29	-1225.67	    7.25
     68.2454	   15.00	   13.63	-1228.01	    7.24
     68.2789	   15.00	   14.01	-1228.39	    7.24
     68.3123	   17.00	   14.44	-1226.82	    7.24
     68.3457	   12.00	   14.93	-1232.31	    7.24
     68.3791	   25.00	   15.49	-1219.87	    7.24
     68.4125	   17.00	   16.14	-1228.52	    7.23
     68.4460	   18.00	   16.90	-1228.28	    7.23
     68.4794	   19.00	   17.80	-1228.17	    7.23
     68.5128	   18.00	   18.86	-1230.24	    7.23
     68.5462	   21.00	   20.13	-1228.51	    7.23
     68.5797	   23.00	   21.68	-1228.06	    7.23
     68.6131	   39.00	   23.62	-1214.00	    7.22
     68.6465	   41.00	   26.12	-1214.50	    7.22
     68.6799	   35.00	   29.47	-1223.85	    7.22
     68.7133	   36.00	   34.16	-1227.54	    7.22
     68.7468	   49.00	   40.71	-1221.09	    7.22
     68.7802	   73.00	   49.25	-1205.63	    7.22
     68.8136	   64.00	   59.23	-1224.61	    7.21
     68.8470	   81.00	   73.28	-1221.66	    7.21
     68.8805	   87.00	  100.55	-1242.93	    7.21
     68.9139	  162.00	  158.78	-1226.16	    7.21
     68.9473	  272.00	  274.31	-1231.69	    7.21
     68.9807	  450.00	  459.80	-1239.18	    7.21
     69.0142	  586.00	  645.72	-1289.10	    7.20
     69.0476	  602.00	  638.63	-1266.01	    7.20
     69.0810	  450.00	  463.80	-1243.18	    7.20
     69.1144	  320.00	  321.48	-1230.86	    7.20
     69.1478	  281.00	  279.21	-1227.59	    7.20
     69.1813	  298.00	  322.12	-1253.50	    7.20
     69.2147	  382.00	  375.58	-1222.96	    7.20
     69.2481	  324.00	  330.56	-1235.94	    7.19
     69.2815	  224.00	  223.95	-1229.33	    7.19
     69.3150	  139.00	  138.36	-1228.74	    7.19
     69.3484	  107.00	   88.73	-1211.11	    7.19
     69.3818	   63.00	   63.84	-1230.22	    7.19
     69.4152	   50.00	   51.36	-1230.74	    7.19
     69.4486	   50.00	   44.47	-1223.84	    7.19
     69.4821	   39.00	   40.45	-1230.83	    7.18
     69.5155	   47.00	   38.36	-1220.74	    7.18
     69.5489	   47.00	   37.85	-1220.23	    7.18
     69.5823	   49.00	   38.94	-1219.32	    7.18
     69.6158	   43.00	   42.07	-1228.45	    7.18
     69.6492	   46.00	   48.61	-1231.99	    7.18
     69.6826	   75.00	   62.43	-1216.80	    7.18
     69.7160	   77.00	   92.27	-1244.65	    7.17
     69.7495	  150.00	  150.57	-1229.95	    7.17
     69.7829	  257.00	  240.82	-1213.20	    7.17
     69.8163	  360.00	  321.91	-1191.29	    7.17
     69.8497	  324.00	  303.71	-1209.09	    7.17
     69.8831	  210.00	  218.26	-1237.64	    7.17
     69.9166	  154.00	  154.86	-1230.24	    7.17
     69.9500	  134.00	  138.78	-1234.16	    7.16
     69.9834	  159.00	  161.07	-1231.45	    7.16
     70.0168	  183.00	  185.33	-1231.71	    7.16
     70.0502	  179.00	  161.87	-1212.25	    7.16
     70.0837	  102.00	  111.07	-1238.45	    7.16
     70.1171	   78.00	   70.76	-1222.14	    7.16
     70.1505	   50.00	   47.36	-1226.74	    7.16
     70.1839	   36.00	   35.60	-1228.98	    7.16
     70.2174	   31.00	   29.91	-1228.29	    7.15
     70.2508	   31.00	   27.37	-1225.74	    7.15
     70.2842	   31.00	   26.67	-1225.05	    7.15
     70.3176	   27.00	   26.23	-1228.61	    7.15
     70.3511	   19.00	   24.04	-1234.42	    7.15
     70.3845	   18.00	   21.05	-1232.43	    7.15
     70.4179	   23.00	   18.89	-1225.27	    7.15
     70.4513	   27.00	   17.90	-1220.28	    7.15
     70.4847	   17.00	   17.79	-1230.17	    7.15
     70.5182	   16.00	   17.72	-1231.10	    7.14
     70.5516	   12.00	   16.68	-1234.06	    7.14
     70.5850	   16.00	   15.22	-1228.60	    7.14
     70.6184	   21.00	   14.06	-1222.44	    7.14
     70.6519	   15.00	   13.29	-1227.67	    7.14
     70.6853	   21.00	   12.79	-1221.17	    7.14
     70.7187	   18.00	   12.43	-1223.81	    7.14
     70.7521	   12.00	   12.14	-1229.52	    7.14
     70.7855	   17.00	   11.90	-1224.28	    7.14
     70.8190	   22.00	   11.69	-1219.07	    7.13
     70.8524	   11.00	   11.51	-1229.89	    7.13
     70.8858	   11.00	   11.35	-1229.73	    7.13
     70.9192	   11.00	   11.21	-1229.59	    7.13
     70.9527	   11.00	   11.08	-1229.46	    7.13
     70.9861	   21.00	   10.96	-1219.34	    7.13
     71.0195	   10.00	   10.86	-1230.24	    7.13
     71.0529	   12.00	   10.76	-1228.14	    7.13
     71.0863	    7.00	   10.67	-1233.05	    7.13
     71.1198	   18.00	   10.59	-1221.97	    7.13
     71.1532	   16.00	   10.52	-1223.90	    7.12
     71.1866	   17.00	   10.45	-1222.83	    7.12
     71.2200	   17.00	   10.39	-1222.77	    7.12
     71.2535	   17.00	   10.33	-1222.71	    7.12
     71.2869	   12.00	   10.28	-1227.66	    7.12
     71.3203	   16.00	   10.23	-1223.61	    7.12
     71.3537	   22.00	   10.18	-1217.56	    7.12
     71.3872	   19.00	   10.14	-1220.52	    7.12
     71.4206	   10.00	   10.10	-1229.48	    7.12
     71.4540	   12.00	   10.07	-1227.45	    7.12
     71.4874	   11.00	   10.04	-1228.42	    7.12
     71.5208	   15.00	   10.01	-1224.39	    7.11
     71.5543	   22.00	    9.98	-1217.36	    7.11
     71.5877	   17.00	    9.96	-1222.34	    7.11
     71.6211	   19.00	    9.94	-1220.32	    7.11
     71.6545	    9.00	    9.93	-1230.31	    7.11
     71.6880	   10.00	    9.92	-1229.30	    7.11
     71.7214	   13.00	    9.91	-1226.29	    7.11
     71.7548	   10.00	    9.91	-1229.29	    7.11
     71.7882	    9.00	    9.91	-1230.29	    7.11
     71.8216	   15.00	    9.92	-1224.30	    7.11
     71.8551	   16.00	    9.93	-1223.31	    7.11
     71.8885	   23.00	    9.95	-1216.33	    7.11
     71.9219	   15.00	    9.99	-1224.37	    7.10
     71.9553	    4.00	   10.03	-1235.41	    7.10
     71.9888	   13.00	   10.08	-1226.46	    7.10
     72.0222	   13.00	   10.16	-1226.54	    7.10
     72.0556	   11.00	   10.25	-1228.63	    7.10
     72.0890	   11.00	   10.38	-1228.76	    7.10
     72.1225	   13.00	   10.36	-1226.74	    7.10
     72.1559	   12.00	   10.60	-1227.98	    7.10
     72.1893	   10.00	   10.93	-1230.31	    7.10
     72.2227	   15.00	   11.42	-1225.80	    7.10
     72.2561	   11.00	   12.19	-1230.57	    7.10
     72.2896	   16.00	   13.61	-1226.99	    7.10
     72.3230	   17.00	   16.38	-1228.76	    7.10
     72.3564	   27.00	   21.95	-1224.33	    7.09
     72.3898	   32.00	   30.99	-1228.37	    7.09
     72.4232	   41.00	   40.72	-1229.10	    7.09
     72.4567	   48.00	   41.94	-1223.32	    7.09
     72.4901	   41.00	   33.59	-1221.97	    7.09
     72.5235	   24.00	   25.51	-1230.89	    7.09
     72.5569	   28.00	   21.99	-1223.37	    7.09
     72.5904	   22.00	   23.02	-1230.40	    7.09
     72.6238	   32.00	   26.44	-1223.82	    7.09
     72.6572	   27.00	   27.16	-1229.54	    7.09
     72.6906	   25.00	   22.75	-1227.13	    7.09
     72.7241	   25.00	   17.59	-1221.97	    7.09
     72.7575	   13.00	   14.09	-1230.47	    7.09
     72.7909	   15.00	   12.16	-1226.54	    7.09
     72.8243	   13.00	   11.17	-1227.55	    7.09
     72.8577	    3.00	   10.63	-1237.01	    7.09
     72.8912	    9.00	   10.28	-1230.66	    7.08
     72.9246	   20.00	    9.94	-1219.32	    7.08
     72.9580	   13.00	    9.76	-1226.14	    7.08
     72.9914	   10.00	    9.62	-1229.00	    7.08
     73.0249	   15.00	    9.51	-1223.89	    7.08
     73.0583	   21.00	    9.42	-1217.80	    7.08
     73.0917	   15.00	    9.35	-1223.73	    7.08
     73.1251	   18.00	    9.25	-1220.63	    7.08
     73.1585	   13.00	    9.20	-1225.58	    7.08
     73.1920	   10.00	    9.16	-1228.54	    7.08
     73.2254	   13.00	    9.13	-1225.51	    7.08
     73.2588	    7.00	    9.10	-1231.48	    7.08
     73.2922	   12.00	    9.08	-1226.46	    7.08
     73.3257	    3.00	    9.06	-1235.44	    7.08
     73.3591	    9.00	    9.06	-1229.44	    7.08
     73.3925	   12.00	    9.04	-1226.42	    7.08
     73.4259	   11.00	    9.03	-1227.41	    7.08
     73.4594	    9.00	    9.02	-1229.40	    7.08
     73.4928	    5.00	    9.01	-1233.39	    7.07
     73.5262	   11.00	    9.00	-1227.38	    7.07
     73.5596	    7.00	    9.01	-1231.39	    7.07
     73.5930	    6.00	    9.00	-1232.38	    7.07
     73.6265	    5.00	    9.00	-1233.38	    7.07
     73.6599	   15.00	    9.00	-1223.38	    7.07
     73.6933	    9.00	    9.00	-1229.38	    7.07
     73.7267	    5.00	    9.00	-1233.38	    7.07
     73.7601	   20.00	    9.00	-1218.38	    7.07
     73.7936	   21.00	    9.01	-1217.39	    7.07
     73.8270	   10.00	    9.02	-1228.40	    7.07
     73.8604	    5.00	    9.03	-1233.41	    7.07
     73.8938	    6.00	    9.05	-1232.43	    7.07
     73.9273	    9.00	    9.08	-1229.46	    7.07
     73.9607	    4.00	    9.12	-1234.50	    7.07
     73.9941	   13.00	    9.20	-1225.58	    7.07
     74.0275	    8.00	    9.33	-1230.71	    7.07
     74.0610	    8.00	    9.51	-1230.89	    7.07
     74.0944	    7.00	    9.65	-1232.03	    7.07
     74.1278	   13.00	    9.63	-1226.01	    7.07
     74.1612	   15.00	    9.57	-1223.95	    7.07
     74.1946	   11.00	    9.58	-1227.96	    7.07
     74.2281	   10.00	    9.71	-1229.09	    7.07
     74.2615	   18.00	   10.01	-1221.39	    7.06
     74.2949	    8.00	   10.58	-1231.96	    7.06
     74.3283	   13.00	   11.59	-1227.97	    7.06
     74.3618	   12.00	   13.25	-1230.63	    7.06
     74.3952	   10.00	   15.33	-1234.71	    7.06
     74.4286	   17.00	   16.22	-1228.60	    7.06
     74.4620	   16.00	   14.81	-1228.19	    7.06
     74.4955	   15.00	   12.91	-1227.29	    7.06
     74.5289	    7.00	   11.83	-1234.21	    7.06
     74.5623	   12.00	   11.72	-1229.10	    7.06
     74.5957	   13.00	   12.35	-1228.73	    7.06
     74.6291	    9.00	   12.98	-1233.36	    7.06
     74.6626	   11.00	   12.57	-1230.95	    7.06
     74.6960	    8.00	   11.49	-1232.87	    7.06
     74.7294	    7.00	   10.60	-1232.98	    7.06
     74.7628	   13.00	   10.09	-1226.47	    7.06
     74.7962	    8.00	    9.87	-1231.25	    7.06
     74.8297	    7.00	    9.81	-1232.19	    7.06
     74.8631	   11.00	    9.87	-1228.25	    7.06
     74.8965	   13.00	   10.04	-1226.42	    7.06
     74.9299	    6.00	   10.41	-1233.79	    7.06
     74.9634	   10.00	   11.19	-1230.57	    7.06
     74.9968	   18.00	   12.74	-1224.12	    7.06
     75.0302	   19.00	   15.27	-1225.65	    7.06
     75.0636	   10.00	   18.11	-1237.49	    7.06
     75.0971	   22.00	   18.76	-1226.14	    7.06
     75.1305	   17.00	   16.49	-1228.87	    7.06
     75.1639	   15.00	   14.01	-1228.39	    7.06
     75.1973	   11.00	   12.72	-1231.10	    7.06
     75.2307	   16.00	   12.74	-1226.12	    7.06
     75.2642	   21.00	   13.67	-1222.05	    7.06
     75.2976	    9.00	   14.41	-1234.79	    7.06
     75.3310	   17.00	   13.66	-1226.04	    7.05
     75.3644	   17.00	   12.13	-1224.51	    7.05
     75.3979	    8.00	   10.91	-1232.29	    7.05
     75.4313	    9.00	   10.19	-1230.57	    7.05
     75.4647	   13.00	    9.81	-1226.19	    7.05
     75.4981	   11.00	    9.62	-1228.00	    7.05
     75.5315	    9.00	    9.51	-1229.89	    7.05
     75.5650	    5.00	    9.45	-1233.83	    7.05
     75.5984	   11.00	    9.40	-1227.78	    7.05
     75.6318	    8.00	    9.38	-1230.76	    7.05
     75.6652	   13.00	    9.37	-1225.75	    7.05
     75.6987	    6.00	    9.37	-1232.75	    7.05
     75.7321	    6.00	    9.39	-1232.77	    7.05
     75.7655	    4.00	    9.42	-1234.80	    7.05
     75.7989	    7.00	    9.45	-1231.83	    7.05
     75.8324	    5.00	    9.51	-1233.89	    7.05
     75.8658	    8.00	    9.59	-1230.97	    7.05
     75.8992	    6.00	    9.72	-1233.10	    7.05
     75.9326	    9.00	    9.93	-1230.31	    7.05
     75.9660	   10.00	   10.31	-1229.69	    7.05
     75.9995	   10.00	   10.94	-1230.32	    7.05
     76.0329	   12.00	   11.80	-1229.18	    7.05
     76.0663	   12.00	   12.42	-1229.80	    7.05
     76.0997	   22.00	   12.22	-1219.60	    7.05
     76.1331	   15.00	   11.68	-1226.06	    7.05
     76.1666	   19.00	   11.38	-1221.76	    7.05
     76.2000	    9.00	   11.49	-1231.87	    7.05
     76.2334	   16.00	   11.97	-1225.35	    7.05
     76.2668	   10.00	   12.68	-1232.06	    7.05
     76.3003	   12.00	   13.32	-1230.70	    7.05
     76.3337	    9.00	   13.85	-1234.23	    7.05
     76.3671	   12.00	   14.79	-1232.17	    7.05
     76.4005	   16.00	   16.88	-1230.26	    7.05
     76.4340	   20.00	   21.34	-1230.72	    7.05
     76.4674	   34.00	   30.16	-1225.54	    7.05
     76.5008	   56.00	   44.88	-1218.26	    7.05
     76.5342	   60.00	   62.63	-1232.01	    7.05
     76.5676	   69.00	   69.66	-1230.04	    7.05
     76.6011	   55.00	   57.68	-1232.06	    7.05
     76.6345	   41.00	   41.76	-1230.14	    7.05
     76.6679	   31.00	   32.21	-1230.59	    7.05
     76.7013	   35.00	   30.57	-1224.95	    7.05
     76.7348	   35.00	   35.19	-1229.57	    7.05
     76.7682	   52.00	   41.23	-1218.61	    7.05
     76.8016	   52.00	   39.91	-1217.29	    7.05
     76.8350	   34.00	   31.19	-1226.57	    7.05
     76.8684	   21.00	   22.72	-1231.10	    7.05
     76.9019	   13.00	   17.20	-1233.58	    7.05
     76.9353	   12.00	   14.19	-1231.57	    7.05
     76.9687	    9.00	   12.61	-1232.99	    7.05
     77.0021	    8.00	   11.71	-1233.09	    7.04
     77.0356	   16.00	   11.13	-1224.51	    7.04
     77.0690	    6.00	   10.71	-1234.09	    7.04
     77.1024	   16.00	   10.40	-1223.78	    7.04
     77.1358	    8.00	   10.16	-1231.54	    7.04
     77.1693	   11.00	    9.97	-1228.35	    7.04
     77.2027	   11.00	    9.82	-1228.20	    7.04
     77.2361	   12.00	    9.70	-1227.08	    7.04
     77.2695	    3.00	    9.60	-1235.98	    7.04
     77.3029	    6.00	    9.51	-1232.89	    7.04
     77.3364	    3.00	    9.44	-1235.82	    7.04
     77.3698	    8.00	    9.37	-1230.75	    7.04
     77.4032	   13.00	    9.32	-1225.70	    7.04
     77.4366	    8.00	    9.27	-1230.65	    7.04
     77.4701	   15.00	    9.23	-1223.61	    7.04
     77.5035	    5.00	    9.20	-1233.58	    7.04
     77.5369	    7.00	    9.17	-1231.55	    7.04
     77.5703	   10.00	    9.14	-1228.52	    7.04
     77.6037	    7.00	    9.12	-1231.49	    7.04
     77.6372	    7.00	    9.09	-1231.47	    7.04
     77.6706	   13.00	    9.07	-1225.45	    7.04
     77.7040	    7.00	    9.05	-1231.43	    7.04
     77.7374	    8.00	    9.04	-1230.42	    7.04
     77.7709	   12.00	    9.02	-1226.40	    7.04
     77.8043	    7.00	    9.01	-1231.39	    7.04
     77.8377	    5.00	    9.00	-1233.38	    7.04
     77.8711	   13.00	    8.99	-1225.37	    7.04
     77.9045	    8.00	    8.98	-1230.36	    7.04
     77.9380	   10.00	    8.97	-1228.35	    7.04
     77.9714	   10.00	    8.96	-1228.34	    7.04
     78.0048	    8.00	    8.95	-1230.33	    7.04
     78.0382	    7.00	    8.95	-1231.33	    7.04
     78.0717	    7.00	    8.94	-1231.32	    7.04
     78.1051	    9.00	    8.94	-1229.32	    7.04
     78.1385	   11.00	    8.93	-1227.31	    7.04
     78.1719	    6.00	    8.93	-1232.31	    7.04
     78.2054	    8.00	    8.93	-1230.31	    7.04
     78.2388	   11.00	    8.92	-1227.30	    7.04
     78.2722	    9.00	    8.92	-1229.30	    7.04
     78.3056	   11.00	    8.92	-1227.30	    7.04
     78.3390	   15.00	    8.92	-1223.30	    7.04
     78.3725	    9.00	    8.92	-1229.29	    7.04
     78.4059	    8.00	    8.91	-1230.29	    7.04
     78.4393	    6.00	    8.92	-1232.30	    7.04
     78.4727	    7.00	    8.92	-1231.30	    7.04
     78.5061	    8.00	    8.92	-1230.30	    7.04
     78.5396	    7.00	    8.92	-1231.30	    7.04
     78.5730	   13.00	    8.92	-1225.30	    7.04
     78.6064	   10.00	    8.92	-1228.30	    7.04
     78.6398	   10.00	    8.93	-1228.31	    7.04
     78.6733	    8.00	    8.93	-1230.31	    7.04
     78.7067	   11.00	    8.94	-1227.32	    7.04
     78.7401	    3.00	    8.94	-1235.32	    7.04
     78.7735	    8.00	    8.95	-1230.33	    7.04
     78.8070	    9.00	    8.95	-1229.33	    7.04
     78.8404	    9.00	    8.96	-1229.34	    7.04
     78.8738	    4.00	    8.97	-1234.35	    7.04
     78.9072	   18.00	    8.98	-1220.36	    7.04
     78.9406	   10.00	    9.00	-1228.38	    7.04
     78.9741	    7.00	    9.01	-1231.39	    7.04
     79.0075	    6.00	    9.06	-1232.44	    7.04
     79.0409	    5.00	    9.08	-1233.46	    7.04
     79.0743	   15.00	    9.10	-1223.48	    7.04
     79.1078	    7.00	    9.13	-1231.51	    7.04
     79.1412	   11.00	    9.15	-1227.53	    7.04
     79.1746	    9.00	    9.18	-1229.56	    7.04
     79.2080	    8.00	    9.22	-1230.60	    7.04
     79.2414	   10.00	    9.28	-1228.66	    7.04
     79.2749	   10.00	    9.33	-1228.71	    7.04
     79.3083	   13.00	    9.39	-1225.77	    7.03
     79.3417	   18.00	    9.46	-1220.84	    7.03
     79.3751	   13.00	    9.55	-1225.92	    7.03
     79.4086	   11.00	    9.65	-1228.03	    7.03
     79.4420	    8.00	    9.77	-1231.15	    7.03
     79.4754	    5.00	    9.93	-1234.31	    7.03
     79.5088	   16.00	   10.13	-1223.51	    7.03
     79.5423	    7.00	   10.39	-1232.77	    7.03
     79.5757	   13.00	   10.74	-1227.12	    7.03
     79.6091	   20.00	   11.23	-1220.61	    7.03
     79.6425	    8.00	   11.96	-1233.34	    7.03
     79.6759	    8.00	   13.16	-1234.54	    7.03
     79.7094	   15.00	   15.41	-1229.79	    7.03
     79.7428	   21.00	   19.79	-1228.17	    7.03
     79.7762	   15.00	   27.50	-1241.88	    7.03
     79.8096	   45.00	   38.37	-1222.75	    7.03
     79.8430	   40.00	   47.30	-1236.68	    7.03
     79.8765	   38.00	   44.96	-1236.34	    7.03
     79.9099	   33.00	   34.84	-1231.22	    7.03
     79.9433	   25.00	   26.23	-1230.61	    7.03
     79.9767	   20.00	   22.16	-1231.54	    7.03
     80.0102	   27.00	   22.56	-1224.94	    7.03
     80.0436	   19.00	   26.16	-1236.54	    7.03
     80.0770	   30.00	   29.77	-1229.15	    7.03
     80.1104	   30.00	   28.27	-1227.65	    7.03
     80.1439	   30.00	   22.68	-1222.06	    7.03
     80.1773	   16.00	   17.51	-1230.89	    7.03
     80.2107	   12.00	   14.15	-1231.53	    7.03
     80.2441	    8.00	   12.30	-1233.68	    7.03
     80.2775	   16.00	   11.32	-1224.70	    7.03
     80.3110	    9.00	   10.75	-1231.13	    7.03
     80.3444	   10.00	   10.39	-1229.77	    7.03
     80.3778	   10.00	   10.13	-1229.51	    7.03
     80.4112	   10.00	    9.94	-1229.32	    7.03
     80.4447	    8.00	    9.79	-1231.17	    7.03
     80.4781	    5.00	    9.68	-1234.06	    7.03
     80.5115	    7.00	    9.59	-1231.97	    7.03
     80.5449	   19.00	    9.52	-1219.90	    7.03
     80.5784	    9.00	    9.47	-1229.85	    7.03
     80.6118	    9.00	    9.43	-1229.81	    7.03
     80.6452	   15.00	    9.42	-1223.80	    7.03
     80.6786	    5.00	    9.44	-1233.82	    7.03
     80.7120	    8.00	    9.50	-1230.88	    7.03
     80.7455	    9.00	    9.60	-1229.98	    7.03
     80.7789	   15.00	    9.67	-1224.05	    7.03
     80.8123	    9.00	    9.62	-1230.00	    7.03
     80.8457	   13.00	    9.50	-1225.88	    7.02
     80.8792	   11.00	    9.42	-1227.80	    7.02
     80.9126	    9.00	    9.38	-1229.76	    7.02
     80.9460	   10.00	    9.38	-1228.76	    7.02
     80.9794	   16.00	    9.42	-1222.80	    7.02
     81.0128	    9.00	    9.46	-1229.84	    7.02
     81.0463	    7.00	    9.45	-1231.83	    7.02
     81.0797	   16.00	    9.40	-1222.78	    7.02
     81.1131	    8.00	    9.37	-1230.75	    7.02
     81.1465	   10.00	    9.34	-1228.72	    7.02
     81.1800	    7.00	    9.33	-1231.71	    7.02
     81.2134	   10.00	    9.34	-1228.72	    7.02
     81.2468	    4.00	    9.35	-1234.73	    7.02
     81.2802	    9.00	    9.37	-1229.75	    7.02
     81.3136	   15.00	    9.39	-1223.77	    7.02
     81.3471	    7.00	    9.42	-1231.80	    7.02
     81.3805	    8.00	    9.45	-1230.83	    7.02
     81.4139	   12.00	    9.48	-1226.86	    7.02
     81.4473	    9.00	    9.52	-1229.90	    7.02
     81.4808	    8.00	    9.56	-1230.94	    7.02
     81.5142	    9.00	    9.61	-1229.99	    7.02
     81.5476	   15.00	    9.67	-1224.05	    7.02
     81.5810	    7.00	    9.74	-1232.12	    7.02
     81.6144	   11.00	    9.81	-1228.19	    7.02
     81.6479	   10.00	    9.90	-1229.28	    7.02
     81.6813	    9.00	    9.99	-1230.37	    7.02
     81.7147	   10.00	   10.11	-1229.49	    7.02
     81.7481	   12.00	   10.24	-1227.62	    7.02
     81.7816	    7.00	   10.39	-1232.77	    7.02
     81.8150	   19.00	   10.57	-1220.95	    7.02
     81.8484	   12.00	   10.78	-1228.16	    7.01
     81.8818	    7.00	   11.04	-1233.42	    7.01
     81.9153	    5.00	   11.36	-1235.74	    7.01
     81.9487	   10.00	   11.75	-1231.13	    7.01
     81.9821	   15.00	   12.24	-1226.62	    7.01
     82.0155	    8.00	   12.87	-1234.25	    7.01
     82.0489	   11.00	   13.70	-1232.08	    7.01
     82.0824	   20.00	   14.83	-1224.21	    7.01
     82.1158	   17.00	   16.44	-1228.82	    7.01
     82.1492	   22.00	   18.83	-1226.21	    7.01
     82.1826	   20.00	   22.72	-1232.10	    7.01
     82.2160	   30.00	   29.73	-1229.11	    7.01
     82.2495	   52.00	   42.99	-1220.37	    7.01
     82.2829	   77.00	   65.72	-1218.10	    7.01
     82.3163	   93.00	   96.76	-1233.14	    7.01
     82.3497	  145.00	  120.38	-1204.76	    7.01
     82.3832	   95.00	  111.94	-1246.32	    7.01
     82.4166	   75.00	   83.14	-1237.52	    7.01
     82.4500	   57.00	   58.76	-1231.14	    7.01
     82.4834	   48.00	   46.63	-1228.00	    7.01
     82.5169	   49.00	   46.61	-1226.99	    7.01
     82.5503	   47.00	   56.01	-1238.39	    7.01
     82.5837	   83.00	   68.15	-1214.53	    7.00
     82.6171	   78.00	   69.28	-1220.66	    7.00
     82.6505	   41.00	   56.43	-1244.81	    7.00
     82.6840	   43.00	   42.04	-1228.42	    7.00
     82.7174	   21.00	   31.46	-1239.84	    7.00
     82.7508	   21.00	   24.14	-1232.52	    7.00
     82.7842	   21.00	   19.46	-1227.84	    7.00
     82.8177	   24.00	   16.71	-1222.09	    7.00
     82.8511	   16.00	   15.21	-1228.59	    7.00
     82.8845	   15.00	   14.55	-1228.93	    7.00
     82.9179	   16.00	   14.43	-1227.81	    7.00
     82.9514	    8.00	   14.37	-1235.75	    7.00
     82.9848	    7.00	   13.78	-1236.16	    7.00
     83.0182	   12.00	   12.87	-1230.25	    7.00
     83.0516	   11.00	   12.15	-1230.53	    7.00
     83.0850	   18.00	   11.79	-1223.17	    7.00
     83.1185	    9.00	   11.77	-1232.15	    7.00
     83.1519	   16.00	   11.99	-1225.37	    7.00
     83.1853	   17.00	   12.15	-1224.53	    6.99
     83.2187	    9.00	   11.86	-1232.24	    6.99
     83.2522	   17.00	   11.31	-1223.69	    6.99
     83.2856	   10.00	   10.86	-1230.24	    6.99
     83.3190	   10.00	   10.61	-1229.99	    6.99
     83.3524	   12.00	   10.57	-1227.95	    6.99
     83.3858	    8.00	   10.67	-1232.05	    6.99
     83.4193	    7.00	   10.82	-1233.20	    6.99
     83.4527	   12.00	   10.83	-1228.21	    6.99
     83.4861	   11.00	   10.62	-1229.00	    6.99
     83.5195	    6.00	   10.38	-1233.76	    6.99
     83.5530	    9.00	   10.23	-1230.61	    6.99
     83.5864	   10.00	   10.16	-1229.54	    6.99
     83.6198	   16.00	   10.15	-1223.53	    6.99
     83.6532	    8.00	   10.17	-1231.55	    6.99
     83.6866	   15.00	   10.23	-1224.61	    6.98
     83.7201	   10.00	   10.31	-1229.69	    6.98
     83.7535	    7.00	   10.42	-1232.80	    6.98
     83.7869	   12.00	   10.57	-1227.95	    6.98
     83.8203	   16.00	   10.75	-1224.13	    6.98
     83.8538	   13.00	   10.98	-1227.36	    6.98
     83.8872	   16.00	   11.28	-1224.66	    6.98
     83.9206	    9.00	   11.67	-1232.05	    6.98
     83.9540	   18.00	   12.18	-1223.56	    6.98
     83.9874	   18.00	   12.86	-1224.24	    6.98
     84.0209	   16.00	   13.83	-1227.21	    6.98
     84.0543	   11.00	   15.26	-1233.64	    6.98
     84.0877	   18.00	   17.63	-1229.01	    6.98
     84.1211	   17.00	   21.99	-1234.37	    6.97
     84.1546	   30.00	   30.27	-1229.65	    6.97
     84.1880	   43.00	   44.60	-1230.98	    6.97
     84.2214	   55.00	   64.95	-1239.33	    6.97
     84.2548	   93.00	   83.16	-1219.54	    6.97
     84.2883	   91.00	   82.04	-1220.42	    6.97
     84.3217	   71.00	   63.69	-1222.07	    6.97
     84.3551	   52.00	   45.60	-1222.98	    6.97
     84.3885	   30.00	   35.08	-1234.46	    6.97
     84.4219	   26.00	   32.65	-1236.03	    6.97
     84.4554	   37.00	   36.98	-1229.36	    6.97
     84.4888	   31.00	   45.25	-1243.63	    6.97
     84.5222	   55.00	   50.15	-1224.53	    6.96
     84.5556	   35.00	   44.34	-1238.72	    6.96
     84.5891	   33.00	   33.38	-1229.76	    6.96
     84.6225	   33.00	   24.26	-1220.64	    6.96
     84.6559	   20.00	   18.48	-1227.86	    6.96
     84.6893	   12.00	   15.25	-1232.63	    6.96
     84.7227	   10.00	   13.49	-1232.87	    6.96
     84.7562	   17.00	   12.44	-1224.82	    6.96
     84.7896	    7.00	   11.74	-1234.12	    6.96
     84.8230	   12.00	   11.24	-1228.62	    6.96
     84.8564	   10.00	   10.86	-1230.24	    6.95
     84.8899	    7.00	   10.56	-1232.94	    6.95
     84.9233	   10.00	   10.32	-1229.70	    6.95
     84.9567	   10.00	   10.13	-1229.51	    6.95
     84.9901	    6.00	    9.97	-1233.35	    6.95
     85.0235	    6.00	    9.84	-1233.22	    6.95
     85.0570	   10.00	    9.73	-1229.11	    6.95
     85.0904	   12.00	    9.63	-1227.01	    6.95
     85.1238	   10.00	    9.55	-1228.93	    6.95
     85.1572	    9.00	    9.48	-1229.86	    6.95
     85.1907	   11.00	    9.41	-1227.79	    6.94
     85.2241	    8.00	    9.36	-1230.74	    6.94
     85.2575	   10.00	    9.31	-1228.69	    6.94
     85.2909	   10.00	    9.27	-1228.65	    6.94
     85.3244	   17.00	    9.23	-1221.61	    6.94
     85.3578	   10.00	    9.19	-1228.57	    6.94
     85.3912	   10.00	    9.16	-1228.54	    6.94
     85.4246	   10.00	    9.13	-1228.51	    6.94
     85.4580	   13.00	    9.11	-1225.49	    6.94
     85.4915	    8.00	    9.08	-1230.46	    6.93
     85.5249	   13.00	    9.06	-1225.44	    6.93
     85.5583	    6.00	    9.04	-1232.42	    6.93
     85.5917	    7.00	    9.02	-1231.40	    6.93
     85.6252	    6.00	    9.01	-1232.39	    6.93
     85.6586	    9.00	    8.99	-1229.37	    6.93
     85.6920	    7.00	    8.98	-1231.36	    6.93
     85.7254	    9.00	    8.93	-1229.31	    6.93
     85.7589	   11.00	    8.92	-1227.30	    6.93
     85.7923	    9.00	    8.91	-1229.29	    6.92
     85.8257	   11.00	    8.90	-1227.28	    6.92
     85.8591	   10.00	    8.89	-1228.27	    6.92
     85.8925	   11.00	    8.88	-1227.26	    6.92
     85.9259	   16.00	    8.87	-1222.25	    6.92
     85.9594	    7.00	    8.87	-1231.25	    6.92
     85.9928	    6.00	    8.85	-1232.22	    6.92
     86.0262	    9.00	    8.90	-1229.28	    6.92
     86.0596	   12.00	    8.90	-1226.28	    6.91
     86.0931	   12.00	    8.89	-1226.27	    6.91
     86.1265	   10.00	    8.89	-1228.27	    6.91
     86.1599	   11.00	    8.89	-1227.27	    6.91
     86.1933	   12.00	    8.89	-1226.27	    6.91
     86.2268	   11.00	    8.89	-1227.27	    6.91
     86.2602	   10.00	    8.89	-1228.27	    6.91
     86.2936	   11.00	    8.92	-1227.30	    6.90
     86.3270	   13.00	    8.93	-1225.31	    6.90
     86.3604	    9.00	    8.93	-1229.31	    6.90
     86.3939	    7.00	    8.93	-1231.31	    6.90
     86.4273	   13.00	    8.94	-1225.32	    6.90
     86.4607	   17.00	    8.95	-1221.33	    6.90
     86.4941	   10.00	    8.95	-1228.33	    6.90
     86.5276	   17.00	    8.96	-1221.34	    6.89
     86.5610	   13.00	    8.97	-1225.35	    6.89
     86.5944	   11.00	    8.98	-1227.36	    6.89
     86.6278	   13.00	    9.00	-1225.38	    6.89
     86.6613	    9.00	    9.01	-1229.39	    6.89
     86.6947	   11.00	    9.03	-1227.41	    6.89
     86.7281	    9.00	    9.05	-1229.43	    6.89
     86.7615	   12.00	    9.07	-1226.45	    6.88
     86.7949	    8.00	    9.10	-1230.48	    6.88
     86.8284	   19.00	    9.13	-1219.50	    6.88
     86.8618	   11.00	    9.16	-1227.54	    6.88
     86.8952	    8.00	    9.20	-1230.58	    6.88
     86.9286	    9.00	    9.25	-1229.63	    6.88
     86.9621	   12.00	    9.30	-1226.68	    6.88
     86.9955	    6.00	    9.37	-1232.75	    6.87
     87.0289	   12.00	    9.45	-1226.83	    6.87
     87.0623	    7.00	    9.54	-1231.92	    6.87
     87.0957	   10.00	    9.66	-1229.04	    6.87
     87.1292	   10.00	    9.81	-1229.19	    6.87
     87.1626	   18.00	   10.04	-1221.42	    6.87
     87.1960	   12.00	   10.29	-1227.67	    6.86
     87.2294	   13.00	   10.62	-1227.00	    6.86
     87.2629	   11.00	   11.10	-1229.48	    6.86
     87.2963	    9.00	   11.83	-1232.21	    6.86
     87.3297	   11.00	   13.10	-1231.48	    6.86
     87.3631	   10.00	   15.46	-1234.84	    6.86
     87.3965	    9.00	   19.72	-1240.10	    6.85
     87.4300	   13.00	   26.49	-1242.87	    6.85
     87.4634	   22.00	   34.84	-1242.21	    6.85
     87.4968	   40.00	   39.84	-1229.22	    6.85
     87.5302	   23.00	   36.28	-1242.66	    6.85
     87.5637	   18.00	   28.46	-1239.84	    6.85
     87.5971	   16.00	   22.04	-1235.42	    6.84
     87.6305	   22.00	   18.63	-1226.01	    6.84
     87.6639	   21.00	   18.12	-1226.50	    6.84
     87.6974	   23.00	   19.99	-1226.37	    6.84
     87.7308	   18.00	   23.32	-1234.70	    6.84
     87.7642	   26.00	   25.53	-1228.91	    6.83
     87.7976	   21.00	   23.65	-1232.03	    6.83
     87.8310	   22.00	   19.42	-1226.80	    6.83
     87.8645	   10.00	   15.68	-1235.06	    6.83
     87.8979	   15.00	   13.22	-1227.60	    6.83
     87.9313	   16.00	   11.80	-1225.18	    6.83
     87.9647	    9.00	   11.02	-1231.40	    6.82
     87.9982	    9.00	   10.57	-1230.95	    6.82
     88.0316	   11.00	   10.29	-1228.67	    6.82
     88.0650	    5.00	   10.09	-1234.47	    6.82
     88.0984	    3.00	    9.95	-1236.33	    6.82
     88.1318	   10.00	    9.85	-1229.23	    6.81
     88.1653	   13.00	    9.77	-1226.15	    6.81
     88.1987	   13.00	    9.71	-1226.09	    6.81
     88.2321	    4.00	    9.68	-1235.06	    6.81
     88.2655	   13.00	    9.65	-1226.03	    6.81
     88.2990	    4.00	    9.63	-1235.01	    6.80
     88.3324	   13.00	    9.63	-1226.01	    6.80
     88.3658	   12.00	    9.63	-1227.01	    6.80
     88.3992	    9.00	    9.64	-1230.02	    6.80
     88.4326	    9.00	    9.66	-1230.04	    6.80
     88.4661	   16.00	    9.68	-1223.06	    6.79
     88.4995	   11.00	    9.71	-1228.09	    6.79
     88.5329	   12.00	    9.75	-1227.13	    6.79
     88.5663	   16.00	    9.80	-1223.18	    6.79
     88.5998	    9.00	    9.85	-1230.23	    6.78
     88.6332	    8.00	    9.91	-1231.29	    6.78
     88.6666	    9.00	    9.98	-1230.36	    6.78
     88.7000	    5.00	   10.06	-1234.44	    6.78
     88.7334	   12.00	   10.15	-1227.53	    6.78
     88.7669	    5.00	   10.26	-1234.64	    6.77
     88.8003	    6.00	   10.38	-1233.76	    6.77
     88.8337	    7.00	   10.51	-1232.89	    6.77
     88.8671	   16.00	   10.67	-1224.05	    6.77
     88.9006	    6.00	   10.85	-1234.23	    6.76
     88.9340	   10.00	   11.06	-1230.44	    6.76
     88.9674	   12.00	   11.30	-1228.68	    6.76
     89.0008	   16.00	   11.59	-1224.97	    6.76
     89.0343	   10.00	   11.92	-1231.30	    6.76
     89.0677	   15.00	   12.33	-1226.71	    6.75
     89.1011	   17.00	   12.81	-1225.19	    6.75
     89.1345	   21.00	   13.40	-1221.78	    6.75
     89.1679	   15.00	   14.13	-1228.51	    6.75
     89.2014	   12.00	   15.05	-1232.43	    6.74
     89.2348	   21.00	   16.22	-1224.60	    6.74
     89.2682	   17.00	   17.76	-1230.14	    6.74
     89.3016	   17.00	   19.85	-1232.23	    6.74
     89.3351	   22.00	   22.82	-1230.20	    6.73
     89.3685	   28.00	   27.46	-1228.84	    6.73
     89.4019	   38.00	   35.54	-1226.92	    6.73
     89.4353	   48.00	   50.40	-1231.78	    6.73
     89.4688	   60.00	   76.67	-1246.05	    6.72
     89.5022	  106.00	  117.22	-1240.60	    6.72
     89.5356	  168.00	  165.39	-1226.77	    6.72
     89.5690	  209.00	  191.61	-1211.99	    6.72
     89.6024	  161.00	  168.70	-1237.08	    6.71
     89.6359	  136.00	  123.12	-1216.49	    6.71
     89.6693	   58.00	   85.85	-1257.23	    6.71
     89.7027	   65.00	   65.40	-1229.78	    6.71
     89.7361	   55.00	   61.14	-1235.52	    6.70
     89.7695	   72.00	   70.50	-1227.88	    6.70
     89.8030	   76.00	   89.23	-1242.61	    6.70
     89.8364	  114.00	  105.57	-1220.95	    6.70
     89.8698	  126.00	  100.81	-1204.19	    6.69
     89.9032	   70.00	   77.85	-1237.23	    6.69
     89.9367	   43.00	   54.54	-1240.92	    6.69
     89.9701	   43.00	   38.08	-1224.46	    6.69
     90.0035	   27.00	   28.24	-1230.62	    6.68
     90.0369	   27.00	   22.78	-1225.16	    6.68
     90.0703	   17.00	   19.70	-1232.08	    6.68
     90.1038	   15.00	   17.81	-1232.19	    6.67
     90.1372	   23.00	   16.55	-1222.93	    6.67
     90.1706	   16.00	   15.67	-1229.05	    6.67
     90.2040	   12.00	   15.07	-1232.45	    6.67
     90.2375	   19.00	   14.68	-1225.06	    6.66
     90.2709	   21.00	   14.47	-1222.85	    6.66
     90.3043	   11.00	   14.42	-1232.80	    6.66
     90.3377	   17.00	   14.53	-1226.91	    6.66
     90.3712	   10.00	   14.82	-1234.20	    6.65
     90.4046	   15.00	   15.34	-1229.72	    6.65
     90.4380	   15.00	   16.14	-1230.52	    6.65
     90.4714	   24.00	   17.37	-1222.75	    6.64
     90.5048	   16.00	   19.33	-1232.71	    6.64
     90.5383	   27.00	   22.72	-1225.10	    6.64
     90.5717	   34.00	   28.98	-1224.36	    6.63
     90.6051	   31.00	   40.41	-1238.79	    6.63
     90.6385	   61.00	   59.27	-1227.65	    6.63
     90.6720	  105.00	   84.98	-1209.36	    6.63
     90.7054	  112.00	  107.55	-1224.93	    6.62
     90.7388	  121.00	  107.14	-1215.52	    6.62
     90.7722	   64.00	   84.86	-1250.24	    6.62
     90.8056	   50.00	   60.83	-1240.21	    6.61
     90.8391	   35.00	   44.77	-1239.15	    6.61
     90.8725	   32.00	   37.86	-1235.24	    6.61
     90.9059	   30.00	   39.04	-1238.42	    6.60
     90.9393	   46.00	   46.75	-1230.13	    6.60
     90.9728	   58.00	   57.72	-1229.10	    6.60
     91.0062	   72.00	   63.24	-1220.62	    6.60
     91.0396	   61.00	   55.78	-1224.16	    6.59
     91.0730	   48.00	   42.11	-1223.49	    6.59
     91.1064	   24.00	   30.38	-1235.76	    6.59
     91.1399	   17.00	   22.59	-1234.97	    6.58
     91.1733	   26.00	   18.03	-1221.41	    6.58
     91.2067	   17.00	   15.47	-1227.85	    6.58
     91.2401	   11.00	   13.94	-1232.32	    6.57
     91.2736	    8.00	   12.92	-1234.30	    6.57
     91.3070	   15.00	   12.19	-1226.57	    6.57
     91.3404	   19.00	   11.63	-1222.01	    6.56
     91.3738	   11.00	   11.20	-1229.58	    6.56
     91.4073	   13.00	   10.85	-1227.23	    6.56
     91.4407	   13.00	   10.56	-1226.94	    6.55
     91.4741	    8.00	   10.32	-1231.70	    6.55
     91.5075	   10.00	   10.12	-1229.50	    6.55
     91.5409	    8.00	    9.95	-1231.33	    6.54
     91.5744	    9.00	    9.86	-1230.24	    6.54
     91.6078	   12.00	    9.73	-1227.11	    6.54
     91.6412	   13.00	    9.62	-1226.00	    6.53
     91.6746	   12.00	    9.52	-1226.90	    6.53
     91.7081	    8.00	    9.43	-1230.81	    6.53
     91.7415	   10.00	    9.36	-1228.74	    6.52
     91.7749	    7.00	    9.29	-1231.67	    6.52
     91.8083	   12.00	    9.22	-1226.60	    6.51
     91.8418	    9.00	    9.17	-1229.55	    6.51
     91.8752	   10.00	    9.14	-1228.52	    6.51
     91.9086	    8.00	    9.09	-1230.47	    6.50
     91.9420	    9.00	    9.05	-1229.43	    6.50
     91.9754	   11.00	    9.01	-1227.39	    6.50
     92.0089	    9.00	    8.97	-1229.35	    6.49
     92.0423	   11.00	    8.94	-1227.32	    6.49
     92.0757	   11.00	    8.91	-1227.29	    6.49
     92.1091	   10.00	    8.88	-1228.26	    6.48
     92.1425	    9.00	    8.85	-1229.23	    6.48
     92.1760	   16.00	    8.83	-1222.21	    6.47
     92.2094	   12.00	    8.80	-1226.18	    6.47
     92.2428	    9.00	    8.78	-1229.16	    6.47
     92.2762	   12.00	    8.80	-1226.18	    6.46
     92.3097	    7.00	    8.78	-1231.16	    6.46
     92.3431	   12.00	    8.77	-1226.15	    6.46
     92.3765	    9.00	    8.75	-1229.13	    6.45
     92.4099	    9.00	    8.73	-1229.11	    6.45
     92.4433	   11.00	    8.72	-1227.10	    6.44
     92.4768	    8.00	    8.71	-1230.09	    6.44
     92.5102	    8.00	    8.69	-1230.07	    6.44
     92.5436	    7.00	    8.68	-1231.06	    6.43
     92.5770	    9.00	    8.69	-1229.07	    6.43
     92.6105	    8.00	    8.68	-1230.06	    6.43
     92.6439	    9.00	    8.67	-1229.05	    6.42
     92.6773	   11.00	    8.67	-1227.05	    6.42
     92.7107	   19.00	    8.66	-1219.04	    6.41
     92.7442	   13.00	    8.65	-1225.03	    6.41
     92.7776	    4.00	    8.65	-1234.03	    6.41
     92.8110	    9.00	    8.64	-1229.02	    6.40
     92.8444	    7.00	    8.64	-1231.02	    6.40
     92.8778	    4.00	    8.64	-1234.02	    6.39
     92.9113	   11.00	    8.64	-1227.02	    6.39
     92.9447	   12.00	    8.64	-1226.02	    6.38
     92.9781	   12.00	    8.64	-1226.02	    6.38
     93.0115	   11.00	    8.64	-1227.02	    6.38
     93.0450	   13.00	    8.65	-1225.03	    6.37
     93.0784	    7.00	    8.66	-1231.04	    6.37
     93.1118	   16.00	    8.68	-1222.06	    6.36
     93.1452	    6.00	    8.66	-1232.04	    6.36
     93.1786	   15.00	    8.73	-1223.11	    6.36
     93.2121	   11.00	    8.84	-1227.22	    6.35
     93.2455	   13.00	    8.98	-1225.36	    6.35
     93.2789	    9.00	    9.08	-1229.46	    6.34
     93.3123	   11.00	    9.05	-1227.43	    6.34
     93.3458	   15.00	    8.94	-1223.32	    6.33
     93.3792	    9.00	    8.82	-1229.20	    6.33
     93.4126	    9.00	    8.75	-1229.13	    6.33
     93.4460	    8.00	    8.73	-1230.11	    6.32
     93.4794	   13.00	    8.74	-1225.12	    6.32
     93.5129	    6.00	    8.79	-1232.17	    6.31
     93.5463	   16.00	    8.86	-1222.24	    6.31
     93.5797	   15.00	    8.91	-1223.29	    6.30
     93.6131	   12.00	    8.90	-1226.28	    6.30
     93.6466	    9.00	    8.85	-1229.23	    6.29
     93.6800	   12.00	    8.80	-1226.18	    6.29
     93.7134	   10.00	    8.79	-1228.17	    6.29
     93.7468	   11.00	    8.78	-1227.16	    6.28
     93.7803	   11.00	    8.79	-1227.17	    6.28
     93.8137	   10.00	    8.81	-1228.19	    6.27
     93.8471	    5.00	    8.84	-1233.22	    6.27
     93.8805	   10.00	    8.87	-1228.25	    6.26
     93.9139	    9.00	    8.91	-1229.29	    6.26
     93.9474	    6.00	    8.95	-1232.33	    6.25
     93.9808	    9.00	    9.01	-1229.39	    6.25
     94.0142	   12.00	    9.08	-1226.46	    6.24
     94.0476	   12.00	    9.19	-1226.57	    6.24
     94.0811	   16.00	    9.34	-1222.72	    6.23
     94.1145	   10.00	    9.60	-1228.98	    6.23
     94.1479	   11.00	   10.00	-1228.38	    6.22
     94.1813	   13.00	   10.56	-1226.94	    6.22
     94.2148	   21.00	   11.15	-1219.53	    6.21
     94.2482	   16.00	   11.41	-1224.79	    6.21
     94.2816	    4.00	   11.13	-1236.51	    6.21
     94.3150	   16.00	   10.64	-1224.02	    6.20
     94.3484	    9.00	   10.30	-1230.68	    6.20
     94.3819	   10.00	   10.14	-1229.52	    6.19
     94.4153	   10.00	   10.17	-1229.55	    6.19
     94.4487	   11.00	   10.35	-1228.73	    6.18
     94.4821	   13.00	   10.67	-1227.05	    6.18
     94.5155	   19.00	   11.04	-1221.42	    6.17
     94.5490	   10.00	   11.29	-1230.67	    6.17
     94.5824	    9.00	   11.30	-1231.68	    6.16
     94.6158	    6.00	   11.20	-1234.58	    6.16
     94.6492	   20.00	   11.19	-1220.57	    6.15
     94.6827	   16.00	   11.31	-1224.69	    6.15
     94.7161	    7.00	   11.53	-1233.91	    6.14
     94.7495	   19.00	   11.85	-1222.23	    6.14
     94.7829	   16.00	   12.27	-1225.65	    6.13
     94.8163	    7.00	   12.79	-1235.17	    6.12
     94.8498	   15.00	   13.44	-1227.82	    6.12
     94.8832	   12.00	   14.25	-1231.63	    6.11
     94.9166	   17.00	   15.27	-1227.65	    6.11
     94.9500	   17.00	   16.60	-1228.98	    6.10
     94.9835	   16.00	   18.37	-1231.75	    6.10
     95.0169	   25.00	   20.82	-1225.20	    6.09
     95.0503	   41.00	   24.50	-1212.88	    6.09
     95.0837	   28.00	   30.55	-1231.93	    6.08
     95.1172	   48.00	   41.14	-1222.52	    6.08
     95.1506	   53.00	   59.52	-1235.90	    6.07
     95.1840	   83.00	   88.62	-1235.00	    6.07
     95.2174	  152.00	  127.52	-1204.90	    6.06
     95.2508	  186.00	  163.81	-1207.19	    6.06
     95.2843	  167.00	  169.69	-1232.07	    6.05
     95.3177	  143.00	  139.47	-1225.85	    6.04
     95.3511	  113.00	  101.05	-1217.43	    6.04
     95.3845	   77.00	   72.30	-1224.68	    6.03
     95.4180	   51.00	   56.78	-1235.16	    6.03
     95.4514	   66.00	   53.27	-1216.65	    6.02
     95.4848	   70.00	   59.91	-1219.29	    6.02
     95.5182	   84.00	   74.52	-1219.90	    6.01
     95.5517	  101.00	   91.56	-1219.94	    6.01
     95.5851	  101.00	   97.84	-1226.22	    6.00
     95.6185	   95.00	   85.12	-1219.50	    5.99
     95.6519	   79.00	   64.75	-1215.13	    5.99
     95.6853	   41.00	   47.76	-1236.14	    5.98
     95.7188	   34.00	   36.81	-1232.19	    5.98
     95.7522	   33.00	   31.07	-1227.45	    5.97
     95.7856	   36.00	   29.02	-1222.40	    5.97
     95.8190	   36.00	   29.85	-1223.23	    5.96
     95.8524	   32.00	   33.90	-1231.28	    5.95
     95.8859	   51.00	   42.82	-1221.20	    5.95
     95.9193	   58.00	   58.89	-1230.27	    5.94
     95.9527	  115.00	   83.25	-1197.63	    5.94
     95.9861	  129.00	  111.74	-1212.12	    5.93
     96.0196	  160.00	  128.10	-1197.48	    5.93
     96.0530	  123.00	  116.39	-1222.76	    5.92
     96.0864	   73.00	   88.86	-1245.24	    5.91
     96.1198	   62.00	   63.93	-1231.31	    5.91
     96.1533	   54.00	   47.85	-1223.23	    5.90
     96.1867	   48.00	   40.74	-1222.12	    5.90
     96.2201	   38.00	   41.39	-1232.77	    5.89
     96.2535	   64.00	   48.63	-1214.01	    5.88
     96.2869	   55.00	   60.45	-1234.83	    5.88
     96.3204	   67.00	   70.66	-1233.04	    5.87
     96.3538	   72.00	   69.04	-1226.42	    5.86
     96.3872	   56.00	   55.99	-1229.37	    5.86
     96.4206	   40.00	   41.38	-1230.76	    5.85
     96.4541	   42.00	   30.30	-1217.68	    5.85
     96.4875	   19.00	   23.22	-1233.60	    5.84
     96.5209	   18.00	   19.08	-1230.46	    5.83
     96.5543	   21.00	   16.70	-1225.08	    5.83
     96.5877	   15.00	   15.26	-1229.64	    5.82
     96.6212	   15.00	   14.32	-1228.70	    5.81
     96.6546	   15.00	   13.68	-1228.06	    5.81
     96.6880	   15.00	   13.24	-1227.62	    5.80
     96.7214	   18.00	   12.97	-1224.35	    5.80
     96.7549	   20.00	   12.84	-1222.22	    5.79
     96.7883	   19.00	   12.85	-1223.23	    5.78
     96.8217	   18.00	   13.00	-1224.37	    5.78
     96.8551	    8.00	   13.31	-1234.69	    5.77
     96.8885	    9.00	   13.83	-1234.21	    5.76
     96.9220	   21.00	   14.66	-1223.04	    5.76
     96.9554	   15.00	   16.00	-1230.38	    5.75
     96.9888	   22.00	   18.29	-1225.67	    5.74
     97.0222	   28.00	   22.41	-1223.78	    5.74
     97.0557	   35.00	   29.69	-1224.07	    5.73
     97.0891	   42.00	   41.48	-1228.86	    5.72
     97.1225	   50.00	   57.80	-1237.18	    5.72
     97.1559	   88.00	   74.17	-1215.55	    5.71
     97.1893	  102.00	   79.15	-1206.53	    5.70
     97.2228	   63.00	   67.86	-1234.23	    5.70
     97.2562	   53.00	   51.08	-1227.46	    5.69
     97.2896	   37.00	   37.54	-1229.92	    5.68
     97.3230	   26.00	   29.41	-1232.79	    5.68
     97.3565	   32.00	   26.36	-1223.74	    5.67
     97.3899	   32.00	   27.66	-1225.04	    5.66
     97.4233	   24.00	   32.64	-1238.02	    5.66
     97.4567	   33.00	   39.98	-1236.36	    5.65
     97.4902	   46.00	   45.52	-1228.90	    5.64
     97.5236	   51.00	   43.50	-1221.88	    5.64
     97.5570	   32.00	   35.28	-1232.66	    5.63
     97.5904	   30.00	   26.65	-1226.03	    5.62
     97.6238	   20.00	   20.20	-1229.58	    5.62
     97.6573	   24.00	   16.08	-1221.46	    5.61
     97.6907	   13.00	   13.65	-1230.03	    5.60
     97.7241	   19.00	   12.21	-1222.59	    5.59
     97.7575	   10.00	   11.31	-1230.69	    5.59
     97.7910	   12.00	   10.68	-1228.06	    5.58
     97.8244	   17.00	   10.21	-1222.59	    5.57
     97.8578	    7.00	    9.84	-1232.22	    5.57
     97.8912	   11.00	    9.55	-1227.93	    5.56
     97.9247	   16.00	    9.32	-1222.70	    5.55
     97.9581	   15.00	    9.13	-1223.51	    5.54
     97.9915	   16.00	    8.97	-1222.35	    5.54
     98.0249	   13.00	    8.84	-1225.22	    5.53
     98.0583	   18.00	    8.73	-1220.11	    5.52
     98.0918	    8.00	    8.64	-1230.02	    5.51
     98.1252	   12.00	    8.58	-1225.96	    5.51
     98.1586	    9.00	    8.54	-1228.92	    5.50
     98.1920	    8.00	    8.54	-1229.92	    5.49
     98.2254	    8.00	    8.61	-1229.99	    5.49
     98.2589	   10.00	    8.76	-1228.14	    5.48
     98.2923	    7.00	    9.04	-1231.42	    5.47
     98.3257	   12.00	    9.43	-1226.81	    5.46
     98.3591	   17.00	    9.78	-1222.16	    5.46
     98.3926	   12.00	    9.85	-1227.23	    5.45
     98.4260	    7.00	    9.72	-1232.10	    5.44
     98.4594	   18.00	    9.62	-1221.00	    5.43
     98.4928	    7.00	    9.62	-1232.00	    5.43
     98.5262	    7.00	    9.51	-1231.89	    5.42
     98.5597	   12.00	    9.21	-1226.59	    5.41
     98.5931	    9.00	    8.92	-1229.30	    5.40
     98.6265	    5.00	    8.77	-1233.15	    5.39
     98.6599	    9.00	    8.76	-1229.13	    5.39
     98.6934	    8.00	    8.78	-1230.16	    5.38
     98.7268	   12.00	    8.70	-1226.08	    5.37
     98.7602	   10.00	    8.57	-1227.95	    5.36
     98.7936	   16.00	    8.49	-1221.87	    5.36
     98.8271	    9.00	    8.45	-1228.83	    5.35
     98.8605	    5.00	    8.33	-1232.71	    5.34
     98.8939	   11.00	    8.12	-1226.50	    5.33
     98.9273	   10.00	    7.90	-1227.28	    5.32
     98.9607	    9.00	    7.73	-1228.11	    5.32
     98.9942	    6.00	    7.61	-1230.99	    5.31
     99.0276	    9.00	    7.48	-1227.86	    5.30
     99.0610	   11.00	    7.42	-1225.80	    5.29
     99.0944	   12.00	    7.38	-1224.76	    5.28
     99.1279	    9.00	    7.35	-1227.73	    5.28
     99.1613	   10.00	    7.32	-1226.70	    5.27
     99.1947	    7.00	    7.30	-1229.68	    5.26
     99.2281	   13.00	    7.27	-1223.65	    5.25
     99.2616	    9.00	    7.25	-1227.63	    5.24
     99.2950	    7.00	    7.23	-1229.61	    5.24
     99.3284	   11.00	    7.19	-1225.57	    5.23
     99.3618	   15.00	    7.17	-1221.55	    5.22
     99.3952	   13.00	    7.16	-1223.54	    5.21
     99.4287	    7.00	    7.15	-1229.53	    5.20
     99.4621	    6.00	    7.13	-1230.51	    5.19
     99.4955	    9.00	    7.12	-1227.50	    5.19
     99.5289	   13.00	    7.12	-1223.50	    5.18
     99.5623	   17.00	    7.11	-1219.49	    5.17
     99.5958	    6.00	    7.11	-1230.49	    5.16
     99.6292	    7.00	    7.12	-1229.50	    5.15
     99.6626	    5.00	    7.14	-1231.52	    5.14
     99.6960	   10.00	    7.18	-1226.56	    5.13
     99.7295	   12.00	    7.27	-1224.65	    5.13
     99.7629	   15.00	    7.41	-1221.79	    5.12
     99.7963	   10.00	    7.57	-1226.95	    5.11
     99.8297	    8.00	    7.77	-1229.15	    5.10
     99.8632	    8.00	    7.83	-1229.21	    5.09
     99.8966	    6.00	    7.69	-1231.07	    5.08
     99.9300	    9.00	    7.46	-1227.84	    5.07
     99.9634	    7.00	    7.27	-1229.65	    5.07
     99.9968	   10.00	    7.14	-1226.52	    5.06
     25.3417	        	        	        	        	    -307	(  1  0  1)	  0  1 :  2
     25.4050	        	        	        	        	    -307	(  1  0  1)	  0  2 :  2
     27.4693	        	        	        	        	       0	(  1  1  0)	  0  1 :  1
     27.5381	        	        	        	        	       0	(  1  1  0)	  0  2 :  1
     36.1118	        	        	        	        	       0	(  1  0  1)	  0  1 :  1
     36.2036	        	        	        	        	       0	(  1  0  1)	  0  2 :  1
     36.9891	        	        	        	        	    -307	(  1  0  3)	  0  1 :  2
     37.0833	        	        	        	        	    -307	(  1  0  3)	  0  2 :  2
     37.8345	        	        	        	        	    -307	(  0  0  4)	  0  1 :  2
     37.9310	        	        	        	        	    -307	(  0  0  4)	  0  2 :  2
     38.6050	        	        	        	        	    -307	(  1  1  2)	  0  1 :  2
     38.7037	        	        	        	        	    -307	(  1  1  2)	  0  2 :  2
     39.2217	        	        	        	        	       0	(  2  0  0)	  0  1 :  1
     39.3220	        	        	        	        	       0	(  2  0  0)	  0  2 :  1
     41.2706	        	        	        	        	       0	(  1  1  1)	  0  1 :  1
     41.3767	        	        	        	        	       0	(  1  1  1)	  0  2 :  1
     44.0738	        	        	        	        	       0	(  2  1  0)	  0  1 :  1
     44.1878	        	        	        	        	       0	(  2  1  0)	  0  2 :  1
     48.0741	        	        	        	        	    -307	(  2  0  0)	  0  1 :  2
     48.1998	        	        	        	        	    -307	(  2  0  0)	  0  2 :  2
     51.9981	        	        	        	        	    -307	(  2  0  2)	  0  1 :  2
     52.1355	        	        	        	        	    -307	(  2  0  2)	  0  2 :  2
     53.9277	        	        	        	        	    -307	(  1  0  5)	  0  1 :  2
     54.0710	        	        	        	        	    -307	(  1  0  5)	  0  2 :  2
     54.3491	        	        	        	        	       0	(  2  1  1)	  0  1 :  1
     54.4937	        	        	        	        	       0	(  2  1  1)	  0  2 :  1
     55.0982	        	        	        	        	    -307	(  2  1  1)	  0  1 :  2
     55.2452	        	        	        	        	    -307	(  2  1  1)	  0  2 :  2
     56.6538	        	        	        	        	       0	(  2  2  0)	  0  1 :  1
     56.8057	        	        	        	        	       0	(  2  2  0)	  0  2 :  1
     62.1455	        	        	        	        	    -307	(  2  1  3)	  0  1 :  2
     62.3153	        	        	        	        	    -307	(  2  1  3)	  0  2 :  2
     62.7245	        	        	        	        	    -307	(  2  0  4)	  0  1 :  2
     62.7854	        	        	        	        	       0	(  0  0  2)	  0  1 :  1
     62.8963	        	        	        	        	    -307	(  2  0  4)	  0  2 :  2
     62.9574	        	        	        	        	       0	(  0  0  2)	  0  2 :  1
     64.0734	        	        	        	        	       0	(  3  1  0)	  0  1 :  1
     64.2497	        	        	        	        	       0	(  3  1  0)	  0  2 :  1
     65.5356	        	        	        	        	       0	(  2  2  1)	  0  1 :  1
     65.7170	        	        	        	        	       0	(  2  2  1)	  0  2 :  1
     68.7983	        	        	        	        	    -307	(  1  1  6)	  0  1 :  2
     68.9913	        	        	        	        	    -307	(  1  1  6)	  0  2 :  2
     69.0290	        	        	        	        	       0	(  3  0  1)	  0  1 :  1
     69.2228	        	        	        	        	       0	(  3  0  1)	  0  2 :  1
     69.8269	        	        	        	        	       0	(  1  1  2)	  0  1 :  1
     70.0236	        	        	        	        	       0	(  1  1  2)	  0  2 :  1
     70.3236	        	        	        	        	    -307	(  2  2  0)	  0  1 :  2
     70.5222	        	        	        	        	    -307	(  2  2  0)	  0  2 :  2
     72.4423	        	        	        	        	       0	(  3  1  1)	  0  1 :  1
     72.6488	        	        	        	        	       0	(  3  1  1)	  0  2 :  1
     74.0975	        	        	        	        	    -307	(  1  0  7)	  0  1 :  2
     74.3103	        	        	        	        	    -307	(  1  0  7)	  0  2 :  2
     74.4234	        	        	        	        	       0	(  3  2  0)	  0  1 :  1
     74.6375	        	        	        	        	       0	(  3  2  0)	  0  2 :  1
     75.0858	        	        	        	        	    -307	(  2  1  5)	  0  1 :  2
     75.3024	        	        	        	        	    -307	(  2  1  5)	  0  2 :  2
     76.0695	        	        	        	        	    -307	(  3  0  1)	  0  1 :  2
     76.2901	        	        	        	        	    -307	(  3  0  1)	  0  2 :  2
     76.5615	        	        	        	        	       0	(  2  0  2)	  0  1 :  1
     76.7840	        	        	        	        	       0	(  2  0  2)	  0  2 :  1
     78.6994	        	        	        	        	    -307	(  2  0  6)	  0  1 :  2
     78.9306	        	        	        	        	    -307	(  2  0  6)	  0  2 :  2
     79.8529	        	        	        	        	       0	(  2  1  2)	  0  1 :  1
     80.0889	        	        	        	        	       0	(  2  1  2)	  0  2 :  1
     80.7857	        	        	        	        	    -307	(  0  0  8)	  0  1 :  2
     81.0256	        	        	        	        	    -307	(  0  0  8)	  0  2 :  2
     82.1934	        	        	        	        	    -307	(  3  0  3)	  0  1 :  2
     82.3576	        	        	        	        	       0	(  3  2  1)	  0  1 :  1
     82.4393	        	        	        	        	    -307	(  3  0  3)	  0  2 :  2
     82.6043	        	        	        	        	       0	(  3  2  1)	  0  2 :  1
     82.7111	        	        	        	        	    -307	(  2  2  4)	  0  1 :  2
     82.9593	        	        	        	        	    -307	(  2  2  4)	  0  2 :  2
     83.1910	        	        	        	        	    -307	(  3  1  2)	  0  1 :  2
     83.4413	        	        	        	        	    -307	(  3  1  2)	  0  2 :  2
     84.2693	        	        	        	        	       0	(  4  0  0)	  0  1 :  1
     84.5244	        	        	        	        	       0	(  4  0  0)	  0  2 :  1
     87.4992	        	        	        	        	       0	(  4  1  0)	  0  1 :  1
     87.7692	        	        	        	        	       0	(  4  1  0)	  0  2 :  1
     89.5695	        	        	        	        	       0	(  2  2  2)	  0  1 :  1
     89.8494	        	        	        	        	       0	(  2  2  2)	  0  2 :  1
     90.7211	        	        	        	        	       0	(  3  3  0)	  0  1 :  1
     91.0067	        	        	        	        	       0	(  3  3  0)	  0  2 :  1
     92.2234	        	        	        	        	    -307	(  3  1  4)	  0  1 :  2
     92.5167	        	        	        	        	    -307	(  3  1  4)	  0  2 :  2
     93.2878	        	        	        	        	    -307	(  2  1  7)	  0  1 :  2
     93.5866	        	        	        	        	    -307	(  2  1  7)	  0  2 :  2
     94.2424	        	        	        	        	    -307	(  3  0  5)	  0  1 :  2
     94.5463	        	        	        	        	    -307	(  3  0  5)	  0  2 :  2
     95.1983	        	        	        	        	    -307	(  3  2  1)	  0  1 :  2
     95.2720	        	        	        	        	       0	(  4  1  1)	  0  1 :  1
     95.5072	        	        	        	        	    -307	(  3  2  1)	  0  2 :  2
     95.5814	        	        	        	        	       0	(  4  1  1)	  0  2 :  1
     96.0225	        	        	        	        	       0	(  3  1  2)	  0  1 :  1
     96.3360	        	        	        	        	       0	(  3  1  2)	  0  2 :  1
     97.1817	        	        	        	        	       0	(  4  2  0)	  0  1 :  1
     97.5016	        	        	        	        	       0	(  4  2  0)	  0  2 :  1
     98.3733	        	        	        	        	    -307	(  1  0  9)	  0  1 :  2
     98.5167	        	        	        	        	       0	(  3  3  1)	  0  1 :  1
     98.7001	        	        	        	        	    -307	(  1  0  9)	  0  2 :  2
     98.8443	        	        	        	        	       0	(  3  3  1)	  0  2 :  1
     99.8577	        	        	        	        	    -307	(  2  0  8)	  0  1 :  2
    100.1932	        	        	        	        	    -307	(  2  0  8)	  0  2 :  2
    101.2737	        	        	        	        	    -307	(  3  2  3)	  0  1 :  2
    101.6178	        	        	        	        	    -307	(  3  2  3)	  0  2 :  2
    105.1010	        	        	        	        	       0	(  4  2  1)	  0  1 :  1
    105.4696	        	        	        	        	       0	(  4  2  1)	  0  2 :  1
    105.8759	        	        	        	        	       0	(  3  2  2)	  0  1 :  1
    106.0538	        	        	        	        	       0	(  1  0  3)	  0  1 :  1
    106.2498	        	        	        	        	       0	(  3  2  2)	  0  2 :  1
    106.4289	        	        	        	        	       0	(  1  0  3)	  0  2 :  1
    107.5194	        	        	        	        	    -307	(  3  1  6)	  0  1 :  2
    107.9046	        	        	        	        	    -307	(  3  1  6)	  0  2 :  2
