 TiO2   Chi2:  1.5510  CELL:    4.59409   4.59409   2.95898   90.0000   90.0000   90.0000   SPGR: P 42/m n m             TEMP:      0.00
  2   2394     1.54060     1.54439     0.00000    -0.00007     0.00000    0
    56    57     0     0     0
 2Theta	Yobs	Ycal	Yobs-Ycal	Backg	Posr	(hkl)	K
     20.0167	   49.00	   47.31	 -950.15	   45.31
     20.0501	   47.00	   47.25	 -952.08	   45.24
     20.0836	   57.00	   47.19	 -942.02	   45.18
     20.1170	   50.00	   47.12	 -948.96	   45.12
     20.1504	   56.00	   47.06	 -942.90	   45.06
     20.1838	   57.00	   47.00	 -941.83	   44.99
     20.2172	   58.00	   46.94	 -940.77	   44.93
     20.2507	   61.00	   46.87	 -937.71	   44.87
     20.2841	   68.00	   46.81	 -930.65	   44.81
     20.3175	   48.00	   46.75	 -950.59	   44.75
     20.3509	   45.00	   46.69	 -953.52	   44.68
     20.3844	   57.00	   46.63	 -941.46	   44.62
     20.4178	   55.00	   46.56	 -943.40	   44.56
     20.4512	   46.00	   46.50	 -952.34	   44.50
     20.4846	   57.00	   46.44	 -941.28	   44.44
     20.5181	   47.00	   46.38	 -951.21	   44.37
     20.5515	   40.00	   46.32	 -958.15	   44.31
     20.5849	   51.00	   46.26	 -947.09	   44.25
     20.6183	   56.00	   46.19	 -942.03	   44.19
     20.6517	   52.00	   46.13	 -945.97	   44.13
     20.6852	   46.00	   46.07	 -951.91	   44.07
     20.7186	   58.00	   46.01	 -939.85	   44.01
     20.7520	   47.00	   45.95	 -950.79	   43.95
     20.7854	   53.00	   45.89	 -944.72	   43.88
     20.8189	   47.00	   45.83	 -950.66	   43.82
     20.8523	   50.00	   45.77	 -947.60	   43.76
     20.8857	   35.00	   45.70	 -962.54	   43.70
     20.9191	   48.00	   45.64	 -949.48	   43.64
     20.9525	   49.00	   45.58	 -948.42	   43.58
     20.9860	   39.00	   45.52	 -958.36	   43.52
     21.0194	   47.00	   45.46	 -950.30	   43.46
     21.0528	   62.00	   45.40	 -935.24	   43.40
     21.0862	   58.00	   45.34	 -939.18	   43.34
     21.1197	   50.00	   45.28	 -947.12	   43.28
     21.1531	   57.00	   45.22	 -940.06	   43.22
     21.1865	   56.00	   45.16	 -941.00	   43.16
     21.2199	   55.00	   45.10	 -941.94	   43.10
     21.2533	   54.00	   45.04	 -942.88	   43.04
     21.2868	   54.00	   44.98	 -942.82	   42.98
     21.3202	   53.00	   44.92	 -943.76	   42.92
     21.3536	   37.00	   44.86	 -959.70	   42.86
     21.3870	   42.00	   44.80	 -954.64	   42.80
     21.4205	   49.00	   44.74	 -947.58	   42.74
     21.4539	   69.00	   44.68	 -927.52	   42.68
     21.4873	   54.00	   44.62	 -942.46	   42.62
     21.5207	   60.00	   44.56	 -936.40	   42.56
     21.5541	   55.00	   44.50	 -941.34	   42.50
     21.5876	   39.00	   44.44	 -957.28	   42.44
     21.6210	   45.00	   44.38	 -951.22	   42.38
     21.6544	   48.00	   44.32	 -948.16	   42.32
     21.6878	   40.00	   44.26	 -956.10	   42.26
     21.7213	   42.00	   44.21	 -954.04	   42.20
     21.7547	   62.00	   44.15	 -933.98	   42.14
     21.7881	   48.00	   44.09	 -947.92	   42.08
     21.8215	   41.00	   44.03	 -954.87	   42.03
     21.8550	   37.00	   43.97	 -958.81	   41.97
     21.8884	   51.00	   43.91	 -944.75	   41.91
     21.9218	   33.00	   43.85	 -962.69	   41.85
     21.9552	   45.00	   43.79	 -950.63	   41.79
     21.9886	   56.00	   43.74	 -939.57	   41.73
     22.0221	   43.00	   43.68	 -952.51	   41.67
     22.0555	   49.00	   43.62	 -946.46	   41.62
     22.0889	   39.00	   43.56	 -956.40	   41.56
     22.1223	   31.00	   43.50	 -964.34	   41.50
     22.1558	   34.00	   43.44	 -961.28	   41.44
     22.1892	   33.00	   43.39	 -962.22	   41.38
     22.2226	   48.00	   43.33	 -947.16	   41.32
     22.2560	   47.00	   43.27	 -948.11	   41.27
     22.2894	   55.00	   43.21	 -940.05	   41.21
     22.3229	   46.00	   43.15	 -948.99	   41.15
     22.3563	   62.00	   43.10	 -932.93	   41.09
     22.3897	   50.00	   43.04	 -944.88	   41.04
     22.4231	   55.00	   42.98	 -939.82	   40.98
     22.4566	   39.00	   42.92	 -955.76	   40.92
     22.4900	   38.00	   42.87	 -956.70	   40.86
     22.5234	   46.00	   42.81	 -948.64	   40.81
     22.5568	   54.00	   42.78	 -940.62	   40.75
     22.5902	   39.00	   42.74	 -955.57	   40.69
     22.6237	   40.00	   42.68	 -954.52	   40.63
     22.6571	   42.00	   42.63	 -952.46	   40.58
     22.6905	   47.00	   42.57	 -947.41	   40.52
     22.7239	   49.00	   42.51	 -945.35	   40.46
     22.7574	   55.00	   42.46	 -939.29	   40.41
     22.7908	   47.00	   42.40	 -947.24	   40.35
     22.8242	   32.00	   42.35	 -962.18	   40.29
     22.8576	   48.00	   42.29	 -946.13	   40.23
     22.8911	   35.00	   42.24	 -959.07	   40.18
     22.9245	   28.00	   42.18	 -966.02	   40.12
     22.9579	   53.00	   42.13	 -940.96	   40.06
     22.9913	   52.00	   42.07	 -941.91	   40.01
     23.0247	   47.00	   42.02	 -946.85	   39.95
     23.0582	   49.00	   41.96	 -944.80	   39.90
     23.0916	   40.00	   41.91	 -953.75	   39.84
     23.1250	   40.00	   41.85	 -953.69	   39.78
     23.1584	   48.00	   41.80	 -945.64	   39.73
     23.1919	   38.00	   41.75	 -955.58	   39.67
     23.2253	   38.00	   41.69	 -955.53	   39.62
     23.2587	   57.00	   41.64	 -936.48	   39.56
     23.2921	   48.00	   41.59	 -945.42	   39.50
     23.3255	   45.00	   41.53	 -948.37	   39.45
     23.3590	   53.00	   41.48	 -940.32	   39.39
     23.3924	   39.00	   41.43	 -954.26	   39.34
     23.4258	   49.00	   41.38	 -944.21	   39.28
     23.4592	   60.00	   41.32	 -933.16	   39.23
     23.4927	   36.00	   41.27	 -957.11	   39.17
     23.5261	   53.00	   41.22	 -940.06	   39.11
     23.5595	   45.00	   41.17	 -948.00	   39.06
     23.5929	   49.00	   41.12	 -943.95	   39.00
     23.6263	   45.00	   41.07	 -947.90	   38.95
     23.6598	   49.00	   41.02	 -943.85	   38.89
     23.6932	   38.00	   40.97	 -954.80	   38.84
     23.7266	   45.00	   40.92	 -947.75	   38.78
     23.7600	   36.00	   40.87	 -956.70	   38.73
     23.7935	   38.00	   40.82	 -954.65	   38.67
     23.8269	   47.00	   40.77	 -945.61	   38.62
     23.8603	   39.00	   40.72	 -953.56	   38.56
     23.8937	   36.00	   40.67	 -956.51	   38.51
     23.9271	   41.00	   40.63	 -951.46	   38.46
     23.9606	   35.00	   40.58	 -957.42	   38.40
     23.9940	   49.00	   40.54	 -943.37	   38.35
     24.0274	   40.00	   40.49	 -952.33	   38.29
     24.0608	   53.00	   40.45	 -939.28	   38.24
     24.0943	   35.00	   40.40	 -957.24	   38.18
     24.1277	   52.00	   40.36	 -940.20	   38.13
     24.1611	   48.00	   40.32	 -944.16	   38.08
     24.1945	   48.00	   40.28	 -944.12	   38.02
     24.2280	   47.00	   40.24	 -945.08	   37.97
     24.2614	   37.00	   40.21	 -955.04	   37.91
     24.2948	   46.00	   40.17	 -946.01	   37.86
     24.3282	   48.00	   40.14	 -943.98	   37.81
     24.3616	   39.00	   40.11	 -952.95	   37.75
     24.3951	   34.00	   40.08	 -957.92	   37.70
     24.4285	   39.00	   40.06	 -952.89	   37.65
     24.4619	   45.00	   40.04	 -946.87	   37.59
     24.4953	   50.00	   40.02	 -941.86	   37.54
     24.5288	   32.00	   40.01	 -959.84	   37.49
     24.5622	   32.00	   40.00	 -959.84	   37.43
     24.5956	   52.00	   40.00	 -939.84	   37.38
     24.6290	   42.00	   40.01	 -949.84	   37.33
     24.6624	   35.00	   40.99	 -957.83	   37.27
     24.6959	   38.00	   41.04	 -954.88	   37.22
     24.7293	   35.00	   41.59	 -958.43	   37.17
     24.7627	   46.00	   41.69	 -947.53	   37.11
     24.7961	   46.00	   41.81	 -947.65	   37.06
     24.8296	   46.00	   41.96	 -947.80	   37.01
     24.8630	   42.00	   42.15	 -951.98	   36.96
     24.8964	   48.00	   42.39	 -946.22	   36.90
     24.9298	   42.00	   42.69	 -952.53	   36.85
     24.9632	   45.00	   43.08	 -949.92	   36.80
     24.9967	   43.00	   43.61	 -952.44	   36.75
     25.0301	   45.00	   44.32	 -951.15	   36.69
     25.0635	   48.00	   45.31	 -949.15	   36.64
     25.0969	   50.00	   46.76	 -948.60	   36.59
     25.1304	   47.00	   49.03	 -953.86	   36.54
     25.1638	   47.00	   53.08	 -957.92	   36.48
     25.1972	   58.00	   61.70	 -955.53	   36.43
     25.2306	   97.00	   80.49	 -935.33	   36.38
     25.2640	  106.00	  114.51	 -960.35	   36.33
     25.2975	  158.00	  150.85	 -944.69	   36.28
     25.3309	  160.00	  152.55	 -944.39	   36.23
     25.3643	  127.00	  131.90	 -956.74	   36.17
     25.3977	   86.00	  100.83	 -966.67	   36.12
     25.4312	   68.00	   74.12	 -957.96	   36.07
     25.4646	   56.00	   59.19	 -955.03	   36.02
     25.4980	   56.00	   52.06	 -947.89	   35.97
     25.5314	   47.00	   48.58	 -953.42	   35.92
     25.5649	   56.00	   46.64	 -942.48	   35.87
     25.5983	   43.00	   45.41	 -954.25	   35.81
     25.6317	   54.00	   44.59	 -942.42	   35.76
     25.6651	   41.00	   44.02	 -954.85	   35.71
     25.6985	   40.00	   43.62	 -955.45	   35.66
     25.7320	   46.00	   43.34	 -949.17	   35.61
     25.7654	   53.00	   43.15	 -941.98	   35.56
     25.7988	   57.00	   43.03	 -937.86	   35.51
     25.8322	   43.00	   42.96	 -951.79	   35.46
     25.8657	   41.00	   42.93	 -953.77	   35.41
     25.8991	   49.00	   42.95	 -945.78	   35.36
     25.9325	   45.00	   42.99	 -949.83	   35.31
     25.9659	   45.00	   43.07	 -949.91	   35.26
     25.9993	   45.00	   43.17	 -950.01	   35.20
     26.0328	   40.00	   43.31	 -955.14	   35.15
     26.0662	   56.00	   43.47	 -939.30	   35.10
     26.0996	   40.00	   43.65	 -955.49	   35.05
     26.1330	   48.00	   43.87	 -947.70	   35.00
     26.1665	   48.00	   44.11	 -947.95	   34.95
     26.1999	   62.00	   44.39	 -934.22	   34.90
     26.2333	   53.00	   44.70	 -943.53	   34.85
     26.2667	   45.00	   45.04	 -951.88	   34.80
     26.3001	   52.00	   45.43	 -945.26	   34.75
     26.3336	   48.00	   45.86	 -949.70	   34.70
     26.3670	   38.00	   46.34	 -960.17	   34.65
     26.4004	   60.00	   46.87	 -938.71	   34.60
     26.4338	   51.00	   47.47	 -948.31	   34.56
     26.4673	   61.00	   48.13	 -938.97	   34.51
     26.5007	   62.00	   48.88	 -938.72	   34.46
     26.5341	   73.00	   49.72	 -928.55	   34.41
     26.5675	   62.00	   50.66	 -940.49	   34.36
     26.6010	   84.00	   51.72	 -919.55	   34.31
     26.6344	   72.00	   52.92	 -932.75	   34.26
     26.6678	   75.00	   54.28	 -931.12	   34.21
     26.7012	   79.00	   55.84	 -928.68	   34.16
     26.7346	   60.00	   57.63	 -949.47	   34.11
     26.7681	   85.00	   59.69	 -926.53	   34.06
     26.8015	   84.00	   62.09	 -929.93	   34.01
     26.8349	   70.00	   64.89	 -946.73	   33.97
     26.8683	   77.00	   68.20	 -943.03	   33.92
     26.9018	   85.00	   72.12	 -938.96	   33.87
     26.9352	   87.00	   76.83	 -941.67	   33.82
     26.9686	  111.00	   82.56	 -923.39	   33.77
     27.0020	   99.00	   89.59	 -942.43	   33.72
     27.0354	   92.00	   98.37	 -958.21	   33.67
     27.0689	  123.00	  109.51	 -938.35	   33.63
     27.1023	  120.00	  123.94	 -955.77	   33.58
     27.1357	  142.00	  143.05	 -952.88	   33.53
     27.1691	  200.00	  169.10	 -920.94	   33.48
     27.2026	  203.00	  205.86	 -954.70	   33.43
     27.2360	  279.00	  260.27	 -933.11	   33.38
     27.2694	  343.00	  348.11	 -956.95	   33.34
     27.3028	  551.00	  514.30	 -915.14	   33.29
     27.3362	  850.00	  877.07	 -978.91	   33.24
     27.3697	 1517.00	 1637.07	-1071.91	   33.19
     27.4031	 2974.00	 2869.08	 -846.92	   33.15
     27.4365	 3696.00	 3807.35	-1063.18	   33.10
     27.4699	 3592.00	 3535.37	 -895.21	   33.05
     27.5034	 2775.00	 2838.36	-1015.19	   33.00
     27.5368	 1873.00	 1853.62	 -932.46	   32.96
     27.5702	  983.00	 1046.83	-1015.67	   32.91
     27.6036	  590.00	  600.49	 -962.32	   32.86
     27.6371	  364.00	  385.34	 -973.17	   32.81
     27.6705	  275.00	  278.05	 -954.88	   32.77
     27.7039	  199.00	  216.04	 -968.88	   32.72
     27.7373	  164.00	  175.50	 -963.34	   32.67
     27.7707	  124.00	  147.19	 -975.02	   32.62
     27.8042	  109.00	  126.59	 -969.43	   32.58
     27.8376	  125.00	  111.15	 -937.98	   32.53
     27.8710	  104.00	   99.27	 -947.10	   32.48
     27.9044	   85.00	   89.93	 -956.77	   32.44
     27.9379	  106.00	   82.46	 -928.29	   32.39
     27.9713	   86.00	   76.38	 -942.22	   32.34
     28.0047	   71.00	   71.37	 -952.21	   32.30
     28.0381	   82.00	   67.19	 -937.03	   32.25
     28.0715	   72.00	   63.67	 -943.51	   32.20
     28.1050	   72.00	   60.67	 -940.51	   32.16
     28.1384	   63.00	   58.06	 -946.90	   32.11
     28.1718	   71.00	   55.82	 -936.66	   32.07
     28.2052	   69.00	   53.88	 -936.71	   32.02
     28.2387	   51.00	   52.17	 -953.01	   31.97
     28.2721	   49.00	   50.66	 -953.50	   31.93
     28.3055	   61.00	   49.33	 -940.16	   31.88
     28.3389	   48.00	   48.13	 -951.97	   31.83
     28.3723	   56.00	   47.06	 -942.90	   31.79
     28.4058	   60.00	   46.10	 -937.94	   31.74
     28.4392	   62.00	   45.23	 -935.06	   31.70
     28.4726	   48.00	   44.44	 -948.27	   31.65
     28.5060	   60.00	   43.72	 -935.55	   31.61
     28.5395	   58.00	   43.06	 -936.89	   31.56
     28.5729	   49.00	   42.45	 -945.29	   31.51
     28.6063	   51.00	   41.89	 -942.73	   31.47
     28.6397	   43.00	   41.38	 -950.22	   31.42
     28.6731	   45.00	   40.90	 -947.74	   31.38
     28.7066	   43.00	   40.46	 -949.30	   31.33
     28.7400	   38.00	   40.05	 -953.89	   31.29
     28.7734	   42.00	   39.67	 -949.50	   31.24
     28.8068	   47.00	   39.31	 -944.14	   31.20
     28.8403	   30.00	   38.97	 -960.81	   31.15
     28.8737	   40.00	   38.65	 -950.49	   31.11
     28.9071	   49.00	   38.36	 -941.19	   31.06
     28.9405	   36.00	   38.08	 -953.91	   31.02
     28.9740	   27.00	   37.81	 -962.65	   30.97
     29.0074	   40.00	   37.56	 -949.40	   30.93
     29.0408	   41.00	   37.32	 -948.16	   30.88
     29.0742	   43.00	   37.10	 -945.93	   30.84
     29.1076	   41.00	   36.88	 -947.72	   30.79
     29.1411	   36.00	   36.68	 -952.51	   30.75
     29.1745	   33.00	   36.48	 -955.32	   30.71
     29.2079	   24.00	   36.29	 -964.13	   30.66
     29.2413	   38.00	   36.12	 -949.95	   30.62
     29.2748	   45.00	   35.94	 -942.78	   30.57
     29.3082	   41.00	   35.78	 -946.62	   30.53
     29.3416	   38.00	   35.62	 -949.46	   30.48
     29.3750	   24.00	   35.47	 -963.31	   30.44
     29.4084	   38.00	   35.32	 -949.16	   30.40
     29.4419	   45.00	   35.18	 -942.02	   30.35
     29.4753	   43.00	   35.04	 -943.88	   30.31
     29.5087	   41.00	   34.91	 -945.75	   30.26
     29.5421	   38.00	   34.78	 -948.62	   30.22
     29.5756	   22.00	   34.66	 -964.50	   30.18
     29.6090	   38.00	   34.54	 -948.38	   30.13
     29.6424	   36.00	   34.42	 -950.26	   30.09
     29.6758	   27.00	   34.31	 -959.15	   30.05
     29.7092	   34.00	   34.20	 -952.04	   30.00
     29.7427	   40.00	   34.09	 -945.93	   29.96
     29.7761	   33.00	   33.99	 -952.83	   29.92
     29.8095	   36.00	   33.89	 -949.72	   29.87
     29.8429	   35.00	   33.79	 -950.62	   29.83
     29.8764	   37.00	   33.69	 -948.53	   29.79
     29.9098	   38.00	   33.60	 -947.43	   29.74
     29.9432	   28.00	   33.50	 -957.34	   29.70
     29.9766	   28.00	   33.41	 -957.25	   29.66
     30.0101	   34.00	   33.33	 -951.16	   29.61
     30.0435	   39.00	   33.24	 -946.08	   29.57
     30.0769	   32.00	   33.15	 -952.99	   29.53
     30.1103	   42.00	   33.07	 -942.91	   29.49
     30.1437	   35.00	   32.99	 -949.83	   29.44
     30.1772	   27.00	   32.91	 -957.75	   29.40
     30.2106	   34.00	   32.83	 -950.67	   29.36
     30.2440	   41.00	   31.81	 -942.65	   29.32
     30.2774	   24.00	   31.76	 -959.59	   29.27
     30.3109	   24.00	   31.23	 -959.07	   29.23
     30.3443	   30.00	   31.19	 -953.03	   29.19
     30.3777	   34.00	   31.15	 -948.99	   29.15
     30.4111	   34.00	   31.11	 -948.94	   29.10
     30.4445	   34.00	   31.07	 -948.90	   29.06
     30.4780	   30.00	   31.02	 -952.86	   29.02
     30.5114	   27.00	   30.98	 -955.82	   28.98
     30.5448	   30.00	   30.94	 -952.78	   28.94
     30.5782	   22.00	   30.90	 -960.73	   28.89
     30.6117	   27.00	   30.86	 -955.69	   28.85
     30.6451	   23.00	   30.81	 -959.65	   28.81
     30.6785	   43.00	   30.77	 -939.61	   28.77
     30.7119	   37.00	   30.73	 -945.57	   28.73
     30.7453	   41.00	   30.69	 -941.53	   28.69
     30.7788	   26.00	   30.65	 -956.48	   28.64
     30.8122	   40.00	   30.61	 -942.44	   28.60
     30.8456	   37.00	   30.56	 -945.40	   28.56
     30.8790	   32.00	   30.52	 -950.36	   28.52
     30.9125	   30.00	   30.48	 -952.32	   28.48
     30.9459	   26.00	   30.44	 -956.28	   28.44
     30.9793	   34.00	   30.40	 -948.24	   28.40
     31.0127	   35.00	   30.36	 -947.19	   28.35
     31.0462	   35.00	   30.32	 -947.15	   28.31
     31.0796	   19.00	   30.28	 -963.11	   28.27
     31.1130	   42.00	   30.24	 -940.07	   28.23
     31.1464	   32.00	   30.19	 -950.03	   28.19
     31.1798	   22.00	   30.15	 -959.99	   28.15
     31.2133	   38.00	   30.11	 -943.95	   28.11
     31.2467	   32.00	   30.07	 -949.91	   28.07
     31.2801	   26.00	   30.03	 -955.87	   28.03
     31.3135	   39.00	   29.99	 -942.83	   27.99
     31.3470	   28.00	   29.95	 -953.79	   27.95
     31.3804	   28.00	   29.91	 -953.75	   27.91
     31.4138	   19.00	   29.87	 -962.71	   27.87
     31.4472	   30.00	   29.83	 -951.67	   27.83
     31.4806	   45.00	   29.79	 -936.63	   27.79
     31.5141	   18.00	   29.75	 -963.58	   27.74
     31.5475	   38.00	   29.71	 -943.54	   27.70
     31.5809	   45.00	   29.67	 -936.50	   27.66
     31.6143	   34.00	   29.63	 -947.46	   27.62
     31.6478	   19.00	   29.59	 -962.42	   27.58
     31.6812	   25.00	   29.55	 -956.38	   27.54
     31.7146	   42.00	   29.51	 -939.34	   27.50
     31.7480	   22.00	   29.47	 -959.30	   27.46
     31.7814	   28.00	   29.43	 -953.26	   27.43
     31.8149	   23.00	   29.39	 -958.23	   27.39
     31.8483	   26.00	   29.35	 -955.19	   27.35
     31.8817	   37.00	   29.31	 -944.15	   27.31
     31.9151	   25.00	   29.27	 -956.11	   27.27
     31.9486	   33.00	   29.23	 -948.07	   27.23
     31.9820	   28.00	   29.19	 -953.03	   27.19
     32.0154	   26.00	   29.15	 -954.99	   27.15
     32.0488	   32.00	   29.11	 -948.95	   27.11
     32.0822	   26.00	   29.07	 -954.91	   27.07
     32.1157	   35.00	   29.03	 -945.87	   27.03
     32.1491	   28.00	   28.99	 -952.83	   26.99
     32.1825	   35.00	   28.96	 -945.79	   26.95
     32.2159	   30.00	   28.92	 -950.75	   26.91
     32.2494	   38.00	   28.88	 -942.71	   26.87
     32.2828	   32.00	   28.84	 -948.67	   26.84
     32.3162	   33.00	   28.80	 -947.64	   26.80
     32.3496	   31.00	   28.76	 -949.60	   26.76
     32.3830	   22.00	   28.72	 -958.56	   26.72
     32.4165	   23.00	   28.68	 -957.52	   26.68
     32.4499	   35.00	   28.64	 -945.48	   26.64
     32.4833	   34.00	   28.61	 -946.44	   26.60
     32.5167	   32.00	   28.57	 -948.40	   26.56
     32.5502	   26.00	   28.53	 -954.37	   26.53
     32.5836	   33.00	   28.49	 -947.33	   26.49
     32.6170	   25.00	   28.45	 -955.29	   26.45
     32.6504	   26.00	   28.41	 -954.25	   26.41
     32.6839	   30.00	   28.38	 -950.21	   26.37
     32.7173	   30.00	   28.34	 -950.17	   26.33
     32.7507	   35.00	   28.30	 -945.14	   26.30
     32.7841	   40.00	   28.26	 -940.10	   26.26
     32.8175	   25.00	   28.22	 -955.06	   26.22
     32.8510	   28.00	   28.19	 -952.02	   26.18
     32.8844	   25.00	   28.15	 -954.98	   26.14
     32.9178	   27.00	   28.11	 -952.95	   26.11
     32.9512	   24.00	   28.07	 -955.91	   26.07
     32.9847	   33.00	   28.03	 -946.87	   26.03
     33.0181	   28.00	   28.00	 -951.83	   25.99
     33.0515	   22.00	   27.96	 -957.80	   25.96
     33.0849	   26.00	   27.92	 -953.76	   25.92
     33.1183	   19.00	   27.88	 -960.72	   25.88
     33.1518	   15.00	   27.85	 -964.68	   25.84
     33.1852	   21.00	   27.81	 -958.65	   25.81
     33.2186	   34.00	   28.19	 -946.03	   25.77
     33.2520	   22.00	   28.16	 -958.00	   25.73
     33.2855	   34.00	   28.14	 -945.97	   25.69
     33.3189	   18.00	   28.32	 -962.16	   25.66
     33.3523	   24.00	   28.30	 -956.14	   25.62
     33.3857	   18.00	   28.28	 -962.12	   25.58
     33.4192	   23.00	   28.26	 -957.10	   25.54
     33.4526	   24.00	   28.24	 -956.08	   25.51
     33.4860	   31.00	   28.22	 -949.06	   25.47
     33.5194	   37.00	   28.21	 -943.04	   25.43
     33.5528	   37.00	   28.19	 -943.03	   25.40
     33.5863	   33.00	   28.17	 -947.01	   25.36
     33.6197	   24.00	   28.16	 -956.00	   25.32
     33.6531	   24.00	   28.15	 -955.98	   25.29
     33.6865	   18.00	   28.13	 -961.97	   25.25
     33.7200	   18.00	   28.12	 -961.96	   25.21
     33.7534	   25.00	   28.11	 -954.95	   25.18
     33.7868	   20.00	   28.10	 -959.94	   25.14
     33.8202	   25.00	   28.09	 -954.93	   25.11
     33.8536	   19.00	   28.09	 -960.92	   25.07
     33.8871	   33.00	   28.08	 -946.92	   25.03
     33.9205	   17.00	   28.08	 -962.91	   25.00
     33.9539	   25.00	   28.07	 -954.91	   24.96
     33.9873	   27.00	   28.07	 -952.91	   24.92
     34.0208	   30.00	   28.07	 -949.91	   24.89
     34.0542	   34.00	   28.08	 -945.91	   24.85
     34.0876	   33.00	   28.08	 -946.92	   24.82
     34.1210	   32.00	   28.09	 -947.93	   24.78
     34.1544	   20.00	   28.10	 -959.94	   24.74
     34.1879	   28.00	   28.11	 -951.95	   24.71
     34.2213	   18.00	   28.13	 -961.96	   24.67
     34.2547	   28.00	   28.14	 -951.98	   24.64
     34.2881	   26.00	   28.16	 -954.00	   24.60
     34.3216	   26.00	   28.19	 -954.02	   24.57
     34.3550	   19.00	   28.22	 -961.05	   24.53
     34.3884	   18.00	   28.25	 -962.08	   24.50
     34.4218	   38.00	   28.28	 -942.12	   24.46
     34.4552	   28.00	   28.32	 -952.16	   24.42
     34.4887	   31.00	   28.36	 -949.20	   24.39
     34.5221	   28.00	   28.41	 -952.25	   24.35
     34.5555	   26.00	   28.47	 -954.30	   24.32
     34.5889	   39.00	   28.53	 -941.36	   24.28
     34.6224	   27.00	   28.59	 -953.43	   24.25
     34.6558	   25.00	   28.67	 -955.50	   24.21
     34.6892	   38.00	   28.75	 -942.59	   24.18
     34.7226	   24.00	   28.84	 -956.68	   24.14
     34.7561	   31.00	   28.94	 -949.78	   24.11
     34.7895	   33.00	   29.05	 -947.89	   24.07
     34.8229	   38.00	   29.17	 -943.01	   24.04
     34.8563	   31.00	   29.31	 -950.14	   24.01
     34.8897	   35.00	   29.46	 -946.29	   23.97
     34.9232	   34.00	   29.63	 -947.46	   23.94
     34.9566	   27.00	   29.81	 -954.65	   23.90
     34.9900	   31.00	   30.01	 -950.85	   23.87
     35.0234	   36.00	   30.24	 -946.08	   23.83
     35.0569	   31.00	   30.49	 -951.33	   23.80
     35.0903	   35.00	   30.77	 -947.61	   23.76
     35.1237	   31.00	   31.08	 -951.92	   23.73
     35.1571	   28.00	   31.43	 -955.27	   23.70
     35.1905	   30.00	   31.82	 -953.66	   23.66
     35.2240	   34.00	   32.26	 -950.10	   23.63
     35.2574	   35.00	   32.76	 -949.60	   23.59
     35.2908	   37.00	   33.33	 -948.16	   23.56
     35.3242	   35.00	   33.97	 -950.81	   23.53
     35.3577	   22.00	   34.71	 -964.55	   23.49
     35.3911	   45.00	   35.56	 -942.39	   23.46
     35.4245	   34.00	   36.54	 -954.38	   23.42
     35.4579	   33.00	   37.68	 -956.52	   23.39
     35.4913	   48.00	   39.02	 -942.86	   23.36
     35.5248	   41.00	   40.60	 -951.44	   23.32
     35.5582	   41.00	   42.49	 -953.33	   23.29
     35.5916	   46.00	   44.77	 -950.61	   23.26
     35.6250	   54.00	   47.55	 -945.39	   23.22
     35.6585	   54.00	   50.98	 -948.82	   23.19
     35.6919	   62.00	   55.29	 -945.13	   23.16
     35.7253	   72.00	   60.79	 -940.63	   23.12
     35.7587	   65.00	   67.97	 -954.81	   23.09
     35.7921	   73.00	   77.57	 -956.41	   23.06
     35.8256	   86.00	   90.81	 -956.65	   23.02
     35.8590	   93.00	  109.80	 -968.64	   22.99
     35.8924	  153.00	  138.79	 -937.62	   22.96
     35.9258	  177.00	  188.85	 -963.69	   22.92
     35.9593	  235.00	  290.97	-1007.81	   22.89
     35.9927	  439.00	  510.80	-1023.64	   22.86
     36.0261	  818.00	  919.66	-1053.50	   22.83
     36.0595	 1407.00	 1428.36	 -973.20	   22.79
     36.0930	 1425.00	 1553.15	-1079.99	   22.76
     36.1264	 1317.00	 1313.22	 -948.05	   22.73
     36.1598	 1014.00	 1126.43	-1064.27	   22.70
     36.1932	  810.00	  839.83	 -981.67	   22.66
     36.2266	  454.00	  513.45	-1011.29	   22.63
     36.2601	  268.00	  301.38	 -985.22	   22.60
     36.2935	  186.00	  191.58	 -957.41	   22.57
     36.3269	  127.00	  137.43	 -962.27	   22.53
     36.3603	   80.00	  107.71	 -979.55	   22.50
     36.3938	   55.00	   88.92	 -985.76	   22.47
     36.4272	   65.00	   75.92	 -962.76	   22.44
     36.4606	   73.00	   66.51	 -945.34	   22.40
     36.4940	   58.00	   59.47	 -953.31	   22.37
     36.5274	   55.00	   54.07	 -950.91	   22.34
     36.5609	   50.00	   49.83	 -951.67	   22.31
     36.5943	   40.00	   46.45	 -958.29	   22.28
     36.6277	   39.00	   43.72	 -956.55	   22.24
     36.6611	   46.00	   41.47	 -947.31	   22.21
     36.6946	   30.00	   39.62	 -961.46	   22.18
     36.7280	   27.00	   38.09	 -962.92	   22.15
     36.7614	   35.00	   36.82	 -953.66	   22.12
     36.7948	   37.00	   35.82	 -950.65	   22.09
     36.8282	   30.00	   35.12	 -956.96	   22.05
     36.8617	   25.00	   34.93	 -961.77	   22.02
     36.8951	   33.00	   35.55	 -954.39	   21.99
     36.9285	   37.00	   37.01	 -951.85	   21.96
     36.9619	   31.00	   37.86	 -958.69	   21.93
     36.9954	   38.00	   36.60	 -950.44	   21.90
     37.0288	   16.00	   35.20	 -971.04	   21.87
     37.0622	   35.00	   33.90	 -950.74	   21.83
     37.0956	   22.00	   32.10	 -961.93	   21.80
     37.1291	   32.00	   30.59	 -950.43	   21.77
     37.1625	   22.00	   29.62	 -959.46	   21.74
     37.1959	   23.00	   29.01	 -957.84	   21.71
     37.2293	   33.00	   28.58	 -947.42	   21.68
     37.2627	   23.00	   28.25	 -957.08	   21.65
     37.2962	   25.00	   27.97	 -954.81	   21.62
     37.3296	   35.00	   27.74	 -944.57	   21.59
     37.3630	   28.00	   27.54	 -951.38	   21.56
     37.3964	   34.00	   27.37	 -945.21	   21.53
     37.4299	   31.00	   27.24	 -948.07	   21.49
     37.4633	   20.00	   27.13	 -958.97	   21.46
     37.4967	   16.00	   27.07	 -962.91	   21.43
     37.5301	   28.00	   27.05	 -950.89	   21.40
     37.5635	   16.00	   27.09	 -962.93	   21.37
     37.5970	   27.00	   27.23	 -952.07	   21.34
     37.6304	   43.00	   27.52	 -936.35	   21.31
     37.6638	   24.00	   28.12	 -955.96	   21.28
     37.6972	   40.00	   29.50	 -941.33	   21.25
     37.7307	   32.00	   32.56	 -952.40	   21.22
     37.7641	   28.00	   38.18	 -962.01	   21.19
     37.7975	   40.00	   44.74	 -956.58	   21.16
     37.8309	   43.00	   45.60	 -954.43	   21.13
     37.8643	   34.00	   42.12	 -959.96	   21.10
     37.8978	   46.00	   39.81	 -945.65	   21.07
     37.9312	   42.00	   36.28	 -946.12	   21.04
     37.9646	   23.00	   31.89	 -960.73	   21.01
     37.9980	   26.00	   28.91	 -954.75	   20.98
     38.0315	   33.00	   27.32	 -946.16	   20.95
     38.0649	   30.00	   26.52	 -948.36	   20.92
     38.0983	   32.00	   26.08	 -945.92	   20.89
     38.1317	   35.00	   25.80	 -942.64	   20.86
     38.1651	   31.00	   25.61	 -946.45	   20.83
     38.1986	   22.00	   25.48	 -955.32	   20.80
     38.2320	   23.00	   25.40	 -954.24	   20.77
     38.2654	   22.00	   25.36	 -955.20	   20.74
     38.2988	   20.00	   25.36	 -957.19	   20.72
     38.3323	   24.00	   25.57	 -953.41	   20.69
     38.3657	   25.00	   25.67	 -952.50	   20.66
     38.3991	   19.00	   25.85	 -958.68	   20.63
     38.4325	   20.00	   26.28	 -958.12	   20.60
     38.4660	   22.00	   27.02	 -956.86	   20.57
     38.4994	   21.00	   28.51	 -959.35	   20.54
     38.5328	   34.00	   30.92	 -948.76	   20.51
     38.5662	   28.00	   33.00	 -956.84	   20.48
     38.5996	   33.00	   32.63	 -951.46	   20.45
     38.6331	   27.00	   31.66	 -956.50	   20.42
     38.6665	   33.00	   31.15	 -949.98	   20.40
     38.6999	   38.00	   30.03	 -943.87	   20.37
     38.7333	   27.00	   28.96	 -953.79	   20.34
     38.7668	   25.00	   28.53	 -955.36	   20.31
     38.8002	   22.00	   28.67	 -958.51	   20.28
     38.8336	   28.00	   29.22	 -953.05	   20.25
     38.8670	   20.00	   30.11	 -961.95	   20.22
     38.9004	   21.00	   31.41	 -962.25	   20.20
     38.9339	   38.00	   33.26	 -947.10	   20.17
     38.9673	   33.00	   35.56	 -954.40	   20.14
     39.0007	   37.00	   39.73	 -954.57	   20.11
     39.0341	   50.00	   46.94	 -948.78	   20.08
     39.0676	   56.00	   61.38	 -957.21	   20.05
     39.1010	   76.00	   92.75	 -968.59	   20.03
     39.1344	  130.00	  151.14	 -972.97	   20.00
     39.1678	  191.00	  225.35	 -986.19	   19.97
     39.2012	  231.00	  246.63	 -967.46	   19.94
     39.2347	  203.00	  209.35	 -958.18	   19.91
     39.2681	  145.00	  184.17	 -991.01	   19.89
     39.3015	  147.00	  154.87	 -959.71	   19.86
     39.3349	   95.00	  107.70	 -964.54	   19.83
     39.3684	   75.00	   71.37	 -948.21	   19.80
     39.4018	   31.00	   51.17	 -972.00	   19.77
     39.4352	   42.00	   41.16	 -950.99	   19.75
     39.4686	   36.00	   35.92	 -951.75	   19.72
     39.5021	   22.00	   32.75	 -962.58	   19.69
     39.5355	   17.00	   30.60	 -965.44	   19.66
     39.5689	   19.00	   29.07	 -961.91	   19.64
     39.6023	   30.00	   27.94	 -949.78	   19.61
     39.6357	   24.00	   27.08	 -954.91	   19.58
     39.6692	   18.00	   26.41	 -960.25	   19.55
     39.7026	   17.00	   25.88	 -960.72	   19.53
     39.7360	   23.00	   25.46	 -954.29	   19.50
     39.7694	   23.00	   25.11	 -953.95	   19.47
     39.8029	   12.00	   24.83	 -964.67	   19.45
     39.8363	   13.00	   24.60	 -963.44	   19.42
     39.8697	   24.00	   24.41	 -952.25	   19.39
     39.9031	   24.00	   24.26	 -952.10	   19.36
     39.9365	   22.00	   24.14	 -953.97	   19.34
     39.9700	   19.00	   24.04	 -956.87	   19.31
     40.0034	   23.00	   23.96	 -952.80	   19.28
     40.0368	   30.00	   23.91	 -945.74	   19.26
     40.0702	   23.00	   23.87	 -952.70	   19.23
     40.1037	   26.00	   23.85	 -949.68	   19.20
     40.1371	   19.00	   23.84	 -956.68	   19.18
     40.1705	   33.00	   23.86	 -942.69	   19.15
     40.2039	   17.00	   23.89	 -958.72	   19.12
     40.2373	   24.00	   23.93	 -951.77	   19.10
     40.2708	   33.00	   24.00	 -942.83	   19.07
     40.3042	   27.00	   24.08	 -948.92	   19.04
     40.3376	   23.00	   24.19	 -953.02	   19.02
     40.3710	   20.00	   24.32	 -956.15	   18.99
     40.4045	   28.00	   24.47	 -948.31	   18.96
     40.4379	   20.00	   24.65	 -956.49	   18.94
     40.4713	   17.00	   24.87	 -959.71	   18.91
     40.5047	   28.00	   25.12	 -948.96	   18.89
     40.5382	   21.00	   25.43	 -956.26	   18.86
     40.5716	   18.00	   25.78	 -959.62	   18.83
     40.6050	   28.00	   26.20	 -950.03	   18.81
     40.6384	   28.00	   26.69	 -950.53	   18.78
     40.6718	   21.00	   27.29	 -958.12	   18.76
     40.7053	   23.00	   27.99	 -956.83	   18.73
     40.7387	   31.00	   28.85	 -949.69	   18.70
     40.7721	   33.00	   29.90	 -948.73	   18.68
     40.8055	   38.00	   31.19	 -945.03	   18.65
     40.8390	   27.00	   32.82	 -957.65	   18.63
     40.8724	   39.00	   34.88	 -947.72	   18.60
     40.9058	   40.00	   37.56	 -949.40	   18.58
     40.9392	   40.00	   41.12	 -952.96	   18.55
     40.9726	   47.00	   45.97	 -950.80	   18.52
     41.0061	   77.00	   52.82	 -927.65	   18.50
     41.0395	   69.00	   63.02	 -945.85	   18.47
     41.0729	   91.00	   79.82	 -940.66	   18.45
     41.1063	  117.00	  112.43	 -947.27	   18.42
     41.1398	  181.00	  182.03	 -952.87	   18.40
     41.1732	  302.00	  318.46	 -968.30	   18.37
     41.2066	  571.00	  518.84	 -899.67	   18.35
     41.2400	  724.00	  638.20	 -866.04	   18.32
     41.2734	  602.00	  555.19	 -905.02	   18.30
     41.3069	  521.00	  467.18	 -898.02	   18.27
     41.3403	  469.00	  419.11	 -901.95	   18.25
     41.3737	  342.00	  311.09	 -920.93	   18.22
     41.4071	  201.00	  194.51	 -945.34	   18.20
     41.4406	  143.00	  120.45	 -929.28	   18.17
     41.4740	   93.00	   82.15	 -940.99	   18.15
     41.5074	   67.00	   62.98	 -947.81	   18.12
     41.5408	   66.00	   52.18	 -938.01	   18.10
     41.5742	   35.00	   45.20	 -962.04	   18.07
     41.6077	   47.00	   40.31	 -945.15	   18.05
     41.6411	   41.00	   36.73	 -947.57	   18.02
     41.6745	   31.00	   34.03	 -954.87	   18.00
     41.7079	   22.00	   31.94	 -961.78	   17.97
     41.7414	   35.00	   30.28	 -947.12	   17.95
     41.7748	   26.00	   28.95	 -954.78	   17.93
     41.8082	   22.00	   27.85	 -957.69	   17.90
     41.8416	   25.00	   26.95	 -953.78	   17.88
     41.8751	   25.00	   26.19	 -953.02	   17.85
     41.9085	   34.00	   25.54	 -943.38	   17.83
     41.9419	   32.00	   24.99	 -944.82	   17.80
     41.9753	   34.00	   24.51	 -942.34	   17.78
     42.0087	   35.00	   24.09	 -940.93	   17.76
     42.0422	   22.00	   23.72	 -953.56	   17.73
     42.0756	   22.00	   23.40	 -953.24	   17.71
     42.1090	   24.00	   23.05	 -950.89	   17.68
     42.1424	   18.00	   22.80	 -956.64	   17.66
     42.1759	   13.00	   22.57	 -961.41	   17.64
     42.2093	   15.00	   22.34	 -959.17	   17.61
     42.2427	   26.00	   22.15	 -947.99	   17.59
     42.2761	   32.00	   21.99	 -941.82	   17.56
     42.3095	   21.00	   21.83	 -952.67	   17.54
     42.3430	   24.00	   21.69	 -949.53	   17.52
     42.3764	   27.00	   21.57	 -946.40	   17.49
     42.4098	   24.00	   21.45	 -949.29	   17.47
     42.4432	   15.00	   21.34	 -958.18	   17.45
     42.4767	   21.00	   21.25	 -952.08	   17.42
     42.5101	   23.00	   21.16	 -949.99	   17.40
     42.5435	   27.00	   21.07	 -945.91	   17.38
     42.5769	   27.00	   21.00	 -945.83	   17.35
     42.6103	   17.00	   20.93	 -955.76	   17.33
     42.6438	   24.00	   20.86	 -948.70	   17.31
     42.6772	   26.00	   20.80	 -946.64	   17.28
     42.7106	   21.00	   20.75	 -951.59	   17.26
     42.7440	   13.00	   20.70	 -959.54	   17.24
     42.7775	   26.00	   20.66	 -946.49	   17.21
     42.8109	   16.00	   20.62	 -956.45	   17.19
     42.8443	   23.00	   20.58	 -949.42	   17.17
     42.8777	   22.00	   20.55	 -950.39	   17.14
     42.9111	   16.00	   20.53	 -956.37	   17.12
     42.9446	   32.00	   20.51	 -940.35	   17.10
     42.9780	   22.00	   20.49	 -950.33	   17.07
     43.0114	   23.00	   20.49	 -949.32	   17.05
     43.0448	   27.00	   20.48	 -945.32	   17.03
     43.0783	   19.00	   20.49	 -953.32	   17.01
     43.1117	   19.00	   20.50	 -953.33	   16.98
     43.1451	   23.00	   20.51	 -949.35	   16.96
     43.1785	   30.00	   20.54	 -942.38	   16.94
     43.2120	   19.00	   20.58	 -953.41	   16.92
     43.2454	   23.00	   20.62	 -949.46	   16.89
     43.2788	   24.00	   20.68	 -948.52	   16.87
     43.3122	   16.00	   20.76	 -956.59	   16.85
     43.3456	   21.00	   20.85	 -951.68	   16.83
     43.3791	   20.00	   20.96	 -952.79	   16.80
     43.4125	   16.00	   21.09	 -956.93	   16.78
     43.4459	   11.00	   21.26	 -962.09	   16.76
     43.4793	   15.00	   21.46	 -958.29	   16.74
     43.5128	   31.00	   21.70	 -942.54	   16.72
     43.5462	   34.00	   22.00	 -939.84	   16.69
     43.5796	   32.00	   22.37	 -942.21	   16.67
     43.6130	   25.00	   22.83	 -949.67	   16.65
     43.6464	   28.00	   23.42	 -947.26	   16.63
     43.6799	   23.00	   24.17	 -953.01	   16.61
     43.7133	   30.00	   25.16	 -946.99	   16.58
     43.7467	   34.00	   26.47	 -944.31	   16.56
     43.7801	   28.00	   28.28	 -952.12	   16.54
     43.8136	   35.00	   30.85	 -947.69	   16.52
     43.8470	   37.00	   34.72	 -949.56	   16.50
     43.8804	   40.00	   41.25	 -953.08	   16.47
     43.9138	   62.00	   54.13	 -943.97	   16.45
     43.9473	   98.00	   81.52	 -935.36	   16.43
     43.9807	  144.00	  133.38	 -941.22	   16.41
     44.0141	  208.00	  204.51	 -948.34	   16.39
     44.0475	  261.00	  236.92	 -927.76	   16.37
     44.0809	  203.00	  200.89	 -949.73	   16.35
     44.1144	  176.00	  170.47	 -946.30	   16.32
     44.1478	  171.00	  158.91	 -939.74	   16.30
     44.1812	  126.00	  126.34	 -952.18	   16.28
     44.2146	   98.00	   84.83	 -938.67	   16.26
     44.2481	   52.00	   56.69	 -956.53	   16.24
     44.2815	   26.00	   41.60	 -967.44	   16.22
     44.3149	   30.00	   34.10	 -955.94	   16.20
     44.3483	   24.00	   29.96	 -957.80	   16.18
     44.3817	   28.00	   27.34	 -951.17	   16.15
     44.4152	   18.00	   25.51	 -959.34	   16.13
     44.4486	   27.00	   24.17	 -949.00	   16.11
     44.4820	   15.00	   23.16	 -959.99	   16.09
     44.5154	   25.00	   22.37	 -949.21	   16.07
     44.5489	   20.00	   21.75	 -953.58	   16.05
     44.5823	   22.00	   21.24	 -951.08	   16.03
     44.6157	   20.00	   20.83	 -952.67	   16.01
     44.6491	   20.00	   20.48	 -952.32	   15.99
     44.6825	   12.00	   20.19	 -960.03	   15.97
     44.7160	   21.00	   19.94	 -950.78	   15.95
     44.7494	   19.00	   19.72	 -952.56	   15.93
     44.7828	    7.00	   19.54	 -964.37	   15.90
     44.8162	   17.00	   19.37	 -954.21	   15.88
     44.8497	   11.00	   19.22	 -960.06	   15.86
     44.8831	   23.00	   19.09	 -947.93	   15.84
     44.9165	   13.00	   18.97	 -957.81	   15.82
     44.9499	   28.00	   18.87	 -942.70	   15.80
     44.9833	   12.00	   18.77	 -958.60	   15.78
     45.0168	   13.00	   18.68	 -957.52	   15.76
     45.0502	   15.00	   18.60	 -955.43	   15.74
     45.0836	   18.00	   18.53	 -952.37	   15.72
     45.1170	   18.00	   18.46	 -952.29	   15.70
     45.1505	   16.00	   18.39	 -954.23	   15.68
     45.1839	   17.00	   18.33	 -953.17	   15.66
     45.2173	   17.00	   18.28	 -953.11	   15.64
     45.2507	   12.00	   18.22	 -958.06	   15.62
     45.2841	   17.00	   18.17	 -953.01	   15.60
     45.3176	    7.00	   18.12	 -962.96	   15.58
     45.3510	   15.00	   18.07	 -954.91	   15.56
     45.3844	   12.00	   18.03	 -957.87	   15.54
     45.4178	   19.00	   17.99	 -950.82	   15.52
     45.4513	   13.00	   17.95	 -956.78	   15.50
     45.4847	   11.00	   17.91	 -958.74	   15.48
     45.5181	   19.00	   17.87	 -950.71	   15.46
     45.5515	   18.00	   17.83	 -951.67	   15.44
     45.5850	   17.00	   17.80	 -952.63	   15.42
     45.6184	   19.00	   17.76	 -950.60	   15.40
     45.6518	   10.00	   17.73	 -959.57	   15.38
     45.6852	   23.00	   17.70	 -946.53	   15.36
     45.7186	   15.00	   17.67	 -954.50	   15.35
     45.7521	   16.00	   17.63	 -953.47	   15.33
     45.7855	   17.00	   17.60	 -952.44	   15.31
     45.8189	   21.00	   17.58	 -948.41	   15.29
     45.8523	   17.00	   17.55	 -952.38	   15.27
     45.8858	   20.00	   17.52	 -949.36	   15.25
     45.9192	   19.00	   17.49	 -950.33	   15.23
     45.9526	   18.00	   17.47	 -951.30	   15.21
     45.9860	   20.00	   17.44	 -949.28	   15.19
     46.0194	   16.00	   17.41	 -953.25	   15.17
     46.0529	   17.00	   17.39	 -952.22	   15.15
     46.0863	   13.00	   17.36	 -956.20	   15.13
     46.1197	   19.00	   17.34	 -950.17	   15.12
     46.1531	   12.00	   17.31	 -957.15	   15.10
     46.1866	   10.00	   17.29	 -959.13	   15.08
     46.2200	   15.00	   17.27	 -954.10	   15.06
     46.2534	   17.00	   17.24	 -952.08	   15.04
     46.2868	    9.00	   17.22	 -960.06	   15.02
     46.3203	   23.00	   17.20	 -946.04	   15.00
     46.3537	   13.00	   17.18	 -956.01	   14.98
     46.3871	   21.00	   17.16	 -947.99	   14.97
     46.4205	   10.00	   17.13	 -958.97	   14.95
     46.4539	   16.00	   17.11	 -952.95	   14.93
     46.4874	   12.00	   17.09	 -956.93	   14.91
     46.5208	   17.00	   17.07	 -951.91	   14.89
     46.5542	   16.00	   17.05	 -952.89	   14.87
     46.5876	   18.00	   17.03	 -950.87	   14.85
     46.6211	   17.00	   17.01	 -951.85	   14.84
     46.6545	   15.00	   16.99	 -953.83	   14.82
     46.6879	   19.00	   16.97	 -949.81	   14.80
     46.7213	   19.00	   16.96	 -949.79	   14.78
     46.7547	   16.00	   16.94	 -952.77	   14.76
     46.7882	   13.00	   16.92	 -955.76	   14.74
     46.8216	   19.00	   16.90	 -949.74	   14.73
     46.8550	   12.00	   16.89	 -956.72	   14.71
     46.8884	   13.00	   16.87	 -955.71	   14.69
     46.9219	   20.00	   16.85	 -948.69	   14.67
     46.9553	    9.00	   16.84	 -959.67	   14.65
     46.9887	   12.00	   16.76	 -956.60	   14.64
     47.0221	   16.00	   16.75	 -952.59	   14.62
     47.0555	   23.00	   16.74	 -945.57	   14.60
     47.0890	   10.00	   16.72	 -958.56	   14.58
     47.1224	   12.00	   16.68	 -956.52	   14.56
     47.1558	   12.00	   16.67	 -956.51	   14.55
     47.1892	   25.00	   16.67	 -943.50	   14.53
     47.2227	   21.00	   16.66	 -947.50	   14.51
     47.2561	   13.00	   16.65	 -955.49	   14.49
     47.2895	   10.00	   16.65	 -958.49	   14.48
     47.3229	   15.00	   16.65	 -953.48	   14.46
     47.3563	   12.00	   16.65	 -956.49	   14.44
     47.3898	   18.00	   16.65	 -950.49	   14.42
     47.4232	   13.00	   16.66	 -955.49	   14.41
     47.4566	   19.00	   16.67	 -949.51	   14.39
     47.4900	    7.00	   16.68	 -961.52	   14.37
     47.5235	   13.00	   16.71	 -955.54	   14.35
     47.5569	   20.00	   16.74	 -948.57	   14.34
     47.5903	   18.00	   16.78	 -950.61	   14.32
     47.6237	   19.00	   16.83	 -949.67	   14.30
     47.6572	   19.00	   16.90	 -949.74	   14.29
     47.6906	   25.00	   17.00	 -943.84	   14.27
     47.7240	   27.00	   17.13	 -941.97	   14.25
     47.7574	   18.00	   17.31	 -951.15	   14.23
     47.7908	   16.00	   17.57	 -953.41	   14.22
     47.8243	   16.00	   17.96	 -953.80	   14.20
     47.8577	   13.00	   18.58	 -957.42	   14.18
     47.8911	   20.00	   19.73	 -951.57	   14.17
     47.9245	   26.00	   22.14	 -947.97	   14.15
     47.9580	   26.00	   27.00	 -952.84	   14.13
     47.9914	   54.00	   34.97	 -932.81	   14.12
     48.0248	   37.00	   42.48	 -957.31	   14.10
     48.0582	   45.00	   41.19	 -948.02	   14.08
     48.0916	   37.00	   35.62	 -950.45	   14.07
     48.1251	   30.00	   33.34	 -955.18	   14.05
     48.1585	   32.00	   32.55	 -952.38	   14.03
     48.1919	   25.00	   28.50	 -955.33	   14.02
     48.2253	   31.00	   23.65	 -944.49	   14.00
     48.2588	   28.00	   20.44	 -944.28	   13.98
     48.2922	   17.00	   18.73	 -953.56	   13.97
     48.3256	   17.00	   17.85	 -952.69	   13.95
     48.3590	   20.00	   17.36	 -949.20	   13.93
     48.3924	   12.00	   17.04	 -956.87	   13.92
     48.4259	   16.00	   16.80	 -952.64	   13.90
     48.4593	   15.00	   16.63	 -953.47	   13.88
     48.4927	   15.00	   16.49	 -953.33	   13.87
     48.5261	   20.00	   16.39	 -948.22	   13.85
     48.5596	   20.00	   16.30	 -948.13	   13.84
     48.5930	   15.00	   16.22	 -953.06	   13.82
     48.6264	    8.00	   16.16	 -959.99	   13.80
     48.6598	   17.00	   16.10	 -950.94	   13.79
     48.6932	   16.00	   16.05	 -951.89	   13.77
     48.7267	   19.00	   16.01	 -948.84	   13.76
     48.7601	   21.00	   15.97	 -946.80	   13.74
     48.7935	   22.00	   15.93	 -945.77	   13.72
     48.8269	   10.00	   15.90	 -957.73	   13.71
     48.8604	   15.00	   15.87	 -952.70	   13.69
     48.8938	    8.00	   15.84	 -959.67	   13.68
     48.9272	   17.00	   15.81	 -950.64	   13.66
     48.9606	   16.00	   15.78	 -951.62	   13.64
     48.9940	   15.00	   15.76	 -952.59	   13.63
     49.0275	   21.00	   15.73	 -946.57	   13.61
     49.0609	   15.00	   15.71	 -952.54	   13.60
     49.0943	   20.00	   15.69	 -947.52	   13.58
     49.1277	    8.00	   15.66	 -959.50	   13.57
     49.1612	   15.00	   15.64	 -952.48	   13.55
     49.1946	   28.00	   15.62	 -939.46	   13.53
     49.2280	   10.00	   15.60	 -957.44	   13.52
     49.2614	   17.00	   15.58	 -950.42	   13.50
     49.2949	   24.00	   15.56	 -943.40	   13.49
     49.3283	   15.00	   15.54	 -952.38	   13.47
     49.3617	   16.00	   15.52	 -951.36	   13.46
     49.3951	   27.00	   15.51	 -940.34	   13.44
     49.4285	   15.00	   15.49	 -952.32	   13.43
     49.4620	   11.00	   15.47	 -956.31	   13.41
     49.4954	   28.00	   15.45	 -939.29	   13.40
     49.5288	   17.00	   15.43	 -950.27	   13.38
     49.5622	   19.00	   15.42	 -948.25	   13.37
     49.5957	   17.00	   15.40	 -950.24	   13.35
     49.6291	   22.00	   15.38	 -945.22	   13.34
     49.6625	   22.00	   15.37	 -945.20	   13.32
     49.6959	   27.00	   15.35	 -940.19	   13.31
     49.7293	   13.00	   15.33	 -954.17	   13.29
     49.7628	   16.00	   15.32	 -951.15	   13.28
     49.7962	   17.00	   15.30	 -950.14	   13.26
     49.8296	   17.00	   15.28	 -950.12	   13.25
     49.8630	   20.00	   15.27	 -947.10	   13.23
     49.8965	   21.00	   15.25	 -946.09	   13.22
     49.9299	   17.00	   15.24	 -950.07	   13.20
     49.9633	   17.00	   15.22	 -950.06	   13.19
     49.9967	   10.00	   15.20	 -957.04	   13.17
     50.0302	   19.00	   15.19	 -948.03	   13.16
     50.0636	    9.00	   15.17	 -958.01	   13.14
     50.0970	   21.00	   15.16	 -945.99	   13.13
     50.1304	   20.00	   15.14	 -946.98	   13.11
     50.1638	   17.00	   15.13	 -949.96	   13.10
     50.1973	   18.00	   15.11	 -948.95	   13.09
     50.2307	   26.00	   15.10	 -940.93	   13.07
     50.2641	   15.00	   15.08	 -951.92	   13.06
     50.2975	   19.00	   15.07	 -947.90	   13.04
     50.3310	   22.00	   15.05	 -944.89	   13.03
     50.3644	   15.00	   15.04	 -951.87	   13.01
     50.3978	   10.00	   15.02	 -956.86	   13.00
     50.4312	   21.00	   15.01	 -945.84	   12.99
     50.4646	   13.00	   14.99	 -953.83	   12.97
     50.4981	   22.00	   14.98	 -944.82	   12.96
     50.5315	   16.00	   14.96	 -950.80	   12.94
     50.5649	   11.00	   14.95	 -955.79	   12.93
     50.5983	   17.00	   14.93	 -949.77	   12.92
     50.6318	   16.00	   14.92	 -950.76	   12.90
     50.6652	   15.00	   14.91	 -951.74	   12.89
     50.6986	   16.00	   14.89	 -950.73	   12.87
     50.7320	   18.00	   14.88	 -948.71	   12.86
     50.7654	   11.00	   14.86	 -955.70	   12.85
     50.7989	   17.00	   14.85	 -949.69	   12.83
     50.8323	   17.00	   14.84	 -949.68	   12.82
     50.8657	   12.00	   14.83	 -954.66	   12.80
     50.8991	   20.00	   14.81	 -946.65	   12.79
     50.9326	   18.00	   14.80	 -948.63	   12.78
     50.9660	   19.00	   14.79	 -947.62	   12.76
     50.9994	   15.00	   14.77	 -951.61	   12.75
     51.0328	    9.00	   14.76	 -957.60	   12.74
     51.0662	   16.00	   14.74	 -950.57	   12.72
     51.0997	   13.00	   14.72	 -953.56	   12.71
     51.1331	   18.00	   14.71	 -948.55	   12.69
     51.1665	   13.00	   14.70	 -953.53	   12.68
     51.1999	   15.00	   14.68	 -951.52	   12.67
     51.2334	   18.00	   14.67	 -948.50	   12.65
     51.2668	   24.00	   15.14	 -942.98	   12.64
     51.3002	   12.00	   15.14	 -954.98	   12.63
     51.3336	   15.00	   15.14	 -951.97	   12.61
     51.3671	   15.00	   15.14	 -951.97	   12.60
     51.4005	   19.00	   15.38	 -948.21	   12.59
     51.4339	   13.00	   15.38	 -954.22	   12.57
     51.4673	   15.00	   15.39	 -952.22	   12.56
     51.5007	    9.00	   15.39	 -958.23	   12.55
     51.5342	   15.00	   15.40	 -952.24	   12.54
     51.5676	   20.00	   15.41	 -947.24	   12.52
     51.6010	   18.00	   15.41	 -949.25	   12.51
     51.6344	   11.00	   15.42	 -956.26	   12.50
     51.6679	   15.00	   15.43	 -952.27	   12.48
     51.7013	    7.00	   15.45	 -960.28	   12.47
     51.7347	   23.00	   15.46	 -944.29	   12.46
     51.7681	   24.00	   15.47	 -943.31	   12.44
     51.8015	   18.00	   15.48	 -949.32	   12.43
     51.8350	   17.00	   15.50	 -950.34	   12.42
     51.8684	   11.00	   15.52	 -956.35	   12.41
     51.9018	   17.00	   15.53	 -950.37	   12.39
     51.9352	   23.00	   15.55	 -944.39	   12.38
     51.9687	   23.00	   15.57	 -944.41	   12.37
     52.0021	   19.00	   15.60	 -948.44	   12.35
     52.0355	   21.00	   15.62	 -946.46	   12.34
     52.0689	   20.00	   15.65	 -947.48	   12.33
     52.1023	   23.00	   15.67	 -944.51	   12.32
     52.1358	   16.00	   15.70	 -951.54	   12.30
     52.1692	   19.00	   15.74	 -948.57	   12.29
     52.2026	   13.00	   15.77	 -954.61	   12.28
     52.2360	   19.00	   15.80	 -948.64	   12.27
     52.2695	   19.00	   15.84	 -948.68	   12.25
     52.3029	   23.00	   15.88	 -944.72	   12.24
     52.3363	   22.00	   15.92	 -945.76	   12.23
     52.3697	   21.00	   15.97	 -946.80	   12.22
     52.4032	   18.00	   16.02	 -949.85	   12.21
     52.4366	   20.00	   16.07	 -947.90	   12.19
     52.4700	   17.00	   16.12	 -950.96	   12.18
     52.5034	   19.00	   16.18	 -949.02	   12.17
     52.5368	   22.00	   16.24	 -946.08	   12.16
     52.5703	   33.00	   16.31	 -935.15	   12.14
     52.6037	   33.00	   16.38	 -935.22	   12.13
     52.6371	   32.00	   16.46	 -936.29	   12.12
     52.6705	   30.00	   16.54	 -938.38	   12.11
     52.7040	   22.00	   16.63	 -946.46	   12.10
     52.7374	   25.00	   16.72	 -943.56	   12.08
     52.7708	   30.00	   16.82	 -938.66	   12.07
     52.8042	   22.00	   16.93	 -946.77	   12.06
     52.8376	   25.00	   17.05	 -943.88	   12.05
     52.8711	   24.00	   17.17	 -945.01	   12.04
     52.9045	   26.00	   17.31	 -943.14	   12.02
     52.9379	   26.00	   17.45	 -943.29	   12.01
     52.9713	   20.00	   17.61	 -949.44	   12.00
     53.0048	   24.00	   17.78	 -945.61	   11.99
     53.0382	   25.00	   17.96	 -944.80	   11.98
     53.0716	   19.00	   18.16	 -951.00	   11.97
     53.1050	   30.00	   18.38	 -940.22	   11.95
     53.1384	   19.00	   18.62	 -951.45	   11.94
     53.1719	   21.00	   18.87	 -949.71	   11.93
     53.2053	   22.00	   19.16	 -948.99	   11.92
     53.2387	   32.00	   19.47	 -939.30	   11.91
     53.2721	   26.00	   19.81	 -945.65	   11.90
     53.3056	   23.00	   20.19	 -949.02	   11.89
     53.3390	   20.00	   20.60	 -952.44	   11.87
     53.3724	   31.00	   21.06	 -941.90	   11.86
     53.4058	   23.00	   21.58	 -950.42	   11.85
     53.4393	   23.00	   22.16	 -950.99	   11.84
     53.4727	   26.00	   22.81	 -948.64	   11.83
     53.5061	   24.00	   23.54	 -951.38	   11.82
     53.5395	   24.00	   24.52	 -952.35	   11.81
     53.5729	   37.00	   25.47	 -940.31	   11.79
     53.6064	   24.00	   26.58	 -954.41	   11.78
     53.6398	   31.00	   27.86	 -948.70	   11.77
     53.6732	   49.00	   29.45	 -932.29	   11.76
     53.7066	   34.00	   31.28	 -949.11	   11.75
     53.7401	   37.00	   33.55	 -948.39	   11.74
     53.7735	   42.00	   36.59	 -946.43	   11.73
     53.8069	   46.00	   41.02	 -946.85	   11.72
     53.8403	   54.00	   47.65	 -945.48	   11.71
     53.8737	   63.00	   56.55	 -945.38	   11.69
     53.9072	   76.00	   64.53	 -940.37	   11.68
     53.9406	   67.00	   67.94	 -952.78	   11.67
     53.9740	   79.00	   71.73	 -944.57	   11.66
     54.0074	   91.00	   80.20	 -941.04	   11.65
     54.0409	  111.00	   93.40	 -934.24	   11.64
     54.0743	  146.00	  109.78	 -915.62	   11.63
     54.1077	  170.00	  133.02	 -914.86	   11.62
     54.1411	  183.00	  172.69	 -941.52	   11.61
     54.1745	  258.00	  249.18	 -943.01	   11.60
     54.2080	  398.00	  408.42	 -962.26	   11.59
     54.2414	  704.00	  719.20	 -967.03	   11.58
     54.2748	 1241.00	 1204.48	 -915.32	   11.57
     54.3082	 1733.00	 1623.57	 -842.40	   11.56
     54.3417	 1507.00	 1502.90	 -947.74	   11.54
     54.3751	 1120.00	 1131.40	 -963.24	   11.53
     54.4085	  930.00	  961.33	 -983.17	   11.52
     54.4419	 1017.00	  987.38	 -922.22	   11.51
     54.4753	  928.00	  901.71	 -925.55	   11.50
     54.5088	  699.00	  625.14	 -877.98	   11.49
     54.5422	  432.00	  380.27	 -900.11	   11.48
     54.5756	  243.00	  232.68	 -941.51	   11.47
     54.6090	  161.00	  156.21	 -947.04	   11.46
     54.6425	  110.00	  116.30	 -958.14	   11.45
     54.6759	  116.00	   92.69	 -928.53	   11.44
     54.7093	   81.00	   76.92	 -947.76	   11.43
     54.7427	   75.00	   65.66	 -942.49	   11.42
     54.7761	   54.00	   57.31	 -955.15	   11.41
     54.8096	   66.00	   50.98	 -936.82	   11.40
     54.8430	   57.00	   46.13	 -940.97	   11.39
     54.8764	   47.00	   42.44	 -947.28	   11.38
     54.9098	   48.00	   39.81	 -943.65	   11.37
     54.9433	   42.00	   38.46	 -948.30	   11.36
     54.9767	   50.00	   38.92	 -940.76	   11.35
     55.0101	   45.00	   41.53	 -948.37	   11.34
     55.0435	   47.00	   44.63	 -949.47	   11.33
     55.0770	   56.00	   43.29	 -939.13	   11.32
     55.1104	   42.00	   38.38	 -948.21	   11.31
     55.1438	   48.00	   35.03	 -938.86	   11.30
     55.1772	   48.00	   34.15	 -937.98	   11.29
     55.2106	   32.00	   33.20	 -953.03	   11.28
     55.2441	   45.00	   30.10	 -936.93	   11.27
     55.2775	   42.00	   26.83	 -936.67	   11.26
     55.3109	   26.00	   24.56	 -950.40	   11.25
     55.3443	   24.00	   23.16	 -951.00	   11.24
     55.3778	   33.00	   22.27	 -941.10	   11.23
     55.4112	   46.00	   21.63	 -927.47	   11.22
     55.4446	   36.00	   21.13	 -936.97	   11.21
     55.4780	   33.00	   20.73	 -939.56	   11.20
     55.5114	   27.00	   20.39	 -945.23	   11.19
     55.5449	   31.00	   20.11	 -940.95	   11.18
     55.5783	   31.00	   19.88	 -940.72	   11.17
     55.6117	   28.00	   19.69	 -943.53	   11.16
     55.6451	   26.00	   19.54	 -945.38	   11.16
     55.6786	   23.00	   19.43	 -948.27	   11.15
     55.7120	   30.00	   19.35	 -941.19	   11.14
     55.7454	   26.00	   19.31	 -945.14	   11.13
     55.7788	   27.00	   19.30	 -944.13	   11.12
     55.8122	   23.00	   19.33	 -948.16	   11.11
     55.8457	   33.00	   19.39	 -938.23	   11.10
     55.8791	   23.00	   19.50	 -948.34	   11.09
     55.9125	   28.00	   19.66	 -943.49	   11.08
     55.9459	   28.00	   19.87	 -943.70	   11.07
     55.9794	   20.00	   20.13	 -951.97	   11.06
     56.0128	   19.00	   20.48	 -953.31	   11.05
     56.0462	   26.00	   20.90	 -946.74	   11.04
     56.0796	   39.00	   21.43	 -934.27	   11.04
     56.1131	   30.00	   22.09	 -943.92	   11.03
     56.1465	   34.00	   22.90	 -940.74	   11.02
     56.1799	   24.00	   23.92	 -951.76	   11.01
     56.2133	   27.00	   25.21	 -950.05	   11.00
     56.2467	   34.00	   26.85	 -944.69	   10.99
     56.2802	   31.00	   28.98	 -949.82	   10.98
     56.3136	   35.00	   31.80	 -948.64	   10.97
     56.3470	   51.00	   35.62	 -936.45	   10.96
     56.3804	   68.00	   40.95	 -924.79	   10.95
     56.4139	   64.00	   48.80	 -936.64	   10.95
     56.4473	   62.00	   61.51	 -951.34	   10.94
     56.4807	   93.00	   85.27	 -944.11	   10.93
     56.5141	  137.00	  133.93	 -948.76	   10.92
     56.5475	  245.00	  227.18	 -934.02	   10.91
     56.5810	  385.00	  369.59	 -936.43	   10.90
     56.6144	  546.00	  487.33	 -893.17	   10.89
     56.6478	  471.00	  446.37	 -927.20	   10.88
     56.6812	  363.00	  334.59	 -923.42	   10.88
     56.7147	  308.00	  280.98	 -924.82	   10.87
     56.7481	  299.00	  290.72	 -943.56	   10.86
     56.7815	  296.00	  282.61	 -938.44	   10.85
     56.8149	  230.00	  209.38	 -931.21	   10.84
     56.8483	  122.00	  133.60	 -963.44	   10.83
     56.8818	   90.00	   85.01	 -946.85	   10.82
     56.9152	   62.00	   59.15	 -948.99	   10.82
     56.9486	   63.00	   45.77	 -934.60	   10.81
     56.9820	   36.00	   38.07	 -953.90	   10.80
     57.0155	   38.00	   33.02	 -946.85	   10.79
     57.0489	   40.00	   29.43	 -941.26	   10.78
     57.0823	   30.00	   26.76	 -948.60	   10.77
     57.1157	   21.00	   24.71	 -955.55	   10.77
     57.1492	   24.00	   23.11	 -950.94	   10.76
     57.1826	   26.00	   21.82	 -947.66	   10.75
     57.2160	   30.00	   20.78	 -942.61	   10.74
     57.2494	   16.00	   19.91	 -955.75	   10.73
     57.2828	   30.00	   19.19	 -941.02	   10.73
     57.3163	   21.00	   18.57	 -949.41	   10.72
     57.3497	   23.00	   18.05	 -946.88	   10.71
     57.3831	   16.00	   17.59	 -953.43	   10.70
     57.4165	   20.00	   16.73	 -948.56	   10.69
     57.4500	   16.00	   16.39	 -952.23	   10.68
     57.4834	   32.00	   16.09	 -935.93	   10.68
     57.5168	   12.00	   15.83	 -955.67	   10.67
     57.5502	   23.00	   15.36	 -944.20	   10.66
     57.5836	   15.00	   15.16	 -951.99	   10.65
     57.6171	   11.00	   14.97	 -955.81	   10.64
     57.6505	   20.00	   14.81	 -946.64	   10.64
     57.6839	   27.00	   14.66	 -939.49	   10.63
     57.7173	   27.00	   14.52	 -939.36	   10.62
     57.7508	   16.00	   14.40	 -950.23	   10.61
     57.7842	   22.00	   14.28	 -944.12	   10.61
     57.8176	   21.00	   14.18	 -945.02	   10.60
     57.8510	   12.00	   14.08	 -953.92	   10.59
     57.8844	   18.00	   13.99	 -947.83	   10.58
     57.9179	   16.00	   13.91	 -949.75	   10.57
     57.9513	   15.00	   13.83	 -950.67	   10.57
     57.9847	   17.00	   13.76	 -948.60	   10.56
     58.0181	   17.00	   13.70	 -948.53	   10.55
     58.0516	   18.00	   13.63	 -947.47	   10.54
     58.0850	    9.00	   13.58	 -956.41	   10.54
     58.1184	    9.00	   13.52	 -956.36	   10.53
     58.1518	   10.00	   13.47	 -955.31	   10.52
     58.1852	   16.00	   13.42	 -949.25	   10.51
     58.2187	   20.00	   13.37	 -945.21	   10.51
     58.2521	   16.00	   13.33	 -949.16	   10.50
     58.2855	   15.00	   13.28	 -950.12	   10.49
     58.3189	   15.00	   13.24	 -950.08	   10.48
     58.3524	   13.00	   13.21	 -952.04	   10.48
     58.3858	   12.00	   13.17	 -953.01	   10.47
     58.4192	   13.00	   13.14	 -951.97	   10.46
     58.4526	   18.00	   13.10	 -946.94	   10.46
     58.4861	   12.00	   13.07	 -952.91	   10.45
     58.5195	   16.00	   13.04	 -948.88	   10.44
     58.5529	   15.00	   13.02	 -949.85	   10.43
     58.5863	   16.00	   12.99	 -948.82	   10.43
     58.6197	   18.00	   12.96	 -946.80	   10.42
     58.6532	   19.00	   12.94	 -945.77	   10.41
     58.6866	   20.00	   12.91	 -944.75	   10.40
     58.7200	   21.00	   12.89	 -943.73	   10.40
     58.7534	   19.00	   12.87	 -945.70	   10.39
     58.7869	   16.00	   12.84	 -948.68	   10.38
     58.8203	   15.00	   12.82	 -949.66	   10.38
     58.8537	   13.00	   12.80	 -951.64	   10.37
     58.8871	   16.00	   12.78	 -948.62	   10.36
     58.9205	   10.00	   12.76	 -954.60	   10.36
     58.9540	   20.00	   12.75	 -944.58	   10.35
     58.9874	   15.00	   12.73	 -949.56	   10.34
     59.0208	   15.00	   12.71	 -949.55	   10.33
     59.0542	   17.00	   12.69	 -947.53	   10.33
     59.0877	   16.00	   12.68	 -948.51	   10.32
     59.1211	   12.00	   12.66	 -952.50	   10.31
     59.1545	   17.00	   12.64	 -947.48	   10.31
     59.1879	   12.00	   12.63	 -952.46	   10.30
     59.2213	   21.00	   12.61	 -943.45	   10.29
     59.2548	   13.00	   12.60	 -951.43	   10.29
     59.2882	   12.00	   12.58	 -952.42	   10.28
     59.3216	   11.00	   12.57	 -953.41	   10.27
     59.3550	   18.00	   12.56	 -946.39	   10.27
     59.3885	    7.00	   12.54	 -957.38	   10.26
     59.4219	   16.00	   12.53	 -948.37	   10.25
     59.4553	   10.00	   12.52	 -954.35	   10.25
     59.4887	   19.00	   12.50	 -945.34	   10.24
     59.5222	   11.00	   12.49	 -953.33	   10.23
     59.5556	   18.00	   12.55	 -946.38	   10.23
     59.5890	   15.00	   12.54	 -949.37	   10.22
     59.6224	   18.00	   12.53	 -946.36	   10.21
     59.6558	    8.00	   12.52	 -956.35	   10.21
     59.6893	   15.00	   12.51	 -949.34	   10.20
     59.7227	   10.00	   12.53	 -954.37	   10.19
     59.7561	   10.00	   12.38	 -954.22	   10.19
     59.7895	    8.00	   12.38	 -956.22	   10.18
     59.8230	   20.00	   12.37	 -944.21	   10.18
     59.8564	   13.00	   12.37	 -951.20	   10.17
     59.8898	   21.00	   12.29	 -943.13	   10.16
     59.9232	   16.00	   12.29	 -948.13	   10.16
     59.9566	   12.00	   12.29	 -952.12	   10.15
     59.9901	   16.00	   12.28	 -948.12	   10.14
     60.0235	   17.00	   12.28	 -947.12	   10.14
     60.0569	   13.00	   12.28	 -951.11	   10.13
     60.0903	   16.00	   12.28	 -948.11	   10.13
     60.1238	   18.00	   12.27	 -946.11	   10.12
     60.1572	   20.00	   12.27	 -944.11	   10.11
     60.1906	   22.00	   12.27	 -942.11	   10.11
     60.2240	   20.00	   12.27	 -944.10	   10.10
     60.2574	   17.00	   12.26	 -947.10	   10.09
     60.2909	   19.00	   12.26	 -945.10	   10.09
     60.3243	   10.00	   12.26	 -954.10	   10.08
     60.3577	   11.00	   12.26	 -953.10	   10.08
     60.3911	   23.00	   12.26	 -941.10	   10.07
     60.4246	   11.00	   12.26	 -953.10	   10.06
     60.4580	   10.00	   12.26	 -954.10	   10.06
     60.4914	   12.00	   12.26	 -952.10	   10.05
     60.5248	   20.00	   12.26	 -944.10	   10.05
     60.5583	   19.00	   12.26	 -945.10	   10.04
     60.5917	   11.00	   12.26	 -953.10	   10.03
     60.6251	   19.00	   12.26	 -945.10	   10.03
     60.6585	   15.00	   12.26	 -949.10	   10.02
     60.6919	   23.00	   12.26	 -941.10	   10.02
     60.7254	   18.00	   12.27	 -946.10	   10.01
     60.7588	   10.00	   12.27	 -954.11	   10.01
     60.7922	   12.00	   12.27	 -952.11	   10.00
     60.8256	   10.00	   12.34	 -954.18	    9.99
     60.8591	   28.00	   12.34	 -936.18	    9.99
     60.8925	   19.00	   12.35	 -945.19	    9.98
     60.9259	   15.00	   12.36	 -949.19	    9.98
     60.9593	   11.00	   12.36	 -953.20	    9.97
     60.9927	   15.00	   12.40	 -949.24	    9.97
     61.0262	   15.00	   12.41	 -949.25	    9.96
     61.0596	    9.00	   12.42	 -955.26	    9.95
     61.0930	   13.00	   12.44	 -951.27	    9.95
     61.1264	    7.00	   12.45	 -957.28	    9.94
     61.1599	   11.00	   12.46	 -953.30	    9.94
     61.1933	   17.00	   12.48	 -947.31	    9.93
     61.2267	   18.00	   12.49	 -946.33	    9.93
     61.2601	   17.00	   12.51	 -947.35	    9.92
     61.2935	   11.00	   12.53	 -953.36	    9.92
     61.3270	   15.00	   12.55	 -949.38	    9.91
     61.3604	    9.00	   12.57	 -955.41	    9.91
     61.3938	   17.00	   12.59	 -947.43	    9.90
     61.4272	   13.00	   12.62	 -951.46	    9.89
     61.4607	   16.00	   12.65	 -948.49	    9.89
     61.4941	   13.00	   12.68	 -951.52	    9.88
     61.5275	   16.00	   12.72	 -948.55	    9.88
     61.5609	    9.00	   12.75	 -955.59	    9.87
     61.5943	   15.00	   12.80	 -949.63	    9.87
     61.6278	   15.00	   12.84	 -949.68	    9.86
     61.6612	   18.00	   12.89	 -946.73	    9.86
     61.6946	   17.00	   12.95	 -947.79	    9.85
     61.7280	   12.00	   13.02	 -952.85	    9.85
     61.7615	   15.00	   13.09	 -949.93	    9.84
     61.7949	   12.00	   13.17	 -953.01	    9.84
     61.8283	   16.00	   13.27	 -949.10	    9.83
     61.8617	   16.00	   13.38	 -949.22	    9.83
     61.8952	   17.00	   13.51	 -948.35	    9.82
     61.9286	   13.00	   13.68	 -952.52	    9.82
     61.9620	   16.00	   13.91	 -949.75	    9.81
     61.9954	   15.00	   14.28	 -951.12	    9.81
     62.0288	   23.00	   14.88	 -943.71	    9.80
     62.0623	   23.00	   15.77	 -944.60	    9.80
     62.0957	   26.00	   16.70	 -942.53	    9.79
     62.1291	   13.00	   16.93	 -955.77	    9.79
     62.1625	   17.00	   16.57	 -951.41	    9.78
     62.1960	   17.00	   16.41	 -951.25	    9.78
     62.2294	   12.00	   16.70	 -956.54	    9.77
     62.2628	   18.00	   17.30	 -951.14	    9.77
     62.2962	   23.00	   17.75	 -946.59	    9.76
     62.3296	   17.00	   18.00	 -952.84	    9.76
     62.3631	   32.00	   18.44	 -938.28	    9.75
     62.3965	   26.00	   19.25	 -945.08	    9.75
     62.4299	   27.00	   20.47	 -945.31	    9.74
     62.4633	   33.00	   22.21	 -941.05	    9.74
     62.4968	   33.00	   24.65	 -943.49	    9.73
     62.5302	   33.00	   28.23	 -947.07	    9.73
     62.5636	   37.00	   33.94	 -948.78	    9.72
     62.5970	   53.00	   44.17	 -943.01	    9.72
     62.6304	   58.00	   64.09	 -957.93	    9.71
     62.6639	   91.00	  101.30	 -962.14	    9.71
     62.6973	  156.00	  159.24	 -955.08	    9.70
     62.7307	  230.00	  221.74	 -943.57	    9.70
     62.7641	  209.00	  233.91	 -976.75	    9.70
     62.7976	  209.00	  184.63	 -927.46	    9.69
     62.8310	  159.00	  139.93	 -932.77	    9.69
     62.8644	  107.00	  127.53	 -972.36	    9.68
     62.8978	  149.00	  137.89	 -940.73	    9.68
     62.9313	  153.00	  137.32	 -936.16	    9.67
     62.9647	  104.00	  106.12	 -953.96	    9.67
     62.9981	   75.00	   71.32	 -948.15	    9.66
     63.0315	   45.00	   48.00	 -954.84	    9.66
     63.0649	   24.00	   35.18	 -963.02	    9.65
     63.0984	   31.00	   28.50	 -949.34	    9.65
     63.1318	   18.00	   24.74	 -958.57	    9.65
     63.1652	   17.00	   22.34	 -957.18	    9.64
     63.1986	   19.00	   20.68	 -953.51	    9.64
     63.2321	   22.00	   19.47	 -949.31	    9.63
     63.2655	    9.00	   18.59	 -961.43	    9.63
     63.2989	   26.00	   17.94	 -943.77	    9.62
     63.3323	   16.00	   17.46	 -953.29	    9.62
     63.3657	   22.00	   17.11	 -946.95	    9.62
     63.3992	   18.00	   16.88	 -950.72	    9.61
     63.4326	   15.00	   16.75	 -953.59	    9.61
     63.4660	   28.00	   16.71	 -940.55	    9.60
     63.4994	   16.00	   16.76	 -952.60	    9.60
     63.5329	   18.00	   16.90	 -950.74	    9.59
     63.5663	   19.00	   17.14	 -949.98	    9.59
     63.5997	   16.00	   17.50	 -953.34	    9.59
     63.6331	   17.00	   18.01	 -952.84	    9.58
     63.6665	   20.00	   18.69	 -950.53	    9.58
     63.7000	   19.00	   19.61	 -952.45	    9.57
     63.7334	   28.00	   20.87	 -944.70	    9.57
     63.7668	   28.00	   22.59	 -946.43	    9.57
     63.8002	   34.00	   25.04	 -942.88	    9.56
     63.8337	   28.00	   28.68	 -952.52	    9.56
     63.8671	   40.00	   34.67	 -946.51	    9.55
     63.9005	   55.00	   45.92	 -942.76	    9.55
     63.9339	   70.00	   68.42	 -950.26	    9.55
     63.9674	  108.00	  109.99	 -953.83	    9.54
     64.0008	  159.00	  171.24	 -964.08	    9.54
     64.0342	  243.00	  220.82	 -929.66	    9.53
     64.0676	  204.00	  203.36	 -951.19	    9.53
     64.1010	  152.00	  150.79	 -950.63	    9.53
     64.1345	  111.00	  118.29	 -959.13	    9.52
     64.1679	   97.00	  116.95	 -971.79	    9.52
     64.2013	  126.00	  130.62	 -956.46	    9.51
     64.2347	  132.00	  122.88	 -942.71	    9.51
     64.2682	   84.00	   90.22	 -958.05	    9.51
     64.3016	   69.00	   60.10	 -942.93	    9.50
     64.3350	   41.00	   41.17	 -952.00	    9.50
     64.3684	   37.00	   30.98	 -945.82	    9.49
     64.4018	   30.00	   25.59	 -947.43	    9.49
     64.4353	   26.00	   22.42	 -948.26	    9.49
     64.4687	   31.00	   20.32	 -941.15	    9.48
     64.5021	   16.00	   18.81	 -954.64	    9.48
     64.5355	   23.00	   17.67	 -946.51	    9.48
     64.5690	   15.00	   16.80	 -953.64	    9.47
     64.6024	   19.00	   16.11	 -948.95	    9.47
     64.6358	   24.00	   15.56	 -943.40	    9.47
     64.6692	   25.00	   15.11	 -941.94	    9.46
     64.7026	   33.00	   14.74	 -933.57	    9.46
     64.7361	   17.00	   14.42	 -949.26	    9.45
     64.7695	   19.00	   14.16	 -947.00	    9.45
     64.8029	   12.00	   13.94	 -953.78	    9.45
     64.8363	   18.00	   13.75	 -947.59	    9.44
     64.8698	   11.00	   13.59	 -954.43	    9.44
     64.9032	   17.00	   13.45	 -948.29	    9.44
     64.9366	   22.00	   13.34	 -943.18	    9.43
     64.9700	   13.00	   13.24	 -952.08	    9.43
     65.0034	   19.00	   13.16	 -946.00	    9.43
     65.0369	   15.00	   13.10	 -949.94	    9.42
     65.0703	   18.00	   13.06	 -946.90	    9.42
     65.1037	   19.00	   13.04	 -945.87	    9.42
     65.1371	   17.00	   13.03	 -947.87	    9.41
     65.1706	   19.00	   13.06	 -945.90	    9.41
     65.2040	   16.00	   13.12	 -948.96	    9.41
     65.2374	    9.00	   13.23	 -956.06	    9.40
     65.2708	   15.00	   13.40	 -950.24	    9.40
     65.3042	    9.00	   13.70	 -956.54	    9.40
     65.3377	   22.00	   14.24	 -944.08	    9.39
     65.3711	   18.00	   15.33	 -949.16	    9.39
     65.4045	   13.00	   17.50	 -956.34	    9.39
     65.4379	   30.00	   21.35	 -943.19	    9.38
     65.4714	   21.00	   26.49	 -957.33	    9.38
     65.5048	   33.00	   29.38	 -948.22	    9.38
     65.5382	   27.00	   26.64	 -951.47	    9.37
     65.5716	   38.00	   22.40	 -936.23	    9.37
     65.6051	   18.00	   20.23	 -954.07	    9.37
     65.6385	   25.00	   20.50	 -947.34	    9.36
     65.6719	   35.00	   21.64	 -938.47	    9.36
     65.7053	   19.00	   20.90	 -953.74	    9.36
     65.7387	   21.00	   18.17	 -949.01	    9.35
     65.7722	   21.00	   15.78	 -946.62	    9.35
     65.8056	   20.00	   14.29	 -946.13	    9.35
     65.8390	   22.00	   13.49	 -943.32	    9.34
     65.8724	   11.00	   13.13	 -953.97	    9.34
     65.9059	    6.00	   12.87	 -958.70	    9.34
     65.9393	   18.00	   12.69	 -946.52	    9.33
     65.9727	   23.00	   12.49	 -941.33	    9.33
     66.0061	   21.00	   12.40	 -943.23	    9.33
     66.0396	   16.00	   12.32	 -948.16	    9.33
     66.0730	   15.00	   12.26	 -949.09	    9.32
     66.1064	   23.00	   12.21	 -941.04	    9.32
     66.1398	   18.00	   12.13	 -945.97	    9.32
     66.1732	   18.00	   12.10	 -945.94	    9.31
     66.2067	   20.00	   12.07	 -943.91	    9.31
     66.2401	   13.00	   12.05	 -950.89	    9.31
     66.2735	   18.00	   12.03	 -945.87	    9.30
     66.3069	   18.00	   12.01	 -945.85	    9.30
     66.3403	   11.00	   12.00	 -952.84	    9.30
     66.3738	   25.00	   11.99	 -938.83	    9.30
     66.4072	   12.00	   11.98	 -951.82	    9.29
     66.4406	   20.00	   11.97	 -943.81	    9.29
     66.4740	   10.00	   12.04	 -953.88	    9.29
     66.5075	   15.00	   12.04	 -948.88	    9.28
     66.5409	   15.00	   12.04	 -948.87	    9.28
     66.5743	   22.00	   12.04	 -941.87	    9.28
     66.6077	   21.00	   12.04	 -942.88	    9.28
     66.6412	   24.00	   12.04	 -939.88	    9.27
     66.6746	   18.00	   12.08	 -945.92	    9.27
     66.7080	   23.00	   12.09	 -940.93	    9.27
     66.7414	   20.00	   12.10	 -943.93	    9.26
     66.7748	   20.00	   12.10	 -943.94	    9.26
     66.8083	   20.00	   12.11	 -943.95	    9.26
     66.8417	   19.00	   12.12	 -944.96	    9.26
     66.8751	   20.00	   12.13	 -943.97	    9.25
     66.9085	   22.00	   12.15	 -941.98	    9.25
     66.9420	   11.00	   12.16	 -953.00	    9.25
     66.9754	   12.00	   12.18	 -952.01	    9.25
     67.0088	   12.00	   12.19	 -952.03	    9.24
     67.0422	   10.00	   12.21	 -954.05	    9.24
     67.0756	   22.00	   12.23	 -942.07	    9.24
     67.1091	   12.00	   12.25	 -952.09	    9.24
     67.1425	   15.00	   12.27	 -949.11	    9.23
     67.1759	   19.00	   12.30	 -945.14	    9.23
     67.2093	   15.00	   12.33	 -949.16	    9.23
     67.2428	   12.00	   12.35	 -952.19	    9.23
     67.2762	   16.00	   12.32	 -948.16	    9.22
     67.3096	   20.00	   12.35	 -944.19	    9.22
     67.3430	   16.00	   12.39	 -948.23	    9.22
     67.3764	   28.00	   12.43	 -936.26	    9.22
     67.4099	   13.00	   12.47	 -951.30	    9.21
     67.4433	   23.00	   12.48	 -941.31	    9.21
     67.4767	   19.00	   12.53	 -945.36	    9.21
     67.5101	   21.00	   12.58	 -943.41	    9.21
     67.5436	   10.00	   12.63	 -954.47	    9.20
     67.5770	   18.00	   12.69	 -946.52	    9.20
     67.6104	   21.00	   12.75	 -943.58	    9.20
     67.6438	   17.00	   12.81	 -947.65	    9.20
     67.6772	   16.00	   12.88	 -948.72	    9.19
     67.7107	   16.00	   12.96	 -948.80	    9.19
     67.7441	   25.00	   13.04	 -939.88	    9.19
     67.7775	   16.00	   13.13	 -948.97	    9.19
     67.8109	   15.00	   13.23	 -950.07	    9.18
     67.8444	   19.00	   13.33	 -946.17	    9.18
     67.8778	   20.00	   13.45	 -945.28	    9.18
     67.9112	   16.00	   13.57	 -949.41	    9.18
     67.9446	   18.00	   13.71	 -947.54	    9.17
     67.9781	   18.00	   13.85	 -947.69	    9.17
     68.0115	   16.00	   14.02	 -949.85	    9.17
     68.0449	   21.00	   14.20	 -945.03	    9.17
     68.0783	   19.00	   14.39	 -947.23	    9.17
     68.1117	   17.00	   14.61	 -949.45	    9.16
     68.1452	   23.00	   14.85	 -943.69	    9.16
     68.1786	   23.00	   15.13	 -943.96	    9.16
     68.2120	   24.00	   15.43	 -943.27	    9.16
     68.2454	   21.00	   15.77	 -946.61	    9.15
     68.2789	   15.00	   16.16	 -953.00	    9.15
     68.3123	   25.00	   16.61	 -943.44	    9.15
     68.3457	   22.00	   17.12	 -946.95	    9.15
     68.3791	   34.00	   17.70	 -935.54	    9.15
     68.4125	   24.00	   18.39	 -946.22	    9.14
     68.4460	   25.00	   19.19	 -946.03	    9.14
     68.4794	   19.00	   20.15	 -952.98	    9.14
     68.5128	   30.00	   21.29	 -943.13	    9.14
     68.5462	   35.00	   22.68	 -939.52	    9.13
     68.5797	   24.00	   24.41	 -952.25	    9.13
     68.6131	   35.00	   26.61	 -943.44	    9.13
     68.6465	   23.00	   29.49	 -958.33	    9.13
     68.6799	   58.00	   33.45	 -927.28	    9.13
     68.7133	   55.00	   38.96	 -935.79	    9.12
     68.7468	   47.00	   46.50	 -951.34	    9.12
     68.7802	   69.00	   56.18	 -939.02	    9.12
     68.8136	   63.00	   69.30	 -958.14	    9.12
     68.8470	  100.00	   92.87	 -944.71	    9.12
     68.8805	  136.00	  140.65	 -956.49	    9.11
     68.9139	  236.00	  230.77	 -946.60	    9.11
     68.9473	  345.00	  371.03	 -977.86	    9.11
     68.9807	  508.00	  512.65	 -956.48	    9.11
     69.0142	  528.00	  518.75	 -942.59	    9.11
     69.0476	  387.00	  394.09	 -958.92	    9.10
     69.0810	  250.00	  283.81	 -985.65	    9.10
     69.1144	  224.00	  244.66	 -972.50	    9.10
     69.1478	  242.00	  269.45	 -979.29	    9.10
     69.1813	  308.00	  306.23	 -950.07	    9.10
     69.2147	  256.00	  275.35	 -971.18	    9.10
     69.2481	  177.00	  195.14	 -969.98	    9.09
     69.2815	  110.00	  126.68	 -968.52	    9.09
     69.3150	   83.00	   84.42	 -953.25	    9.09
     69.3484	   68.00	   61.87	 -945.71	    9.09
     69.3818	   42.00	   50.17	 -960.01	    9.09
     69.4152	   54.00	   43.72	 -941.55	    9.08
     69.4486	   36.00	   39.98	 -955.82	    9.08
     69.4821	   31.00	   38.01	 -958.85	    9.08
     69.5155	   48.00	   37.49	 -941.33	    9.08
     69.5489	   47.00	   38.41	 -943.25	    9.08
     69.5823	   46.00	   41.17	 -947.01	    9.08
     69.6158	   50.00	   46.99	 -948.83	    9.07
     69.6492	   70.00	   59.06	 -940.89	    9.07
     69.6826	   76.00	   83.82	 -959.66	    9.07
     69.7160	  139.00	  129.69	 -942.53	    9.07
     69.7495	  219.00	  198.25	 -931.08	    9.07
     69.7829	  257.00	  259.77	 -954.61	    9.06
     69.8163	  253.00	  250.06	 -948.90	    9.06
     69.8497	  165.00	  187.75	 -974.59	    9.06
     69.8831	  130.00	  138.55	 -960.39	    9.06
     69.9166	  125.00	  123.50	 -950.33	    9.06
     69.9500	  126.00	  137.24	 -963.08	    9.06
     69.9834	  158.00	  153.85	 -947.69	    9.05
     70.0168	  127.00	  136.89	 -961.73	    9.05
     70.0502	   83.00	   98.31	 -967.15	    9.05
     70.0837	   53.00	   66.13	 -964.96	    9.05
     70.1171	   54.00	   46.36	 -944.20	    9.05
     70.1505	   38.00	   35.88	 -949.72	    9.05
     70.1839	   27.00	   30.71	 -955.55	    9.04
     70.2174	   25.00	   28.43	 -955.27	    9.04
     70.2508	   27.00	   27.66	 -952.50	    9.04
     70.2842	   26.00	   26.74	 -952.58	    9.04
     70.3176	   27.00	   24.43	 -949.27	    9.04
     70.3511	   21.00	   21.92	 -952.75	    9.04
     70.3845	   24.00	   20.23	 -948.06	    9.03
     70.4179	   22.00	   19.48	 -949.32	    9.03
     70.4513	   19.00	   19.35	 -952.19	    9.03
     70.4847	   17.00	   19.03	 -953.86	    9.03
     70.5182	   16.00	   17.94	 -953.78	    9.03
     70.5516	   19.00	   16.70	 -949.53	    9.03
     70.5850	   15.00	   15.74	 -952.58	    9.03
     70.6184	   11.00	   15.10	 -955.93	    9.02
     70.6519	   17.00	   14.66	 -949.49	    9.02
     70.6853	   18.00	   14.33	 -948.17	    9.02
     70.7187	   12.00	   14.07	 -953.91	    9.02
     70.7521	   13.00	   13.85	 -952.69	    9.02
     70.7855	   18.00	   13.66	 -947.50	    9.02
     70.8190	   15.00	   13.49	 -950.33	    9.02
     70.8524	   16.00	   13.35	 -949.18	    9.01
     70.8858	    9.00	   13.21	 -956.05	    9.01
     70.9192	   17.00	   13.10	 -947.93	    9.01
     70.9527	   13.00	   12.99	 -951.82	    9.01
     70.9861	   21.00	   12.89	 -943.73	    9.01
     71.0195	   12.00	   12.80	 -952.64	    9.01
     71.0529	   11.00	   12.72	 -953.56	    9.01
     71.0863	   11.00	   12.65	 -953.48	    9.00
     71.1198	    7.00	   12.58	 -957.42	    9.00
     71.1532	   22.00	   12.52	 -942.35	    9.00
     71.1866	   10.00	   12.46	 -954.29	    9.00
     71.2200	   13.00	   12.40	 -951.24	    9.00
     71.2535	   18.00	   12.36	 -946.19	    9.00
     71.2869	    9.00	   12.31	 -955.15	    9.00
     71.3203	    9.00	   12.27	 -955.11	    8.99
     71.3537	   19.00	   12.23	 -945.07	    8.99
     71.3872	   11.00	   12.20	 -953.03	    8.99
     71.4206	   10.00	   12.16	 -954.00	    8.99
     71.4540	   12.00	   12.14	 -951.97	    8.99
     71.4874	   15.00	   12.11	 -948.95	    8.99
     71.5208	   18.00	   12.09	 -945.92	    8.99
     71.5543	   11.00	   12.07	 -952.90	    8.98
     71.5877	   19.00	   12.05	 -944.89	    8.98
     71.6211	    9.00	   12.04	 -954.87	    8.98
     71.6545	   17.00	   12.03	 -946.87	    8.98
     71.6880	    8.00	   12.03	 -955.86	    8.98
     71.7214	   25.00	   12.02	 -938.86	    8.98
     71.7548	   16.00	   12.03	 -947.86	    8.98
     71.7882	   12.00	   12.04	 -951.87	    8.98
     71.8216	   16.00	   12.05	 -947.89	    8.97
     71.8551	   11.00	   12.07	 -952.91	    8.97
     71.8885	   12.00	   12.10	 -951.94	    8.97
     71.9219	   20.00	   12.14	 -943.98	    8.97
     71.9553	   20.00	   12.20	 -944.03	    8.97
     71.9888	   15.00	   12.27	 -949.11	    8.97
     72.0222	   16.00	   12.36	 -948.20	    8.97
     72.0556	   23.00	   12.49	 -941.33	    8.97
     72.0890	   25.00	   12.65	 -939.49	    8.96
     72.1225	   17.00	   12.88	 -947.72	    8.96
     72.1559	   12.00	   13.20	 -953.03	    8.96
     72.1893	   11.00	   13.66	 -954.50	    8.96
     72.2227	   28.00	   14.39	 -938.23	    8.96
     72.2561	   19.00	   15.71	 -948.55	    8.96
     72.2896	   25.00	   18.26	 -945.10	    8.96
     72.3230	   28.00	   22.83	 -946.66	    8.96
     72.3564	   22.00	   30.26	 -960.10	    8.96
     72.3898	   46.00	   38.35	 -944.18	    8.95
     72.4232	   40.00	   40.04	 -951.88	    8.95
     72.4567	   42.00	   33.68	 -943.52	    8.95
     72.4901	   22.00	   26.89	 -956.73	    8.95
     72.5235	   27.00	   23.51	 -948.34	    8.95
     72.5569	   25.00	   23.92	 -950.76	    8.95
     72.5904	   40.00	   26.44	 -938.28	    8.95
     72.6238	   19.00	   27.15	 -959.99	    8.95
     72.6572	   22.00	   23.71	 -953.55	    8.95
     72.6906	   15.00	   19.34	 -956.18	    8.94
     72.7241	   16.00	   16.18	 -952.02	    8.94
     72.7575	   11.00	   14.34	 -955.17	    8.94
     72.7909	   10.00	   13.34	 -955.18	    8.94
     72.8243	   25.00	   12.78	 -939.62	    8.94
     72.8577	   15.00	   12.43	 -949.27	    8.94
     72.8912	    8.00	   12.18	 -956.02	    8.94
     72.9246	    8.00	   12.00	 -955.84	    8.94
     72.9580	    4.00	   11.86	 -959.70	    8.94
     72.9914	    9.00	   11.75	 -954.59	    8.93
     73.0249	   10.00	   11.67	 -953.50	    8.93
     73.0583	   10.00	   11.61	 -953.45	    8.93
     73.0917	   15.00	   11.55	 -948.39	    8.93
     73.1251	   10.00	   11.42	 -953.26	    8.93
     73.1585	   13.00	   11.38	 -950.22	    8.93
     73.1920	   12.00	   11.35	 -951.19	    8.93
     73.2254	   17.00	   11.32	 -946.16	    8.93
     73.2588	   13.00	   11.30	 -950.13	    8.93
     73.2922	   11.00	   11.28	 -952.12	    8.93
     73.3257	   15.00	   11.22	 -948.06	    8.92
     73.3591	    9.00	   11.21	 -954.05	    8.92
     73.3925	   17.00	   11.20	 -946.03	    8.92
     73.4259	   16.00	   11.19	 -947.02	    8.92
     73.4594	   15.00	   11.18	 -948.01	    8.92
     73.4928	   13.00	   11.17	 -950.00	    8.92
     73.5262	   12.00	   11.16	 -951.00	    8.92
     73.5596	    6.00	   11.16	 -956.99	    8.92
     73.5930	   18.00	   11.15	 -944.99	    8.92
     73.6265	   10.00	   11.15	 -952.99	    8.92
     73.6599	   10.00	   11.15	 -952.99	    8.92
     73.6933	   10.00	   11.15	 -952.99	    8.91
     73.7267	   16.00	   11.15	 -946.99	    8.91
     73.7601	    9.00	   11.16	 -953.99	    8.91
     73.7936	   10.00	   11.16	 -953.00	    8.91
     73.8270	   11.00	   11.17	 -952.01	    8.91
     73.8604	    5.00	   11.19	 -958.02	    8.91
     73.8938	   10.00	   11.21	 -953.04	    8.91
     73.9273	    9.00	   11.24	 -954.08	    8.91
     73.9607	   15.00	   11.29	 -948.13	    8.91
     73.9941	    9.00	   11.37	 -954.21	    8.91
     74.0275	   12.00	   11.50	 -951.34	    8.90
     74.0610	   15.00	   11.66	 -948.50	    8.90
     74.0944	   21.00	   11.76	 -942.60	    8.90
     74.1278	   18.00	   11.75	 -945.59	    8.90
     74.1612	   21.00	   11.73	 -942.57	    8.90
     74.1946	   13.00	   11.81	 -950.64	    8.90
     74.2281	   10.00	   12.04	 -953.87	    8.90
     74.2615	    8.00	   12.52	 -956.35	    8.90
     74.2949	   11.00	   13.39	 -954.22	    8.90
     74.3283	   12.00	   14.73	 -954.57	    8.90
     74.3618	   16.00	   16.38	 -952.22	    8.90
     74.3952	    6.00	   17.20	 -963.04	    8.90
     74.4286	   13.00	   16.23	 -955.06	    8.89
     74.4620	   13.00	   14.71	 -953.55	    8.89
     74.4955	   20.00	   13.76	 -945.59	    8.89
     74.5289	    8.00	   13.58	 -957.41	    8.89
     74.5623	   15.00	   14.00	 -950.84	    8.89
     74.5957	   15.00	   14.49	 -951.33	    8.89
     74.6291	   10.00	   14.23	 -956.07	    8.89
     74.6626	    5.00	   13.39	 -960.23	    8.89
     74.6960	   16.00	   12.64	 -948.48	    8.89
     74.7294	   10.00	   12.18	 -954.02	    8.89
     74.7628	    8.00	   11.96	 -955.80	    8.89
     74.7962	   11.00	   11.90	 -952.74	    8.89
     74.8297	   15.00	   11.94	 -948.78	    8.88
     74.8631	   13.00	   12.08	 -950.92	    8.88
     74.8965	   11.00	   12.38	 -953.22	    8.88
     74.9299	    9.00	   13.01	 -955.84	    8.88
     74.9634	    8.00	   14.20	 -958.04	    8.88
     74.9968	   15.00	   16.17	 -953.01	    8.88
     75.0302	   20.00	   18.62	 -950.45	    8.88
     75.0636	   16.00	   19.83	 -955.66	    8.88
     75.0971	   23.00	   18.43	 -947.27	    8.88
     75.1305	   13.00	   16.26	 -955.09	    8.88
     75.1639	   15.00	   14.86	 -951.70	    8.88
     75.1973	   18.00	   14.56	 -948.40	    8.88
     75.2307	   13.00	   15.13	 -953.97	    8.87
     75.2642	   17.00	   15.86	 -950.70	    8.87
     75.2976	   12.00	   15.55	 -955.39	    8.87
     75.3310	   20.00	   14.33	 -946.16	    8.87
     75.3644	    9.00	   13.17	 -956.01	    8.87
     75.3979	   19.00	   12.41	 -945.25	    8.87
     75.4313	    8.00	   11.99	 -955.82	    8.87
     75.4647	   13.00	   11.76	 -950.60	    8.87
     75.4981	    7.00	   11.64	 -956.47	    8.87
     75.5315	   13.00	   11.56	 -950.40	    8.87
     75.5650	   17.00	   11.52	 -946.35	    8.87
     75.5984	   13.00	   11.49	 -950.33	    8.87
     75.6318	   10.00	   11.48	 -953.32	    8.87
     75.6652	   17.00	   11.48	 -946.32	    8.86
     75.6987	   19.00	   11.49	 -944.33	    8.86
     75.7321	    9.00	   11.52	 -954.35	    8.86
     75.7655	   16.00	   11.55	 -947.39	    8.86
     75.7989	    9.00	   11.60	 -954.44	    8.86
     75.8324	   15.00	   11.68	 -948.52	    8.86
     75.8658	    8.00	   11.81	 -955.65	    8.86
     75.8992	   13.00	   12.03	 -950.87	    8.86
     75.9326	   18.00	   12.42	 -946.26	    8.86
     75.9660	    9.00	   13.02	 -955.86	    8.86
     75.9995	   11.00	   13.74	 -954.58	    8.86
     76.0329	   13.00	   14.11	 -952.94	    8.86
     76.0663	   17.00	   13.83	 -948.66	    8.86
     76.0997	   12.00	   13.40	 -953.24	    8.85
     76.1331	   15.00	   13.22	 -950.05	    8.85
     76.1666	   12.00	   13.36	 -953.20	    8.85
     76.2000	   16.00	   13.81	 -949.64	    8.85
     76.2334	   15.00	   14.39	 -951.22	    8.85
     76.2668	   18.00	   14.85	 -948.69	    8.85
     76.3003	   21.00	   15.28	 -946.12	    8.85
     76.3337	   21.00	   16.12	 -946.96	    8.85
     76.3671	   25.00	   17.91	 -944.75	    8.85
     76.4005	   22.00	   21.56	 -951.39	    8.85
     76.4340	   16.00	   28.44	 -964.28	    8.85
     76.4674	   52.00	   39.58	 -939.42	    8.85
     76.5008	   50.00	   53.01	 -954.84	    8.85
     76.5342	   57.00	   59.14	 -953.98	    8.85
     76.5676	   51.00	   51.12	 -951.96	    8.84
     76.6011	   50.00	   39.10	 -940.94	    8.84
     76.6345	   46.00	   31.36	 -937.19	    8.84
     76.6679	   22.00	   29.47	 -959.31	    8.84
     76.7013	   25.00	   32.41	 -959.25	    8.84
     76.7348	   38.00	   36.75	 -950.59	    8.84
     76.7682	   23.00	   36.10	 -964.94	    8.84
     76.8016	   26.00	   29.70	 -955.54	    8.84
     76.8350	   20.00	   23.04	 -954.88	    8.84
     76.8684	   15.00	   18.47	 -955.30	    8.84
     76.9019	   12.00	   15.82	 -955.65	    8.84
     76.9353	    8.00	   14.37	 -958.21	    8.84
     76.9687	   10.00	   13.54	 -955.38	    8.84
     77.0021	   13.00	   13.00	 -951.84	    8.83
     77.0356	   13.00	   12.63	 -951.46	    8.83
     77.0690	   11.00	   12.34	 -953.18	    8.83
     77.1024	    8.00	   12.13	 -955.96	    8.83
     77.1358	   12.00	   11.96	 -951.79	    8.83
     77.1693	   11.00	   11.82	 -952.66	    8.83
     77.2027	   16.00	   11.71	 -947.54	    8.83
     77.2361	    3.00	   11.61	 -960.45	    8.83
     77.2695	   11.00	   11.54	 -952.37	    8.83
     77.3029	    9.00	   11.47	 -954.31	    8.83
     77.3364	    9.00	   11.41	 -954.25	    8.83
     77.3698	    8.00	   11.36	 -955.20	    8.83
     77.4032	    7.00	   11.32	 -956.16	    8.83
     77.4366	   10.00	   11.28	 -953.12	    8.83
     77.4701	   11.00	   11.25	 -952.09	    8.82
     77.5035	    9.00	   11.22	 -954.06	    8.82
     77.5369	   10.00	   11.20	 -953.03	    8.82
     77.5703	   12.00	   11.17	 -951.01	    8.82
     77.6037	    6.00	   11.15	 -956.99	    8.82
     77.6372	   16.00	   11.14	 -946.97	    8.82
     77.6706	   15.00	   11.12	 -947.96	    8.82
     77.7040	   17.00	   11.10	 -945.94	    8.82
     77.7374	    7.00	   11.09	 -955.93	    8.82
     77.7709	    8.00	   11.08	 -954.91	    8.82
     77.8043	   11.00	   11.07	 -951.90	    8.82
     77.8377	   21.00	   11.05	 -941.89	    8.82
     77.8711	   10.00	   11.04	 -952.88	    8.82
     77.9045	    7.00	   11.04	 -955.87	    8.81
     77.9380	   15.00	   11.03	 -947.87	    8.81
     77.9714	   17.00	   11.02	 -945.86	    8.81
     78.0048	   10.00	   11.02	 -952.85	    8.81
     78.0382	    9.00	   11.01	 -953.85	    8.81
     78.0717	   16.00	   11.00	 -946.84	    8.81
     78.1051	   11.00	   11.00	 -951.84	    8.81
     78.1385	   13.00	   11.00	 -949.83	    8.81
     78.1719	    9.00	   10.99	 -953.83	    8.81
     78.2054	   15.00	   10.99	 -947.83	    8.81
     78.2388	    8.00	   10.99	 -954.82	    8.81
     78.2722	    5.00	   10.98	 -957.82	    8.81
     78.3056	   11.00	   10.98	 -951.82	    8.81
     78.3390	   10.00	   10.98	 -952.82	    8.80
     78.3725	   10.00	   10.98	 -952.82	    8.80
     78.4059	   10.00	   10.98	 -952.82	    8.80
     78.4393	    9.00	   10.98	 -953.82	    8.80
     78.4727	   11.00	   10.98	 -951.82	    8.80
     78.5061	    8.00	   10.98	 -954.81	    8.80
     78.5396	   10.00	   10.98	 -952.82	    8.80
     78.5730	    8.00	   10.98	 -954.82	    8.80
     78.6064	   10.00	   10.98	 -952.82	    8.80
     78.6398	   10.00	   10.99	 -952.82	    8.80
     78.6733	   10.00	   10.99	 -952.83	    8.80
     78.7067	   12.00	   10.99	 -950.83	    8.80
     78.7401	    2.00	   11.03	 -960.86	    8.80
     78.7735	   13.00	   11.03	 -949.87	    8.79
     78.8070	    9.00	   11.04	 -953.88	    8.79
     78.8404	   11.00	   11.05	 -951.88	    8.79
     78.8738	   12.00	   11.06	 -950.89	    8.79
     78.9072	   18.00	   11.07	 -944.90	    8.79
     78.9406	    9.00	   11.08	 -953.92	    8.79
     78.9741	    9.00	   11.11	 -953.94	    8.79
     79.0075	   11.00	   11.12	 -951.96	    8.79
     79.0409	   10.00	   11.14	 -952.98	    8.79
     79.0743	   10.00	   11.16	 -953.00	    8.79
     79.1078	   11.00	   11.19	 -952.02	    8.79
     79.1412	    7.00	   11.21	 -956.05	    8.79
     79.1746	   11.00	   11.24	 -952.08	    8.79
     79.2080	    9.00	   11.28	 -954.12	    8.78
     79.2414	    6.00	   11.32	 -957.16	    8.78
     79.2749	   11.00	   11.37	 -952.21	    8.78
     79.3083	    7.00	   11.43	 -956.27	    8.78
     79.3417	   18.00	   11.51	 -945.34	    8.78
     79.3751	    8.00	   11.59	 -955.43	    8.78
     79.4086	   10.00	   11.70	 -953.54	    8.78
     79.4420	    9.00	   11.84	 -954.67	    8.78
     79.4754	   11.00	   12.01	 -952.85	    8.78
     79.5088	   13.00	   12.23	 -951.07	    8.78
     79.5423	    8.00	   12.53	 -956.37	    8.78
     79.5757	    9.00	   12.94	 -955.78	    8.77
     79.6091	   13.00	   13.56	 -952.39	    8.77
     79.6425	   13.00	   14.56	 -953.40	    8.77
     79.6759	   15.00	   16.40	 -953.23	    8.77
     79.7094	   17.00	   19.81	 -954.65	    8.77
     79.7428	   26.00	   25.63	 -951.46	    8.77
     79.7762	   39.00	   33.77	 -946.61	    8.77
     79.8096	   46.00	   40.78	 -946.61	    8.77
     79.8430	   37.00	   39.89	 -954.72	    8.77
     79.8765	   21.00	   32.61	 -963.45	    8.77
     79.9099	   23.00	   25.89	 -954.73	    8.77
     79.9433	   16.00	   22.42	 -958.25	    8.77
     79.9767	   24.00	   22.31	 -950.15	    8.76
     80.0102	   31.00	   24.71	 -945.54	    8.76
     80.0436	   26.00	   27.39	 -953.23	    8.76
     80.0770	   21.00	   26.59	 -957.42	    8.76
     80.1104	   18.00	   22.49	 -956.33	    8.76
     80.1439	   13.00	   18.42	 -957.26	    8.76
     80.1773	   15.00	   15.63	 -952.47	    8.76
     80.2107	   16.00	   14.01	 -949.84	    8.76
     80.2441	   17.00	   13.10	 -947.94	    8.76
     80.2775	   17.00	   12.58	 -947.42	    8.76
     80.3110	    6.00	   12.25	 -958.09	    8.76
     80.3444	    6.00	   12.02	 -957.85	    8.75
     80.3778	   11.00	   11.85	 -952.68	    8.75
     80.4112	   11.00	   11.71	 -952.55	    8.75
     80.4447	   18.00	   11.61	 -945.45	    8.75
     80.4781	   17.00	   11.53	 -946.37	    8.75
     80.5115	   11.00	   11.47	 -952.31	    8.75
     80.5449	   12.00	   11.42	 -951.26	    8.75
     80.5784	   12.00	   11.40	 -951.24	    8.75
     80.6118	   11.00	   11.38	 -952.22	    8.75
     80.6452	   11.00	   11.38	 -952.21	    8.75
     80.6786	   18.00	   11.40	 -945.24	    8.74
     80.7120	   11.00	   11.46	 -952.29	    8.74
     80.7455	   11.00	   11.54	 -952.38	    8.74
     80.7789	    7.00	   11.61	 -956.44	    8.74
     80.8123	    8.00	   11.57	 -955.40	    8.74
     80.8457	   13.00	   11.48	 -950.31	    8.74
     80.8792	    9.00	   11.40	 -954.23	    8.74
     80.9126	    9.00	   11.36	 -954.19	    8.74
     80.9460	   11.00	   11.36	 -952.20	    8.74
     80.9794	   13.00	   11.39	 -950.23	    8.74
     81.0128	   10.00	   11.43	 -953.26	    8.73
     81.0463	   17.00	   11.42	 -946.26	    8.73
     81.0797	   21.00	   11.38	 -942.22	    8.73
     81.1131	   17.00	   11.34	 -946.18	    8.73
     81.1465	    5.00	   11.32	 -958.15	    8.73
     81.1800	    9.00	   11.31	 -954.15	    8.73
     81.2134	    6.00	   11.32	 -957.15	    8.73
     81.2468	    9.00	   11.33	 -954.17	    8.73
     81.2802	    8.00	   11.35	 -955.18	    8.73
     81.3136	   10.00	   11.37	 -953.21	    8.72
     81.3471	   13.00	   11.39	 -950.23	    8.72
     81.3805	   10.00	   11.42	 -953.26	    8.72
     81.4139	    7.00	   11.46	 -956.29	    8.72
     81.4473	   12.00	   11.50	 -951.33	    8.72
     81.4808	    8.00	   11.54	 -955.38	    8.72
     81.5142	   11.00	   11.59	 -952.43	    8.72
     81.5476	    9.00	   11.65	 -954.48	    8.72
     81.5810	   13.00	   11.71	 -950.55	    8.72
     81.6144	   23.00	   11.79	 -940.62	    8.71
     81.6479	   10.00	   11.87	 -953.71	    8.71
     81.6813	   18.00	   11.97	 -945.81	    8.71
     81.7147	   11.00	   12.09	 -952.92	    8.71
     81.7481	    7.00	   12.22	 -957.06	    8.71
     81.7816	   10.00	   12.38	 -954.22	    8.71
     81.8150	   15.00	   12.57	 -949.41	    8.71
     81.8484	   12.00	   12.80	 -952.63	    8.71
     81.8818	   17.00	   13.07	 -947.91	    8.71
     81.9153	   16.00	   13.42	 -949.25	    8.70
     81.9487	   12.00	   13.85	 -953.68	    8.70
     81.9821	   17.00	   14.40	 -949.23	    8.70
     82.0155	   18.00	   15.12	 -948.96	    8.70
     82.0489	   13.00	   16.11	 -954.94	    8.70
     82.0824	   22.00	   17.49	 -947.33	    8.70
     82.1158	   26.00	   19.54	 -945.38	    8.70
     82.1492	   22.00	   22.80	 -952.64	    8.70
     82.1826	   31.00	   28.49	 -949.33	    8.69
     82.2160	   50.00	   38.86	 -940.69	    8.69
     82.2495	   53.00	   56.23	 -955.07	    8.69
     82.2829	   83.00	   80.07	 -948.90	    8.69
     82.3163	  131.00	   99.89	 -920.73	    8.69
     82.3497	  117.00	   96.70	 -931.54	    8.69
     82.3832	   85.00	   75.48	 -942.31	    8.69
     82.4166	   66.00	   55.61	 -941.45	    8.69
     82.4500	   46.00	   44.70	 -950.53	    8.68
     82.4834	   52.00	   43.28	 -943.12	    8.68
     82.5169	   61.00	   49.54	 -940.38	    8.68
     82.5503	   65.00	   58.78	 -945.62	    8.68
     82.5837	   65.00	   60.95	 -947.78	    8.68
     82.6171	   54.00	   51.95	 -949.79	    8.68
     82.6505	   43.00	   40.50	 -949.34	    8.68
     82.6840	   27.00	   31.53	 -956.37	    8.67
     82.7174	   28.00	   25.04	 -948.88	    8.67
     82.7508	   22.00	   20.75	 -950.59	    8.67
     82.7842	   18.00	   18.18	 -952.01	    8.67
     82.8177	   17.00	   16.75	 -951.58	    8.67
     82.8511	    7.00	   16.08	 -960.92	    8.67
     82.8845	   13.00	   15.91	 -954.74	    8.67
     82.9179	   12.00	   15.82	 -955.65	    8.67
     82.9514	    9.00	   15.33	 -958.16	    8.66
     82.9848	   12.00	   14.56	 -954.39	    8.66
     83.0182	   13.00	   13.93	 -952.77	    8.66
     83.0516	   11.00	   13.61	 -954.45	    8.66
     83.0850	   15.00	   13.60	 -950.43	    8.66
     83.1185	   13.00	   13.77	 -952.60	    8.66
     83.1519	   22.00	   13.81	 -943.65	    8.66
     83.1853	   26.00	   13.48	 -939.32	    8.65
     83.2187	   13.00	   13.01	 -951.84	    8.65
     83.2522	   20.00	   12.64	 -944.48	    8.65
     83.2856	   21.00	   12.45	 -943.29	    8.65
     83.3190	    9.00	   12.43	 -955.26	    8.65
     83.3524	   15.00	   12.52	 -949.36	    8.65
     83.3858	   15.00	   12.62	 -949.46	    8.64
     83.4193	   23.00	   12.58	 -941.41	    8.64
     83.4527	    8.00	   12.38	 -956.22	    8.64
     83.4861	    8.00	   12.18	 -956.02	    8.64
     83.5195	   10.00	   12.06	 -953.90	    8.64
     83.5530	    8.00	   12.00	 -955.84	    8.64
     83.5864	   13.00	   11.99	 -950.83	    8.64
     83.6198	   21.00	   12.01	 -942.85	    8.63
     83.6532	    9.00	   12.06	 -954.90	    8.63
     83.6866	   12.00	   12.13	 -951.97	    8.63
     83.7201	    9.00	   12.24	 -955.08	    8.63
     83.7535	   15.00	   12.37	 -949.20	    8.63
     83.7869	   15.00	   12.53	 -949.37	    8.63
     83.8203	   18.00	   12.74	 -946.57	    8.62
     83.8538	   12.00	   13.00	 -952.84	    8.62
     83.8872	   15.00	   13.34	 -950.18	    8.62
     83.9206	   16.00	   13.79	 -949.63	    8.62
     83.9540	   12.00	   14.40	 -954.23	    8.62
     83.9874	   12.00	   15.24	 -955.08	    8.62
     84.0209	   16.00	   16.48	 -952.32	    8.61
     84.0543	   13.00	   18.51	 -957.34	    8.61
     84.0877	   22.00	   22.13	 -951.97	    8.61
     84.1211	   31.00	   28.76	 -949.60	    8.61
     84.1546	   32.00	   39.98	 -959.82	    8.61
     84.1880	   48.00	   55.98	 -959.81	    8.61
     84.2214	   63.00	   71.33	 -960.17	    8.60
     84.2548	   72.00	   72.99	 -952.83	    8.60
     84.2883	   65.00	   59.64	 -946.48	    8.60
     84.3217	   45.00	   44.67	 -951.50	    8.60
     84.3551	   45.00	   35.14	 -941.98	    8.60
     84.3885	   21.00	   32.11	 -962.95	    8.60
     84.4219	   34.00	   34.71	 -952.55	    8.59
     84.4554	   38.00	   40.86	 -954.70	    8.59
     84.4888	   55.00	   45.32	 -942.16	    8.59
     84.5222	   72.00	   41.75	 -921.59	    8.59
     84.5556	   41.00	   33.10	 -943.94	    8.59
     84.5891	   21.00	   25.29	 -956.13	    8.58
     84.6225	   22.00	   20.03	 -949.87	    8.58
     84.6559	   13.00	   16.95	 -955.78	    8.58
     84.6893	   19.00	   15.21	 -948.05	    8.58
     84.7227	   11.00	   14.18	 -955.02	    8.58
     84.7562	   18.00	   13.51	 -947.34	    8.58
     84.7896	   17.00	   13.02	 -947.86	    8.57
     84.8230	    8.00	   12.66	 -956.50	    8.57
     84.8564	   20.00	   12.37	 -944.21	    8.57
     84.8899	    5.00	   12.15	 -958.99	    8.57
     84.9233	   10.00	   11.97	 -953.80	    8.57
     84.9567	   13.00	   11.81	 -950.65	    8.56
     84.9901	   10.00	   11.69	 -953.53	    8.56
     85.0235	    7.00	   11.58	 -956.42	    8.56
     85.0570	   18.00	   11.49	 -945.33	    8.56
     85.0904	   10.00	   11.41	 -953.25	    8.56
     85.1238	   13.00	   11.34	 -950.18	    8.55
     85.1572	    9.00	   11.28	 -954.12	    8.55
     85.1907	   13.00	   11.23	 -950.07	    8.55
     85.2241	   13.00	   11.18	 -950.02	    8.55
     85.2575	   12.00	   11.14	 -950.98	    8.55
     85.2909	   16.00	   11.10	 -946.94	    8.54
     85.3244	    9.00	   11.07	 -953.91	    8.54
     85.3578	   16.00	   11.04	 -946.88	    8.54
     85.3912	    8.00	   11.01	 -954.85	    8.54
     85.4246	   11.00	   10.99	 -951.82	    8.54
     85.4580	   10.00	   10.96	 -952.80	    8.53
     85.4915	   11.00	   10.94	 -951.78	    8.53
     85.5249	   12.00	   10.92	 -950.76	    8.53
     85.5583	   13.00	   10.91	 -949.74	    8.53
     85.5917	   11.00	   10.89	 -951.73	    8.52
     85.6252	   18.00	   10.87	 -944.71	    8.52
     85.6586	   13.00	   10.86	 -949.70	    8.52
     85.6920	    8.00	   10.85	 -954.68	    8.52
     85.7254	   11.00	   10.88	 -951.72	    8.52
     85.7589	    7.00	   10.87	 -955.71	    8.51
     85.7923	   12.00	   10.86	 -950.70	    8.51
     85.8257	   10.00	   10.85	 -952.69	    8.51
     85.8591	   11.00	   10.84	 -951.68	    8.51
     85.8925	   10.00	   10.84	 -952.67	    8.50
     85.9259	    8.00	   10.83	 -954.67	    8.50
     85.9594	   12.00	   10.80	 -950.63	    8.50
     85.9928	   13.00	   10.82	 -949.65	    8.50
     86.0262	    9.00	   10.81	 -953.65	    8.50
     86.0596	   10.00	   10.81	 -952.64	    8.49
     86.0931	    6.00	   10.80	 -956.64	    8.49
     86.1265	   11.00	   10.80	 -951.64	    8.49
     86.1599	    8.00	   10.80	 -954.64	    8.49
     86.1933	   13.00	   10.79	 -949.62	    8.48
     86.2268	    9.00	   10.79	 -953.62	    8.48
     86.2602	   15.00	   10.79	 -947.62	    8.48
     86.2936	    8.00	   10.79	 -954.62	    8.48
     86.3270	   15.00	   10.79	 -947.63	    8.47
     86.3604	    8.00	   10.79	 -954.63	    8.47
     86.3939	   12.00	   10.79	 -950.63	    8.47
     86.4273	    9.00	   10.80	 -953.64	    8.47
     86.4607	   21.00	   10.80	 -941.64	    8.47
     86.4941	   16.00	   10.81	 -946.65	    8.46
     86.5276	    9.00	   10.82	 -953.65	    8.46
     86.5610	   13.00	   10.83	 -949.66	    8.46
     86.5944	    5.00	   10.84	 -957.67	    8.46
     86.6278	   20.00	   10.85	 -942.68	    8.45
     86.6613	    9.00	   10.86	 -953.70	    8.45
     86.6947	    9.00	   10.88	 -953.71	    8.45
     86.7281	   15.00	   10.90	 -947.73	    8.45
     86.7615	   18.00	   10.92	 -944.75	    8.44
     86.7949	   11.00	   10.94	 -951.78	    8.44
     86.8284	    9.00	   10.97	 -953.81	    8.44
     86.8618	   20.00	   11.03	 -942.87	    8.43
     86.8952	    9.00	   11.07	 -953.91	    8.43
     86.9286	    6.00	   11.12	 -956.95	    8.43
     86.9621	    7.00	   11.17	 -956.01	    8.43
     86.9955	    8.00	   11.24	 -955.08	    8.42
     87.0289	    6.00	   11.32	 -957.16	    8.42
     87.0623	   11.00	   11.42	 -952.26	    8.42
     87.0957	   10.00	   11.55	 -953.39	    8.42
     87.1292	   10.00	   11.73	 -953.56	    8.41
     87.1626	   16.00	   11.94	 -947.77	    8.41
     87.1960	   15.00	   12.22	 -949.06	    8.41
     87.2294	   12.00	   12.62	 -952.46	    8.41
     87.2629	    9.00	   13.23	 -956.07	    8.40
     87.2963	   17.00	   14.26	 -949.09	    8.40
     87.3297	   15.00	   16.10	 -952.94	    8.40
     87.3631	   15.00	   19.35	 -956.18	    8.39
     87.3965	   17.00	   24.45	 -959.29	    8.39
     87.4300	   38.00	   30.92	 -944.76	    8.39
     87.4634	   33.00	   35.50	 -954.33	    8.39
     87.4968	   39.00	   33.76	 -946.60	    8.38
     87.5302	   24.00	   27.90	 -955.74	    8.38
     87.5637	   22.00	   22.58	 -952.42	    8.38
     87.5971	   15.00	   19.47	 -956.31	    8.37
     87.6305	   15.00	   18.66	 -955.50	    8.37
     87.6639	   16.00	   19.82	 -955.65	    8.37
     87.6974	   19.00	   22.25	 -955.08	    8.37
     87.7308	   21.00	   24.18	 -955.02	    8.36
     87.7642	   32.00	   23.20	 -943.03	    8.36
     87.7976	   22.00	   20.01	 -949.85	    8.36
     87.8310	   13.00	   16.91	 -955.75	    8.35
     87.8645	   17.00	   14.75	 -949.58	    8.35
     87.8979	    9.00	   13.44	 -956.27	    8.35
     87.9313	   15.00	   12.68	 -949.51	    8.35
     87.9647	    7.00	   12.25	 -957.08	    8.34
     87.9982	   11.00	   11.98	 -952.81	    8.34
     88.0316	   13.00	   11.79	 -950.63	    8.34
     88.0650	    9.00	   11.66	 -954.50	    8.33
     88.0984	    9.00	   11.56	 -954.40	    8.33
     88.1318	   15.00	   11.49	 -948.33	    8.33
     88.1653	    8.00	   11.43	 -955.26	    8.32
     88.1987	   11.00	   11.39	 -952.22	    8.32
     88.2321	    5.00	   11.36	 -958.20	    8.32
     88.2655	   24.00	   11.35	 -939.18	    8.31
     88.2990	   12.00	   11.34	 -951.17	    8.31
     88.3324	   15.00	   11.34	 -948.18	    8.31
     88.3658	   12.00	   11.35	 -951.18	    8.30
     88.3992	    8.00	   11.36	 -955.20	    8.30
     88.4326	   12.00	   11.38	 -951.22	    8.30
     88.4661	   17.00	   11.40	 -946.24	    8.29
     88.4995	   10.00	   11.44	 -953.27	    8.29
     88.5329	   17.00	   11.48	 -946.31	    8.29
     88.5663	   16.00	   11.52	 -947.36	    8.29
     88.5998	   10.00	   11.57	 -953.41	    8.28
     88.6332	   11.00	   11.63	 -952.47	    8.28
     88.6666	   17.00	   11.70	 -946.54	    8.28
     88.7000	   11.00	   11.78	 -952.62	    8.27
     88.7334	   24.00	   11.88	 -939.71	    8.27
     88.7669	   19.00	   11.98	 -944.82	    8.27
     88.8003	   17.00	   12.10	 -946.94	    8.26
     88.8337	   16.00	   12.24	 -948.07	    8.26
     88.8671	    8.00	   12.40	 -956.23	    8.25
     88.9006	   17.00	   12.58	 -947.42	    8.25
     88.9340	   12.00	   12.79	 -952.63	    8.25
     88.9674	   20.00	   13.04	 -944.88	    8.24
     89.0008	   13.00	   13.34	 -952.18	    8.24
     89.0343	   13.00	   13.69	 -952.53	    8.24
     89.0677	   15.00	   14.11	 -950.95	    8.23
     89.1011	   20.00	   14.63	 -946.47	    8.23
     89.1345	   12.00	   15.27	 -955.10	    8.23
     89.1679	   11.00	   16.06	 -956.90	    8.22
     89.2014	   21.00	   17.08	 -947.92	    8.22
     89.2348	   12.00	   18.41	 -958.25	    8.22
     89.2682	   19.00	   20.20	 -953.04	    8.21
     89.3016	   33.00	   22.75	 -941.58	    8.21
     89.3351	   25.00	   26.67	 -953.50	    8.21
     89.3685	   34.00	   33.32	 -951.16	    8.20
     89.4019	   45.00	   45.22	 -952.06	    8.20
     89.4353	   62.00	   65.71	 -955.55	    8.19
     89.4688	   82.00	   97.13	 -966.97	    8.19
     89.5022	  140.00	  135.39	 -947.23	    8.19
     89.5356	  180.00	  159.99	 -931.82	    8.18
     89.5690	  142.00	  147.12	 -956.95	    8.18
     89.6024	  128.00	  112.03	 -935.87	    8.18
     89.6359	   71.00	   80.72	 -961.56	    8.17
     89.6693	   72.00	   62.14	 -941.98	    8.17
     89.7027	   49.00	   56.63	 -959.47	    8.16
     89.7361	   42.00	   62.37	 -972.21	    8.16
     89.7695	   73.00	   76.16	 -955.00	    8.16
     89.8030	  100.00	   89.71	 -941.55	    8.15
     89.8364	   97.00	   88.42	 -943.26	    8.15
     89.8698	   86.00	   71.38	 -937.21	    8.14
     89.9032	   64.00	   52.16	 -940.00	    8.14
     89.9367	   31.00	   37.81	 -958.64	    8.14
     89.9701	   32.00	   28.79	 -948.62	    8.13
     90.0035	   21.00	   23.59	 -954.43	    8.13
     90.0369	   24.00	   20.61	 -948.45	    8.13
     90.0703	   13.00	   18.79	 -957.63	    8.12
     90.1038	   15.00	   17.59	 -954.43	    8.12
     90.1372	   19.00	   16.76	 -949.60	    8.11
     90.1706	   20.00	   16.18	 -948.02	    8.11
     90.2040	   20.00	   15.80	 -947.64	    8.11
     90.2375	   26.00	   15.58	 -941.41	    8.10
     90.2709	   18.00	   15.50	 -949.34	    8.10
     90.3043	   19.00	   15.57	 -948.40	    8.09
     90.3377	    9.00	   15.79	 -958.62	    8.09
     90.3712	   21.00	   16.20	 -947.03	    8.08
     90.4046	   19.00	   16.84	 -949.68	    8.08
     90.4380	   20.00	   17.84	 -949.68	    8.08
     90.4714	   22.00	   19.42	 -949.26	    8.07
     90.5048	   15.00	   22.11	 -958.95	    8.07
     90.5383	   37.00	   26.95	 -941.78	    8.06
     90.5717	   39.00	   35.56	 -948.40	    8.06
     90.6051	   55.00	   49.63	 -946.47	    8.06
     90.6385	   68.00	   69.10	 -952.93	    8.05
     90.6720	   90.00	   87.80	 -949.64	    8.05
     90.7054	  102.00	   91.13	 -940.97	    8.04
     90.7388	   79.00	   75.95	 -948.78	    8.04
     90.7722	   70.00	   56.82	 -938.66	    8.03
     90.8056	   45.00	   42.94	 -949.78	    8.03
     90.8391	   32.00	   36.14	 -955.98	    8.02
     90.8725	   36.00	   35.84	 -951.68	    8.02
     90.9059	   37.00	   40.90	 -955.73	    8.02
     90.9393	   55.00	   49.06	 -945.89	    8.01
     90.9728	   65.00	   54.40	 -941.23	    8.01
     91.0062	   52.00	   50.19	 -950.02	    8.00
     91.0396	   39.00	   39.83	 -952.67	    8.00
     91.0730	   36.00	   30.10	 -945.94	    7.99
     91.1064	   23.00	   23.26	 -952.10	    7.99
     91.1399	   15.00	   19.06	 -955.90	    7.98
     91.1733	   15.00	   16.62	 -953.46	    7.98
     91.2067	   26.00	   15.17	 -941.00	    7.98
     91.2401	   16.00	   14.25	 -950.09	    7.97
     91.2736	   12.00	   13.58	 -953.41	    7.97
     91.3070	    7.00	   13.07	 -957.90	    7.96
     91.3404	   21.00	   12.67	 -943.51	    7.96
     91.3738	   12.00	   12.35	 -952.19	    7.95
     91.4073	   19.00	   12.09	 -944.93	    7.95
     91.4407	    9.00	   11.87	 -954.71	    7.94
     91.4741	   11.00	   11.69	 -952.53	    7.94
     91.5075	    8.00	   11.53	 -955.37	    7.93
     91.5409	   11.00	   11.42	 -952.25	    7.93
     91.5744	   20.00	   11.30	 -943.14	    7.92
     91.6078	   10.00	   11.20	 -953.04	    7.92
     91.6412	   20.00	   11.11	 -942.95	    7.91
     91.6746	   18.00	   11.03	 -944.87	    7.91
     91.7081	   20.00	   10.96	 -942.80	    7.90
     91.7415	   20.00	   10.89	 -942.73	    7.90
     91.7749	   16.00	   10.84	 -946.67	    7.89
     91.8083	   17.00	   10.78	 -945.62	    7.89
     91.8418	   12.00	   10.74	 -950.57	    7.88
     91.8752	    8.00	   10.69	 -954.53	    7.88
     91.9086	   19.00	   10.65	 -943.49	    7.87
     91.9420	   13.00	   10.61	 -949.45	    7.87
     91.9754	   11.00	   10.61	 -951.45	    7.86
     92.0089	    9.00	   10.58	 -953.41	    7.86
     92.0423	    7.00	   10.55	 -955.38	    7.85
     92.0757	   12.00	   10.52	 -950.36	    7.85
     92.1091	    9.00	   10.50	 -953.33	    7.84
     92.1425	   12.00	   10.47	 -950.31	    7.84
     92.1760	   10.00	   10.45	 -952.29	    7.83
     92.2094	   11.00	   10.43	 -951.26	    7.83
     92.2428	   11.00	   10.41	 -951.25	    7.82
     92.2762	    9.00	   10.41	 -953.24	    7.82
     92.3097	    7.00	   10.39	 -955.23	    7.81
     92.3431	    9.00	   10.37	 -953.21	    7.81
     92.3765	    8.00	   10.36	 -954.19	    7.80
     92.4099	    8.00	   10.34	 -954.18	    7.80
     92.4433	    8.00	   10.33	 -954.17	    7.79
     92.4768	   10.00	   10.32	 -952.15	    7.79
     92.5102	   10.00	   10.31	 -952.14	    7.78
     92.5436	   12.00	   10.29	 -950.13	    7.78
     92.5770	   16.00	   10.28	 -946.12	    7.77
     92.6105	    9.00	   10.27	 -953.11	    7.77
     92.6439	   17.00	   10.27	 -945.10	    7.76
     92.6773	   20.00	   10.26	 -942.09	    7.75
     92.7107	   10.00	   10.25	 -952.09	    7.75
     92.7442	   15.00	   10.24	 -947.08	    7.74
     92.7776	    8.00	   10.24	 -954.07	    7.74
     92.8110	    9.00	   10.23	 -953.07	    7.73
     92.8444	   10.00	   10.23	 -952.06	    7.73
     92.8778	    8.00	   10.22	 -954.06	    7.72
     92.9113	    8.00	   10.22	 -954.06	    7.72
     92.9447	   10.00	   10.22	 -952.06	    7.71
     92.9781	   15.00	   10.22	 -947.06	    7.71
     93.0115	   16.00	   10.22	 -946.06	    7.70
     93.0450	    7.00	   10.23	 -955.07	    7.69
     93.0784	   15.00	   10.26	 -947.10	    7.69
     93.1118	   15.00	   10.28	 -947.12	    7.68
     93.1452	   13.00	   10.33	 -949.16	    7.68
     93.1786	   16.00	   10.40	 -946.23	    7.67
     93.2121	   15.00	   10.50	 -947.34	    7.67
     93.2455	   16.00	   10.62	 -946.45	    7.66
     93.2789	   16.00	   10.67	 -946.51	    7.65
     93.3123	    8.00	   10.61	 -954.45	    7.65
     93.3458	   11.00	   10.51	 -951.34	    7.64
     93.3792	   11.00	   10.38	 -951.22	    7.64
     93.4126	    9.00	   10.33	 -953.17	    7.63
     93.4460	   12.00	   10.32	 -950.16	    7.62
     93.4794	   15.00	   10.34	 -947.18	    7.62
     93.5129	   11.00	   10.39	 -951.22	    7.61
     93.5463	    8.00	   10.44	 -954.28	    7.61
     93.5797	   10.00	   10.47	 -952.31	    7.60
     93.6131	    7.00	   10.44	 -955.28	    7.59
     93.6466	   13.00	   10.40	 -949.24	    7.59
     93.6800	    9.00	   10.34	 -953.18	    7.58
     93.7134	   10.00	   10.32	 -952.16	    7.58
     93.7468	   13.00	   10.32	 -949.16	    7.57
     93.7803	   11.00	   10.33	 -951.17	    7.56
     93.8137	   11.00	   10.35	 -951.19	    7.56
     93.8471	    9.00	   10.37	 -953.21	    7.55
     93.8805	   13.00	   10.41	 -949.24	    7.55
     93.9139	   15.00	   10.44	 -947.28	    7.54
     93.9474	    9.00	   10.49	 -953.33	    7.53
     93.9808	   11.00	   10.55	 -951.39	    7.53
     94.0142	   20.00	   10.64	 -942.48	    7.52
     94.0476	   12.00	   10.77	 -950.61	    7.51
     94.0811	   15.00	   10.98	 -947.82	    7.51
     94.1145	   11.00	   11.31	 -952.15	    7.50
     94.1479	    9.00	   11.77	 -954.61	    7.50
     94.1813	   11.00	   12.30	 -953.13	    7.49
     94.2148	   21.00	   12.60	 -943.44	    7.48
     94.2482	   16.00	   12.45	 -948.28	    7.48
     94.2816	   18.00	   12.06	 -945.89	    7.47
     94.3150	   10.00	   11.73	 -953.56	    7.46
     94.3484	   18.00	   11.55	 -945.39	    7.46
     94.3819	   16.00	   11.54	 -947.38	    7.45
     94.4153	   13.00	   11.67	 -950.51	    7.44
     94.4487	   15.00	   11.92	 -948.75	    7.44
     94.4821	    8.00	   12.23	 -956.07	    7.43
     94.5155	   11.00	   12.48	 -953.32	    7.42
     94.5490	   20.00	   12.50	 -944.34	    7.42
     94.5824	   18.00	   12.44	 -946.27	    7.41
     94.6158	   12.00	   12.41	 -952.25	    7.40
     94.6492	   23.00	   12.48	 -941.32	    7.40
     94.6827	   28.00	   12.65	 -936.49	    7.39
     94.7161	   17.00	   12.92	 -947.75	    7.38
     94.7495	   15.00	   13.26	 -950.10	    7.38
     94.7829	   18.00	   13.70	 -947.54	    7.37
     94.8163	   15.00	   14.24	 -951.08	    7.36
     94.8498	   21.00	   14.91	 -945.75	    7.36
     94.8832	   18.00	   15.77	 -949.61	    7.35
     94.9166	   22.00	   16.89	 -946.72	    7.34
     94.9500	   24.00	   18.36	 -946.20	    7.34
     94.9835	   16.00	   20.41	 -956.24	    7.33
     95.0169	   21.00	   23.44	 -954.28	    7.32
     95.0503	   41.00	   28.30	 -939.14	    7.32
     95.0837	   43.00	   36.57	 -945.40	    7.31
     95.1172	   50.00	   50.52	 -952.36	    7.30
     95.1506	   83.00	   72.28	 -941.12	    7.29
     95.1840	  116.00	  101.79	 -937.63	    7.29
     95.2174	  125.00	  131.67	 -958.51	    7.28
     95.2508	  166.00	  141.98	 -927.81	    7.27
     95.2843	  132.00	  122.67	 -942.51	    7.27
     95.3177	   86.00	   92.50	 -958.33	    7.26
     95.3511	   87.00	   67.97	 -932.81	    7.25
     95.3845	   65.00	   53.53	 -940.37	    7.25
     95.4180	   54.00	   48.83	 -946.67	    7.24
     95.4514	   55.00	   52.45	 -949.28	    7.23
     95.4848	   57.00	   62.66	 -957.49	    7.22
     95.5182	   81.00	   75.88	 -946.72	    7.22
     95.5517	   92.00	   82.97	 -942.81	    7.21
     95.5851	   86.00	   75.52	 -941.36	    7.20
     95.6185	   58.00	   59.90	 -953.74	    7.19
     95.6519	   51.00	   45.63	 -946.47	    7.19
     95.6853	   51.00	   35.89	 -936.73	    7.18
     95.7188	   42.00	   30.44	 -940.28	    7.17
     95.7522	   26.00	   28.24	 -954.08	    7.16
     95.7856	   41.00	   28.58	 -939.42	    7.16
     95.8190	   39.00	   31.61	 -944.45	    7.15
     95.8524	   42.00	   38.43	 -948.27	    7.14
     95.8859	   49.00	   50.71	 -953.55	    7.13
     95.9193	   73.00	   69.47	 -948.31	    7.13
     95.9527	   96.00	   92.27	 -948.11	    7.12
     95.9861	  119.00	  108.01	 -940.84	    7.11
     96.0196	  101.00	  102.50	 -953.34	    7.10
     96.0530	   79.00	   81.61	 -954.45	    7.10
     96.0864	   53.00	   60.63	 -959.47	    7.09
     96.1198	   46.00	   46.17	 -952.01	    7.08
     96.1533	   43.00	   38.99	 -947.83	    7.07
     96.1867	   43.00	   38.31	 -947.14	    7.07
     96.2201	   36.00	   43.15	 -958.98	    7.06
     96.2535	   55.00	   52.04	 -948.87	    7.05
     96.2869	   63.00	   60.73	 -949.57	    7.04
     96.3204	   84.00	   61.27	 -929.11	    7.03
     96.3538	   56.00	   51.88	 -947.71	    7.03
     96.3872	   41.00	   39.88	 -950.72	    7.02
     96.4206	   36.00	   30.20	 -946.04	    7.01
     96.4541	   26.00	   23.71	 -949.55	    7.00
     96.4875	   22.00	   19.77	 -949.61	    6.99
     96.5209	   22.00	   17.45	 -947.29	    6.99
     96.5543	   10.00	   16.05	 -957.88	    6.98
     96.5877	   19.00	   15.14	 -947.97	    6.97
     96.6212	   23.00	   14.52	 -943.35	    6.96
     96.6546	   21.00	   14.09	 -944.93	    6.95
     96.6880	   15.00	   13.82	 -950.65	    6.95
     96.7214	   13.00	   13.67	 -952.51	    6.94
     96.7549	   16.00	   13.64	 -949.48	    6.93
     96.7883	   12.00	   13.73	 -953.57	    6.92
     96.8217	   18.00	   13.96	 -947.79	    6.91
     96.8551	   27.00	   14.36	 -939.19	    6.91
     96.8885	   15.00	   15.00	 -951.84	    6.90
     96.9220	   17.00	   16.03	 -950.87	    6.89
     96.9554	   18.00	   17.79	 -951.62	    6.88
     96.9888	   20.00	   20.86	 -952.70	    6.87
     97.0222	   25.00	   26.21	 -953.05	    6.86
     97.0557	   36.00	   34.85	 -950.69	    6.85
     97.0891	   52.00	   47.01	 -946.84	    6.85
     97.1225	   64.00	   60.15	 -947.98	    6.84
     97.1559	   76.00	   66.40	 -942.24	    6.83
     97.1893	   54.00	   59.94	 -957.77	    6.82
     97.2228	   42.00	   47.18	 -957.02	    6.81
     97.2562	   32.00	   35.87	 -955.71	    6.80
     97.2896	   28.00	   28.55	 -952.38	    6.80
     97.3230	   23.00	   25.26	 -954.10	    6.79
     97.3565	   30.00	   25.50	 -947.34	    6.78
     97.3899	   31.00	   28.76	 -949.60	    6.77
     97.4233	   43.00	   34.12	 -942.96	    6.76
     97.4567	   51.00	   38.93	 -939.77	    6.75
     97.4902	   46.00	   38.67	 -944.51	    6.74
     97.5236	   25.00	   32.94	 -959.78	    6.73
     97.5570	   37.00	   26.02	 -940.86	    6.73
     97.5904	   21.00	   20.50	 -951.34	    6.72
     97.6238	   19.00	   16.80	 -949.64	    6.71
     97.6573	   20.00	   14.53	 -946.37	    6.70
     97.6907	    8.00	   13.17	 -957.00	    6.69
     97.7241	   18.00	   12.31	 -946.15	    6.68
     97.7575	   12.00	   11.72	 -951.56	    6.67
     97.7910	   10.00	   11.29	 -953.13	    6.66
     97.8244	   15.00	   10.96	 -947.80	    6.65
     97.8578	   12.00	   10.70	 -950.54	    6.65
     97.8912	    8.00	   10.49	 -954.32	    6.64
     97.9247	   19.00	   10.31	 -943.15	    6.63
     97.9581	    7.00	   10.17	 -955.00	    6.62
     97.9915	   11.00	   10.04	 -950.88	    6.61
     98.0249	    7.00	    9.94	 -954.78	    6.60
     98.0583	   12.00	    9.86	 -949.70	    6.59
     98.0918	   13.00	    9.79	 -948.63	    6.58
     98.1252	   12.00	    9.74	 -949.58	    6.57
     98.1586	   18.00	    9.72	 -943.55	    6.56
     98.1920	    9.00	    9.72	 -952.56	    6.55
     98.2254	   11.00	    9.77	 -950.61	    6.54
     98.2589	    6.00	    9.90	 -955.74	    6.53
     98.2923	   18.00	   10.14	 -943.98	    6.53
     98.3257	   12.00	   10.50	 -950.34	    6.52
     98.3591	   15.00	   10.90	 -947.73	    6.51
     98.3926	    9.00	   11.14	 -953.98	    6.50
     98.4260	   10.00	   11.16	 -953.00	    6.49
     98.4594	   16.00	   11.09	 -946.92	    6.48
     98.4928	   13.00	   10.91	 -949.75	    6.47
     98.5262	    9.00	   10.56	 -953.40	    6.46
     98.5597	    8.00	   10.18	 -954.02	    6.45
     98.5931	    7.00	    9.92	 -954.76	    6.44
     98.6265	   13.00	    9.82	 -948.66	    6.43
     98.6599	    5.00	    9.86	 -956.69	    6.42
     98.6934	   12.00	    9.95	 -949.79	    6.41
     98.7268	   18.00	    9.99	 -943.82	    6.40
     98.7602	   15.00	    9.93	 -946.77	    6.39
     98.7936	    9.00	    9.85	 -952.69	    6.38
     98.8271	   10.00	    9.71	 -951.55	    6.37
     98.8605	    6.00	    9.49	 -955.32	    6.36
     98.8939	   12.00	    9.26	 -949.09	    6.35
     98.9273	   12.00	    9.07	 -948.91	    6.34
     98.9607	    5.00	    8.94	 -955.78	    6.33
     98.9942	   16.00	    8.85	 -944.69	    6.32
     99.0276	    7.00	    8.79	 -953.62	    6.31
     99.0610	   21.00	    8.74	 -939.58	    6.30
     99.0944	   13.00	    8.70	 -947.54	    6.29
     99.1279	    6.00	    8.67	 -954.51	    6.28
     99.1613	   10.00	    8.64	 -950.48	    6.27
     99.1947	   13.00	    8.62	 -947.45	    6.26
     99.2281	   10.00	    8.59	 -950.43	    6.25
     99.2616	   11.00	    8.53	 -949.37	    6.24
     99.2950	    8.00	    8.51	 -952.35	    6.23
     99.3284	    7.00	    8.49	 -953.33	    6.22
     99.3618	   16.00	    8.47	 -944.31	    6.21
     99.3952	    7.00	    8.46	 -953.30	    6.20
     99.4287	   13.00	    8.44	 -947.28	    6.19
     99.4621	    7.00	    8.43	 -953.27	    6.18
     99.4955	   15.00	    8.42	 -945.26	    6.17
     99.5289	    9.00	    8.41	 -951.25	    6.16
     99.5623	    9.00	    8.40	 -951.24	    6.15
     99.5958	   13.00	    8.38	 -947.22	    6.14
     99.6292	   16.00	    8.38	 -944.22	    6.13
     99.6626	   13.00	    8.40	 -947.24	    6.12
     99.6960	    6.00	    8.44	 -954.28	    6.11
     99.7295	   12.00	    8.52	 -948.35	    6.10
     99.7629	    9.00	    8.64	 -951.48	    6.08
     99.7963	   18.00	    8.81	 -942.65	    6.07
     99.8297	    8.00	    8.98	 -952.82	    6.06
     99.8632	    5.00	    9.03	 -955.87	    6.05
     99.8966	    5.00	    8.90	 -955.74	    6.04
     99.9300	   11.00	    8.70	 -949.54	    6.03
     99.9634	    8.00	    8.53	 -952.36	    6.02
     99.9968	    9.00	    8.41	 -951.25	    6.01
     25.3042	        	        	        	        	    -237	(  1  0  1)	  0  1 :  2
     25.3675	        	        	        	        	    -237	(  1  0  1)	  0  2 :  2
     27.4336	        	        	        	        	       0	(  1  1  0)	  0  1 :  1
     27.5025	        	        	        	        	       0	(  1  1  0)	  0  2 :  1
     36.0764	        	        	        	        	       0	(  1  0  1)	  0  1 :  1
     36.1682	        	        	        	        	       0	(  1  0  1)	  0  2 :  1
     36.9590	        	        	        	        	    -237	(  1  0  3)	  0  1 :  2
     37.0532	        	        	        	        	    -237	(  1  0  3)	  0  2 :  2
     37.8117	        	        	        	        	    -237	(  0  0  4)	  0  1 :  2
     37.9083	        	        	        	        	    -237	(  0  0  4)	  0  2 :  2
     38.5692	        	        	        	        	    -237	(  1  1  2)	  0  1 :  2
     38.6678	        	        	        	        	    -237	(  1  1  2)	  0  2 :  2
     39.1868	        	        	        	        	       0	(  2  0  0)	  0  1 :  1
     39.2872	        	        	        	        	       0	(  2  0  0)	  0  2 :  1
     41.2356	        	        	        	        	       0	(  1  1  1)	  0  1 :  1
     41.3417	        	        	        	        	       0	(  1  1  1)	  0  2 :  1
     44.0394	        	        	        	        	       0	(  2  1  0)	  0  1 :  1
     44.1534	        	        	        	        	       0	(  2  1  0)	  0  2 :  1
     48.0334	        	        	        	        	    -237	(  2  0  0)	  0  1 :  2
     48.1591	        	        	        	        	    -237	(  2  0  0)	  0  2 :  2
     51.9605	        	        	        	        	    -237	(  2  0  2)	  0  1 :  2
     52.0980	        	        	        	        	    -237	(  2  0  2)	  0  2 :  2
     53.9072	        	        	        	        	    -237	(  1  0  5)	  0  1 :  2
     54.0506	        	        	        	        	    -237	(  1  0  5)	  0  2 :  2
     54.3155	        	        	        	        	       0	(  2  1  1)	  0  1 :  1
     54.4601	        	        	        	        	       0	(  2  1  1)	  0  2 :  1
     55.0580	        	        	        	        	    -237	(  2  1  1)	  0  1 :  2
     55.2049	        	        	        	        	    -237	(  2  1  1)	  0  2 :  2
     56.6207	        	        	        	        	       0	(  2  2  0)	  0  1 :  1
     56.7726	        	        	        	        	       0	(  2  2  0)	  0  2 :  1
     62.1109	        	        	        	        	    -237	(  2  1  3)	  0  1 :  2
     62.2807	        	        	        	        	    -237	(  2  1  3)	  0  2 :  2
     62.6951	        	        	        	        	    -237	(  2  0  4)	  0  1 :  2
     62.7521	        	        	        	        	       0	(  0  0  2)	  0  1 :  1
     62.8669	        	        	        	        	    -237	(  2  0  4)	  0  2 :  2
     62.9241	        	        	        	        	       0	(  0  0  2)	  0  2 :  1
     64.0413	        	        	        	        	       0	(  3  1  0)	  0  1 :  1
     64.2177	        	        	        	        	       0	(  3  1  0)	  0  2 :  1
     65.5034	        	        	        	        	       0	(  2  2  1)	  0  1 :  1
     65.6849	        	        	        	        	       0	(  2  2  1)	  0  2 :  1
     68.7822	        	        	        	        	    -237	(  1  1  6)	  0  1 :  2
     68.9753	        	        	        	        	    -237	(  1  1  6)	  0  2 :  2
     68.9973	        	        	        	        	       0	(  3  0  1)	  0  1 :  1
     69.1912	        	        	        	        	       0	(  3  0  1)	  0  2 :  1
     69.7946	        	        	        	        	       0	(  1  1  2)	  0  1 :  1
     69.9914	        	        	        	        	       0	(  1  1  2)	  0  2 :  1
     70.2819	        	        	        	        	    -237	(  2  2  0)	  0  1 :  2
     70.4804	        	        	        	        	    -237	(  2  2  0)	  0  2 :  2
     72.4112	        	        	        	        	       0	(  3  1  1)	  0  1 :  1
     72.6177	        	        	        	        	       0	(  3  1  1)	  0  2 :  1
     74.0893	        	        	        	        	    -237	(  1  0  7)	  0  1 :  2
     74.3022	        	        	        	        	    -237	(  1  0  7)	  0  2 :  2
     74.3928	        	        	        	        	       0	(  3  2  0)	  0  1 :  1
     74.6069	        	        	        	        	       0	(  3  2  0)	  0  2 :  1
     75.0610	        	        	        	        	    -237	(  2  1  5)	  0  1 :  2
     75.2777	        	        	        	        	    -237	(  2  1  5)	  0  2 :  2
     76.0282	        	        	        	        	    -237	(  3  0  1)	  0  1 :  2
     76.2488	        	        	        	        	    -237	(  3  0  1)	  0  2 :  2
     76.5303	        	        	        	        	       0	(  2  0  2)	  0  1 :  1
     76.7529	        	        	        	        	       0	(  2  0  2)	  0  2 :  1
     78.6815	        	        	        	        	    -237	(  2  0  6)	  0  1 :  2
     78.9128	        	        	        	        	    -237	(  2  0  6)	  0  2 :  2
     79.8222	        	        	        	        	       0	(  2  1  2)	  0  1 :  1
     80.0583	        	        	        	        	       0	(  2  1  2)	  0  2 :  1
     80.7863	        	        	        	        	    -237	(  0  0  8)	  0  1 :  2
     81.0264	        	        	        	        	    -237	(  0  0  8)	  0  2 :  2
     82.1571	        	        	        	        	    -237	(  3  0  3)	  0  1 :  2
     82.3281	        	        	        	        	       0	(  3  2  1)	  0  1 :  1
     82.4030	        	        	        	        	    -237	(  3  0  3)	  0  2 :  2
     82.5748	        	        	        	        	       0	(  3  2  1)	  0  2 :  1
     82.6794	        	        	        	        	    -237	(  2  2  4)	  0  1 :  2
     82.9276	        	        	        	        	    -237	(  2  2  4)	  0  2 :  2
     83.1513	        	        	        	        	    -237	(  3  1  2)	  0  1 :  2
     83.4016	        	        	        	        	    -237	(  3  1  2)	  0  2 :  2
     84.2403	        	        	        	        	       0	(  4  0  0)	  0  1 :  1
     84.4954	        	        	        	        	       0	(  4  0  0)	  0  2 :  1
     87.4708	        	        	        	        	       0	(  4  1  0)	  0  1 :  1
     87.7408	        	        	        	        	       0	(  4  1  0)	  0  2 :  1
     89.5405	        	        	        	        	       0	(  2  2  2)	  0  1 :  1
     89.8205	        	        	        	        	       0	(  2  2  2)	  0  2 :  1
     90.6932	        	        	        	        	       0	(  3  3  0)	  0  1 :  1
     90.9789	        	        	        	        	       0	(  3  3  0)	  0  2 :  1
     92.1910	        	        	        	        	    -237	(  3  1  4)	  0  1 :  2
     92.4843	        	        	        	        	    -237	(  3  1  4)	  0  2 :  2
     93.2771	        	        	        	        	    -237	(  2  1  7)	  0  1 :  2
     93.5760	        	        	        	        	    -237	(  2  1  7)	  0  2 :  2
     94.2158	        	        	        	        	    -237	(  3  0  5)	  0  1 :  2
     94.5197	        	        	        	        	    -237	(  3  0  5)	  0  2 :  2
     95.1556	        	        	        	        	    -237	(  3  2  1)	  0  1 :  2
     95.2448	        	        	        	        	       0	(  4  1  1)	  0  1 :  1
     95.4645	        	        	        	        	    -237	(  3  2  1)	  0  2 :  2
     95.5542	        	        	        	        	       0	(  4  1  1)	  0  2 :  1
     95.9947	        	        	        	        	       0	(  3  1  2)	  0  1 :  1
     96.3082	        	        	        	        	       0	(  3  1  2)	  0  2 :  1
     97.1550	        	        	        	        	       0	(  4  2  0)	  0  1 :  1
     97.4750	        	        	        	        	       0	(  4  2  0)	  0  2 :  1
     98.3838	        	        	        	        	    -237	(  1  0  9)	  0  1 :  2
     98.4901	        	        	        	        	       0	(  3  3  1)	  0  1 :  1
     98.7108	        	        	        	        	    -237	(  1  0  9)	  0  2 :  2
     98.8178	        	        	        	        	       0	(  3  3  1)	  0  2 :  1
     99.8568	        	        	        	        	    -237	(  2  0  8)	  0  1 :  2
    100.1925	        	        	        	        	    -237	(  2  0  8)	  0  2 :  2
    101.2357	        	        	        	        	    -237	(  3  2  3)	  0  1 :  2
    101.5798	        	        	        	        	    -237	(  3  2  3)	  0  2 :  2
    105.0757	        	        	        	        	       0	(  4  2  1)	  0  1 :  1
    105.4443	        	        	        	        	       0	(  4  2  1)	  0  2 :  1
    105.8500	        	        	        	        	       0	(  3  2  2)	  0  1 :  1
    106.0267	        	        	        	        	       0	(  1  0  3)	  0  1 :  1
    106.2239	        	        	        	        	       0	(  3  2  2)	  0  2 :  1
    106.4019	        	        	        	        	       0	(  1  0  3)	  0  2 :  1
    107.4993	        	        	        	        	    -237	(  3  1  6)	  0  1 :  2
    107.8847	        	        	        	        	    -237	(  3  1  6)	  0  2 :  2
    108.9786	        	        	        	        	    -237	(  4  0  0)	  0  1 :  2
