 TiO2   Chi2:  2.2640  CELL:    4.59419   4.59419   2.95877   90.0000   90.0000   90.0000   SPGR: P 42/m n m             TEMP:      0.00
  2   2394     1.54060     1.54439     0.00000     0.10076     0.00000    0
    57    58     0     0     0
 2Theta	Yobs	Ycal	Yobs-Ycal	Backg	Posr	(hkl)	K
     20.0167	   60.00	   69.96	 -903.96	   63.86
     20.0501	   76.00	   69.92	 -887.92	   63.81
     20.0836	   62.00	   69.87	 -901.87	   63.76
     20.1170	   58.00	   69.82	 -905.82	   63.72
     20.1504	   70.00	   69.77	 -893.77	   63.67
     20.1838	   75.00	   69.73	 -888.73	   63.62
     20.2172	   61.00	   69.68	 -902.68	   63.58
     20.2507	   54.00	   69.63	 -909.63	   63.53
     20.2841	   68.00	   69.59	 -895.59	   63.48
     20.3175	   64.00	   69.54	 -899.54	   63.43
     20.3509	   85.00	   69.49	 -878.49	   63.39
     20.3844	   67.00	   69.45	 -896.45	   63.34
     20.4178	   80.00	   69.40	 -883.40	   63.29
     20.4512	   66.00	   69.35	 -897.35	   63.25
     20.4846	   52.00	   69.30	 -911.30	   63.20
     20.5181	   58.00	   69.26	 -905.26	   63.15
     20.5515	   64.00	   69.21	 -899.21	   63.11
     20.5849	   62.00	   69.16	 -901.16	   63.06
     20.6183	   67.00	   69.12	 -896.12	   63.01
     20.6517	   57.00	   69.07	 -906.07	   62.97
     20.6852	   67.00	   69.02	 -896.02	   62.92
     20.7186	   69.00	   68.98	 -893.98	   62.87
     20.7520	   60.00	   68.93	 -902.93	   62.83
     20.7854	   67.00	   68.88	 -895.88	   62.78
     20.8189	   62.00	   68.84	 -900.84	   62.73
     20.8523	   66.00	   68.79	 -896.79	   62.69
     20.8857	   66.00	   68.74	 -896.74	   62.64
     20.9191	   66.00	   68.70	 -896.70	   62.59
     20.9525	   63.00	   68.65	 -899.65	   62.55
     20.9860	   55.00	   68.60	 -907.60	   62.50
     21.0194	   63.00	   68.56	 -899.56	   62.45
     21.0528	   63.00	   68.51	 -899.51	   62.41
     21.0862	   56.00	   68.47	 -906.47	   62.36
     21.1197	   68.00	   68.42	 -894.42	   62.31
     21.1531	   66.00	   68.37	 -896.37	   62.27
     21.1865	   82.00	   68.33	 -880.33	   62.22
     21.2199	   79.00	   68.28	 -883.28	   62.18
     21.2533	   66.00	   68.23	 -896.23	   62.13
     21.2868	   47.00	   68.19	 -915.19	   62.08
     21.3202	   78.00	   68.14	 -884.14	   62.04
     21.3536	   77.00	   68.10	 -885.10	   61.99
     21.3870	   67.00	   68.05	 -895.05	   61.94
     21.4205	   78.00	   68.00	 -884.00	   61.90
     21.4539	   66.00	   67.96	 -895.96	   61.85
     21.4873	   77.00	   67.91	 -884.91	   61.81
     21.5207	   70.00	   67.87	 -891.87	   61.76
     21.5541	   63.00	   67.82	 -898.82	   61.71
     21.5876	   70.00	   67.77	 -891.77	   61.67
     21.6210	   76.00	   67.73	 -885.73	   61.62
     21.6544	   68.00	   67.68	 -893.68	   61.58
     21.6878	   66.00	   67.64	 -895.64	   61.53
     21.7213	   62.00	   67.59	 -899.59	   61.49
     21.7547	   60.00	   67.54	 -901.54	   61.44
     21.7881	   75.00	   67.50	 -886.50	   61.39
     21.8215	   79.00	   67.45	 -882.45	   61.35
     21.8550	   66.00	   67.41	 -895.41	   61.30
     21.8884	   52.00	   67.36	 -909.36	   61.26
     21.9218	   65.00	   67.32	 -896.32	   61.21
     21.9552	   68.00	   67.27	 -893.27	   61.17
     21.9886	   70.00	   67.23	 -891.22	   61.12
     22.0221	   73.00	   67.18	 -888.18	   61.07
     22.0555	   67.00	   67.13	 -894.13	   61.03
     22.0889	   53.00	   67.09	 -908.09	   60.98
     22.1223	   52.00	   67.04	 -909.04	   60.94
     22.1558	   54.00	   67.00	 -907.00	   60.89
     22.1892	   70.00	   66.95	 -890.95	   60.85
     22.2226	   57.00	   66.91	 -903.91	   60.80
     22.2560	   62.00	   66.86	 -898.86	   60.76
     22.2894	   58.00	   66.82	 -902.82	   60.71
     22.3229	   55.00	   66.77	 -905.77	   60.67
     22.3563	   53.00	   66.73	 -907.73	   60.62
     22.3897	   58.00	   66.71	 -902.71	   60.58
     22.4231	   68.00	   66.66	 -892.66	   60.53
     22.4566	   65.00	   66.63	 -895.63	   60.49
     22.4900	   63.00	   66.59	 -897.59	   60.44
     22.5234	   45.00	   66.55	 -915.55	   60.40
     22.5568	   60.00	   66.50	 -900.50	   60.35
     22.5902	   72.00	   66.46	 -888.46	   60.31
     22.6237	   48.00	   66.41	 -912.41	   60.26
     22.6571	   51.00	   66.37	 -909.37	   60.22
     22.6905	   62.00	   66.33	 -898.33	   60.17
     22.7239	   54.00	   66.28	 -906.28	   60.13
     22.7574	   46.00	   66.24	 -914.24	   60.08
     22.7908	   62.00	   66.20	 -898.20	   60.04
     22.8242	   62.00	   66.15	 -898.15	   59.99
     22.8576	   68.00	   66.11	 -892.11	   59.95
     22.8911	   70.00	   66.07	 -890.07	   59.90
     22.9245	   65.00	   66.02	 -895.02	   59.86
     22.9579	   51.00	   65.98	 -908.98	   59.81
     22.9913	   55.00	   65.94	 -904.94	   59.77
     23.0247	   54.00	   65.89	 -905.89	   59.72
     23.0582	   65.00	   65.85	 -894.85	   59.68
     23.0916	   69.00	   65.81	 -890.81	   59.63
     23.1250	   66.00	   65.77	 -893.77	   59.59
     23.1584	   65.00	   65.72	 -894.72	   59.54
     23.1919	   51.00	   65.68	 -908.68	   59.50
     23.2253	   50.00	   65.64	 -909.64	   59.46
     23.2587	   65.00	   65.60	 -894.60	   59.41
     23.2921	   48.00	   65.56	 -911.56	   59.37
     23.3255	   63.00	   65.51	 -896.51	   59.32
     23.3590	   52.00	   65.47	 -907.47	   59.28
     23.3924	   68.00	   65.43	 -891.43	   59.23
     23.4258	   68.00	   65.39	 -891.39	   59.19
     23.4592	   56.00	   65.35	 -903.35	   59.15
     23.4927	   61.00	   65.31	 -898.31	   59.10
     23.5261	   48.00	   65.27	 -911.27	   59.06
     23.5595	   45.00	   65.23	 -914.23	   59.01
     23.5929	   56.00	   65.19	 -903.19	   58.97
     23.6263	   62.00	   65.15	 -897.15	   58.92
     23.6598	   61.00	   65.11	 -898.11	   58.88
     23.6932	   64.00	   65.07	 -895.07	   58.84
     23.7266	   55.00	   65.03	 -904.03	   58.79
     23.7600	   53.00	   64.99	 -905.99	   58.75
     23.7935	   68.00	   64.95	 -890.95	   58.70
     23.8269	   68.00	   64.92	 -890.92	   58.66
     23.8603	   51.00	   64.88	 -907.88	   58.62
     23.8937	   50.00	   64.84	 -908.84	   58.57
     23.9271	   60.00	   64.80	 -898.80	   58.53
     23.9606	   50.00	   64.77	 -908.77	   58.49
     23.9940	   57.00	   64.73	 -901.73	   58.44
     24.0274	   55.00	   64.70	 -903.70	   58.40
     24.0608	   65.00	   64.66	 -893.66	   58.35
     24.0943	   72.00	   64.63	 -886.63	   58.31
     24.1277	   65.00	   64.60	 -893.60	   58.27
     24.1611	   62.00	   64.57	 -896.57	   58.22
     24.1945	   53.00	   64.54	 -905.54	   58.18
     24.2280	   58.00	   64.51	 -900.51	   58.14
     24.2614	   61.00	   64.48	 -897.48	   58.09
     24.2948	   61.00	   64.45	 -897.45	   58.05
     24.3282	   66.00	   64.43	 -892.43	   58.01
     24.3616	   64.00	   64.40	 -894.40	   57.96
     24.3951	   58.00	   64.38	 -900.38	   57.92
     24.4285	   66.00	   64.36	 -892.36	   57.88
     24.4619	   66.00	   64.35	 -892.35	   57.83
     24.4953	   58.00	   65.39	 -901.39	   57.79
     24.5288	   56.00	   65.40	 -903.40	   57.75
     24.5622	   68.00	   65.95	 -891.95	   57.70
     24.5956	   54.00	   65.98	 -905.98	   57.66
     24.6290	   62.00	   66.02	 -898.02	   57.62
     24.6624	   61.00	   66.07	 -899.07	   57.57
     24.6959	   72.00	   66.13	 -888.13	   57.53
     24.7293	   78.00	   66.20	 -882.20	   57.49
     24.7627	   70.00	   66.28	 -890.28	   57.44
     24.7961	   72.00	   66.38	 -888.38	   57.40
     24.8296	   57.00	   66.49	 -903.49	   57.36
     24.8630	   66.00	   66.63	 -894.63	   57.31
     24.8964	   52.00	   66.79	 -908.79	   57.27
     24.9298	   64.00	   66.99	 -896.99	   57.23
     24.9632	   66.00	   67.23	 -895.23	   57.19
     24.9967	   58.00	   67.52	 -903.52	   57.14
     25.0301	   71.00	   67.89	 -890.89	   57.10
     25.0635	   65.00	   68.37	 -897.37	   57.06
     25.0969	   57.00	   68.99	 -905.99	   57.01
     25.1304	   77.00	   69.81	 -886.81	   56.97
     25.1638	   68.00	   70.95	 -896.95	   56.93
     25.1972	   69.00	   72.61	 -897.61	   56.89
     25.2306	   66.00	   75.21	 -903.21	   56.84
     25.2640	   65.00	   79.76	 -908.76	   56.80
     25.2975	   72.00	   88.22	 -910.22	   56.76
     25.3309	   86.00	  103.41	 -911.41	   56.72
     25.3643	  156.00	  126.57	 -864.57	   56.67
     25.3977	  160.00	  148.44	 -882.44	   56.63
     25.4312	  186.00	  150.53	 -858.53	   56.59
     25.4646	  125.00	  137.33	 -906.33	   56.55
     25.4980	  121.00	  116.74	 -889.74	   56.50
     25.5314	   93.00	   97.74	 -898.74	   56.46
     25.5649	   78.00	   85.52	 -901.52	   56.42
     25.5983	   90.00	   78.70	 -882.70	   56.38
     25.6317	   78.00	   74.99	 -890.99	   56.33
     25.6651	   73.00	   72.86	 -893.86	   56.29
     25.6985	   90.00	   71.53	 -875.53	   56.25
     25.7320	   73.00	   70.65	 -891.65	   56.21
     25.7654	   60.00	   70.05	 -904.05	   56.17
     25.7988	   78.00	   69.64	 -885.64	   56.12
     25.8322	   60.00	   69.36	 -903.36	   56.08
     25.8657	   63.00	   69.19	 -900.19	   56.04
     25.8991	   66.00	   69.10	 -897.10	   56.00
     25.9325	   79.00	   69.06	 -884.06	   55.95
     25.9659	   85.00	   69.08	 -878.08	   55.91
     25.9993	   84.00	   69.15	 -879.15	   55.87
     26.0328	   81.00	   69.25	 -882.25	   55.83
     26.0662	   66.00	   69.39	 -897.39	   55.79
     26.0996	   93.00	   69.57	 -870.57	   55.74
     26.1330	   69.00	   69.78	 -894.78	   55.70
     26.1665	   70.00	   70.02	 -894.02	   55.66
     26.1999	   71.00	   70.30	 -893.30	   55.62
     26.2333	   72.00	   70.61	 -892.61	   55.58
     26.2667	   96.00	   70.96	 -868.96	   55.54
     26.3001	   73.00	   71.35	 -892.35	   55.49
     26.3336	   92.00	   71.79	 -873.79	   55.45
     26.3670	   92.00	   72.27	 -874.27	   55.41
     26.4004	   77.00	   72.81	 -889.81	   55.37
     26.4338	   80.00	   73.40	 -887.40	   55.33
     26.4673	   82.00	   74.06	 -886.06	   55.29
     26.5007	   87.00	   74.79	 -881.79	   55.24
     26.5341	   83.00	   75.60	 -886.60	   55.20
     26.5675	   94.00	   76.50	 -876.50	   55.16
     26.6010	  108.00	   77.51	 -863.51	   55.12
     26.6344	  116.00	   78.64	 -856.64	   55.08
     26.6678	   93.00	   79.90	 -880.90	   55.04
     26.7012	  111.00	   81.32	 -864.32	   55.00
     26.7346	   97.00	   82.93	 -879.93	   54.95
     26.7681	  104.00	   84.75	 -874.75	   54.91
     26.8015	  128.00	   86.83	 -852.83	   54.87
     26.8349	  120.00	   89.21	 -863.21	   54.83
     26.8683	  125.00	   91.95	 -860.95	   54.79
     26.9018	  122.00	   95.13	 -867.13	   54.75
     26.9352	  128.00	   98.84	 -864.84	   54.71
     26.9686	  141.00	  103.22	 -856.22	   54.67
     27.0020	  135.00	  108.41	 -867.41	   54.62
     27.0354	  149.00	  114.63	 -859.63	   54.58
     27.0689	  165.00	  122.18	 -851.18	   54.54
     27.1023	  205.00	  131.46	 -820.46	   54.50
     27.1357	  181.00	  143.01	 -856.01	   54.46
     27.1691	  221.00	  157.65	 -830.65	   54.42
     27.2026	  192.00	  176.56	 -878.56	   54.38
     27.2360	  219.00	  201.55	 -876.55	   54.34
     27.2694	  249.00	  235.50	 -880.50	   54.30
     27.3028	  290.00	  283.39	 -887.39	   54.26
     27.3362	  382.00	  355.08	 -867.08	   54.21
     27.3697	  493.00	  472.86	 -873.86	   54.17
     27.4031	  678.00	  685.70	 -901.70	   54.13
     27.4365	 1006.00	 1080.32	 -968.32	   54.09
     27.4699	 1725.00	 1755.34	 -924.34	   54.05
     27.5034	 2871.00	 2664.16	 -687.16	   54.01
     27.5368	 3576.00	 3246.11	 -564.11	   53.97
     27.5702	 3259.00	 3065.92	 -700.92	   53.93
     27.6036	 2592.00	 2514.71	 -816.71	   53.89
     27.6371	 1775.00	 1760.53	 -879.53	   53.85
     27.6705	 1094.00	 1117.22	 -917.22	   53.81
     27.7039	  687.00	  714.39	 -921.39	   53.77
     27.7373	  440.00	  488.28	 -942.28	   53.73
     27.7707	  320.00	  361.93	 -935.93	   53.69
     27.8042	  328.00	  286.32	 -852.32	   53.65
     27.8376	  275.00	  236.78	 -855.78	   53.61
     27.8710	  201.00	  202.00	 -895.00	   53.57
     27.9044	  209.00	  176.52	 -861.52	   53.53
     27.9379	  203.00	  157.27	 -848.27	   53.48
     27.9713	  166.00	  142.37	 -870.37	   53.44
     28.0047	  156.00	  130.62	 -868.62	   53.40
     28.0381	  151.00	  121.18	 -864.18	   53.36
     28.0715	  137.00	  113.49	 -870.49	   53.32
     28.1050	  128.00	  107.13	 -873.13	   53.28
     28.1384	  144.00	  101.82	 -851.82	   53.24
     28.1718	  139.00	   97.33	 -852.33	   53.20
     28.2052	  149.00	   93.51	 -838.51	   53.16
     28.2387	  130.00	   90.23	 -854.23	   53.12
     28.2721	  135.00	   87.35	 -846.35	   53.08
     28.3055	  135.00	   84.85	 -843.85	   53.04
     28.3389	  111.00	   82.68	 -865.68	   53.00
     28.3723	  117.00	   80.76	 -857.76	   52.96
     28.4058	  111.00	   79.05	 -862.05	   52.92
     28.4392	  121.00	   77.53	 -850.53	   52.88
     28.4726	  101.00	   76.17	 -869.17	   52.84
     28.5060	  108.00	   74.95	 -860.95	   52.80
     28.5395	  128.00	   73.84	 -839.84	   52.76
     28.5729	   92.00	   72.83	 -874.83	   52.72
     28.6063	   94.00	   71.92	 -871.92	   52.68
     28.6397	   84.00	   71.09	 -881.09	   52.64
     28.6731	   80.00	   70.32	 -884.32	   52.60
     28.7066	   87.00	   69.62	 -876.62	   52.57
     28.7400	   91.00	   68.97	 -871.97	   52.53
     28.7734	   99.00	   68.37	 -863.37	   52.49
     28.8068	   91.00	   67.82	 -870.82	   52.45
     28.8403	   79.00	   67.31	 -882.31	   52.41
     28.8737	  115.00	   66.83	 -845.83	   52.37
     28.9071	   76.00	   66.38	 -884.38	   52.33
     28.9405	   98.00	   65.96	 -861.96	   52.29
     28.9740	   72.00	   65.57	 -887.57	   52.25
     29.0074	   80.00	   65.20	 -879.20	   52.21
     29.0408	  106.00	   64.86	 -852.86	   52.17
     29.0742	   70.00	   64.53	 -888.53	   52.13
     29.1076	   73.00	   64.23	 -885.23	   52.09
     29.1411	   75.00	   63.94	 -882.94	   52.05
     29.1745	   87.00	   63.66	 -870.66	   52.01
     29.2079	   77.00	   63.40	 -880.40	   51.97
     29.2413	   71.00	   63.15	 -886.15	   51.93
     29.2748	   72.00	   62.92	 -884.92	   51.90
     29.3082	   81.00	   62.69	 -875.69	   51.86
     29.3416	   77.00	   62.48	 -879.48	   51.82
     29.3750	   81.00	   62.27	 -875.27	   51.78
     29.4084	   72.00	   62.08	 -884.08	   51.74
     29.4419	   70.00	   61.89	 -885.89	   51.70
     29.4753	   87.00	   61.71	 -868.71	   51.66
     29.5087	   78.00	   61.54	 -877.54	   51.62
     29.5421	   86.00	   61.37	 -869.37	   51.58
     29.5756	   77.00	   61.21	 -878.21	   51.54
     29.6090	   60.00	   61.06	 -895.06	   51.51
     29.6424	   88.00	   60.91	 -866.91	   51.47
     29.6758	   70.00	   60.77	 -884.77	   51.43
     29.7092	   94.00	   60.63	 -860.63	   51.39
     29.7427	   71.00	   60.49	 -883.49	   51.35
     29.7761	   64.00	   60.37	 -890.37	   51.31
     29.8095	   76.00	   60.24	 -878.24	   51.27
     29.8429	   86.00	   60.12	 -868.12	   51.23
     29.8764	   78.00	   60.00	 -876.00	   51.19
     29.9098	   95.00	   59.89	 -858.89	   51.16
     29.9432	   75.00	   59.77	 -878.77	   51.12
     29.9766	  107.00	   59.67	 -846.67	   51.08
     30.0101	   83.00	   59.56	 -870.56	   51.04
     30.0435	   97.00	   59.46	 -856.46	   51.00
     30.0769	   80.00	   59.36	 -873.36	   50.96
     30.1103	   94.00	   59.26	 -859.26	   50.92
     30.1437	   96.00	   59.16	 -857.16	   50.89
     30.1772	  108.00	   59.07	 -845.07	   50.85
     30.2106	  111.00	   58.98	 -841.98	   50.81
     30.2440	  114.00	   58.89	 -838.89	   50.77
     30.2774	   92.00	   58.80	 -860.80	   50.73
     30.3109	  124.00	   58.72	 -828.72	   50.69
     30.3443	  116.00	   58.63	 -836.63	   50.66
     30.3777	  110.00	   57.35	 -841.35	   50.62
     30.4111	  109.00	   57.30	 -842.30	   50.58
     30.4445	  109.00	   56.65	 -841.65	   50.54
     30.4780	   95.00	   56.61	 -855.61	   50.50
     30.5114	  102.00	   56.57	 -848.57	   50.47
     30.5448	   97.00	   56.53	 -853.53	   50.43
     30.5782	   84.00	   56.49	 -866.49	   50.39
     30.6117	   75.00	   56.46	 -875.46	   50.35
     30.6451	   87.00	   56.42	 -863.42	   50.31
     30.6785	   80.00	   56.38	 -870.38	   50.28
     30.7119	   90.00	   56.34	 -860.34	   50.24
     30.7453	   70.00	   56.30	 -880.30	   50.20
     30.7788	   87.00	   56.27	 -863.27	   50.16
     30.8122	   71.00	   56.23	 -879.23	   50.12
     30.8456	   77.00	   56.19	 -873.19	   50.09
     30.8790	   76.00	   56.15	 -874.15	   50.05
     30.9125	   70.00	   56.11	 -880.11	   50.01
     30.9459	   65.00	   56.08	 -885.08	   49.97
     30.9793	   79.00	   56.04	 -871.04	   49.93
     31.0127	   70.00	   56.00	 -880.00	   49.90
     31.0462	   64.00	   55.96	 -885.96	   49.86
     31.0796	   69.00	   55.93	 -880.93	   49.82
     31.1130	   68.00	   55.89	 -881.89	   49.78
     31.1464	   64.00	   55.85	 -885.85	   49.75
     31.1798	   85.00	   55.81	 -864.81	   49.71
     31.2133	   82.00	   55.78	 -867.78	   49.67
     31.2467	   67.00	   55.74	 -882.74	   49.63
     31.2801	   67.00	   55.70	 -882.70	   49.60
     31.3135	  105.00	   55.66	 -844.66	   49.56
     31.3470	   64.00	   55.63	 -885.63	   49.52
     31.3804	   63.00	   55.59	 -886.59	   49.48
     31.4138	   79.00	   55.55	 -870.55	   49.45
     31.4472	   62.00	   55.51	 -887.51	   49.41
     31.4806	   64.00	   55.48	 -885.48	   49.37
     31.5141	   63.00	   55.44	 -886.44	   49.33
     31.5475	   57.00	   55.40	 -892.40	   49.30
     31.5809	   78.00	   55.36	 -871.36	   49.26
     31.6143	   52.00	   55.33	 -897.33	   49.22
     31.6478	   62.00	   55.29	 -887.29	   49.19
     31.6812	   61.00	   55.25	 -888.25	   49.15
     31.7146	   52.00	   55.22	 -897.22	   49.11
     31.7480	   75.00	   55.18	 -874.18	   49.07
     31.7814	   71.00	   55.14	 -878.14	   49.04
     31.8149	   54.00	   55.10	 -895.10	   49.00
     31.8483	   64.00	   55.07	 -885.07	   48.96
     31.8817	   60.00	   55.03	 -889.03	   48.93
     31.9151	   65.00	   54.99	 -883.99	   48.89
     31.9486	   43.00	   54.96	 -905.96	   48.85
     31.9820	   64.00	   54.92	 -884.92	   48.81
     32.0154	   68.00	   54.88	 -880.88	   48.78
     32.0488	   57.00	   54.85	 -891.85	   48.74
     32.0822	   40.00	   54.81	 -908.81	   48.70
     32.1157	   46.00	   54.77	 -902.77	   48.67
     32.1491	   51.00	   54.74	 -897.74	   48.63
     32.1825	   53.00	   54.70	 -895.70	   48.59
     32.2159	   67.00	   54.66	 -881.66	   48.56
     32.2494	   67.00	   54.63	 -881.63	   48.52
     32.2828	   37.00	   54.59	 -911.59	   48.48
     32.3162	   45.00	   54.55	 -903.55	   48.45
     32.3496	   47.00	   54.52	 -901.52	   48.41
     32.3830	   53.00	   54.48	 -895.48	   48.37
     32.4165	   51.00	   54.44	 -897.44	   48.34
     32.4499	   58.00	   54.41	 -890.41	   48.30
     32.4833	   55.00	   54.37	 -893.37	   48.26
     32.5167	   66.00	   54.33	 -882.33	   48.23
     32.5502	   53.00	   54.30	 -895.30	   48.19
     32.5836	   66.00	   54.26	 -882.26	   48.15
     32.6170	   49.00	   54.22	 -899.22	   48.12
     32.6504	   53.00	   54.19	 -895.19	   48.08
     32.6839	   52.00	   54.15	 -896.15	   48.05
     32.7173	   53.00	   54.11	 -895.11	   48.01
     32.7507	   64.00	   54.08	 -884.08	   47.97
     32.7841	   60.00	   54.04	 -888.04	   47.94
     32.8175	   61.00	   54.01	 -887.01	   47.90
     32.8510	   54.00	   53.97	 -893.97	   47.86
     32.8844	   40.00	   53.93	 -907.93	   47.83
     32.9178	   69.00	   53.90	 -878.90	   47.79
     32.9512	   47.00	   53.86	 -900.86	   47.76
     32.9847	   48.00	   53.82	 -899.82	   47.72
     33.0181	   46.00	   53.79	 -901.79	   47.68
     33.0515	   68.00	   53.75	 -879.75	   47.65
     33.0849	   56.00	   54.19	 -892.19	   47.61
     33.1183	   48.00	   54.16	 -900.16	   47.58
     33.1518	   55.00	   54.14	 -893.14	   47.54
     33.1852	   50.00	   54.35	 -898.35	   47.50
     33.2186	   66.00	   54.33	 -882.33	   47.47
     33.2520	   48.00	   54.31	 -900.31	   47.43
     33.2855	   57.00	   54.29	 -891.29	   47.40
     33.3189	   49.00	   54.27	 -899.27	   47.36
     33.3523	   61.00	   54.25	 -887.25	   47.32
     33.3857	   57.00	   54.24	 -891.24	   47.29
     33.4192	   51.00	   54.22	 -897.22	   47.25
     33.4526	   50.00	   54.21	 -898.21	   47.22
     33.4860	   75.00	   54.20	 -873.20	   47.18
     33.5194	   56.00	   54.18	 -892.18	   47.15
     33.5528	   60.00	   54.17	 -888.17	   47.11
     33.5863	   47.00	   54.16	 -901.16	   47.07
     33.6197	   60.00	   54.15	 -888.15	   47.04
     33.6531	   43.00	   54.14	 -905.14	   47.00
     33.6865	   49.00	   54.13	 -899.13	   46.97
     33.7200	   43.00	   54.13	 -905.13	   46.93
     33.7534	   43.00	   54.12	 -905.12	   46.90
     33.7868	   56.00	   54.12	 -892.12	   46.86
     33.8202	   64.00	   54.11	 -884.11	   46.83
     33.8536	   46.00	   54.11	 -902.11	   46.79
     33.8871	   57.00	   54.11	 -891.11	   46.76
     33.9205	   56.00	   54.11	 -892.11	   46.72
     33.9539	   51.00	   54.12	 -897.12	   46.68
     33.9873	   48.00	   54.12	 -900.12	   46.65
     34.0208	   47.00	   54.13	 -901.13	   46.61
     34.0542	   66.00	   54.14	 -882.14	   46.58
     34.0876	   48.00	   54.15	 -900.15	   46.54
     34.1210	   52.00	   54.16	 -896.16	   46.51
     34.1544	   41.00	   54.18	 -907.18	   46.47
     34.1879	   53.00	   54.20	 -895.20	   46.44
     34.2213	   43.00	   54.22	 -905.22	   46.40
     34.2547	   51.00	   54.24	 -897.24	   46.37
     34.2881	   71.00	   54.27	 -877.27	   46.33
     34.3216	   52.00	   54.30	 -896.30	   46.30
     34.3550	   55.00	   54.33	 -893.33	   46.26
     34.3884	   65.00	   54.37	 -883.37	   46.23
     34.4218	   55.00	   54.41	 -893.41	   46.19
     34.4552	   51.00	   54.46	 -897.46	   46.16
     34.4887	   69.00	   54.51	 -879.51	   46.12
     34.5221	   66.00	   54.57	 -882.57	   46.09
     34.5555	   62.00	   54.63	 -886.63	   46.05
     34.5889	   57.00	   54.70	 -891.70	   46.02
     34.6224	   54.00	   54.78	 -894.78	   45.98
     34.6558	   63.00	   54.86	 -885.86	   45.95
     34.6892	   56.00	   54.95	 -892.95	   45.91
     34.7226	   53.00	   55.05	 -896.05	   45.88
     34.7561	   71.00	   55.16	 -878.16	   45.84
     34.7895	   52.00	   55.28	 -897.28	   45.81
     34.8229	   62.00	   55.41	 -887.41	   45.78
     34.8563	   60.00	   55.55	 -889.55	   45.74
     34.8897	   65.00	   55.71	 -884.71	   45.71
     34.9232	   61.00	   55.88	 -888.88	   45.67
     34.9566	   66.00	   56.07	 -884.07	   45.64
     34.9900	   61.00	   56.28	 -889.28	   45.60
     35.0234	   64.00	   56.51	 -886.51	   45.57
     35.0569	   58.00	   56.76	 -892.76	   45.53
     35.0903	   70.00	   57.03	 -881.03	   45.50
     35.1237	   60.00	   57.34	 -891.34	   45.47
     35.1571	   67.00	   57.68	 -884.68	   45.43
     35.1905	   83.00	   58.05	 -869.05	   45.40
     35.2240	   71.00	   58.47	 -881.47	   45.36
     35.2574	   68.00	   58.94	 -884.94	   45.33
     35.2908	   72.00	   59.47	 -881.47	   45.29
     35.3242	   68.00	   60.05	 -886.05	   45.26
     35.3577	   69.00	   60.72	 -885.72	   45.23
     35.3911	   73.00	   61.47	 -882.47	   45.19
     35.4245	   80.00	   62.33	 -876.33	   45.16
     35.4579	   75.00	   63.30	 -882.30	   45.12
     35.4913	   82.00	   64.43	 -876.43	   45.09
     35.5248	   80.00	   65.72	 -879.72	   45.05
     35.5582	   66.00	   67.23	 -895.23	   45.02
     35.5916	   82.00	   69.00	 -881.00	   44.99
     35.6250	   72.00	   71.09	 -893.09	   44.95
     35.6585	   87.00	   73.57	 -880.57	   44.92
     35.6919	   98.00	   76.57	 -872.57	   44.88
     35.7253	   82.00	   80.21	 -892.21	   44.85
     35.7587	   94.00	   84.71	 -884.71	   44.82
     35.7921	  108.00	   90.34	 -876.34	   44.78
     35.8256	  123.00	   97.53	 -868.53	   44.75
     35.8590	  108.00	  106.87	 -892.87	   44.72
     35.8924	  135.00	  119.32	 -878.32	   44.68
     35.9258	  154.00	  136.46	 -876.46	   44.65
     35.9593	  146.00	  161.16	 -909.16	   44.61
     35.9927	  208.00	  199.59	 -885.59	   44.58
     36.0261	  234.00	  265.44	 -925.44	   44.55
     36.0595	  344.00	  385.00	 -935.00	   44.51
     36.0930	  503.00	  595.62	 -986.62	   44.48
     36.1264	  866.00	  918.61	 -946.61	   44.45
     36.1598	 1194.00	 1255.07	 -955.07	   44.41
     36.1932	 1301.00	 1331.98	 -924.98	   44.38
     36.2266	 1123.00	 1189.26	 -960.26	   44.35
     36.2601	  904.00	 1024.45	-1014.45	   44.31
     36.2935	  711.00	  786.55	 -969.55	   44.28
     36.3269	  456.00	  535.00	 -973.00	   44.25
     36.3603	  300.00	  357.32	 -951.32	   44.21
     36.3938	  217.00	  250.83	 -927.83	   44.18
     36.4272	  200.00	  189.91	 -883.91	   44.15
     36.4606	  139.00	  153.93	 -908.93	   44.11
     36.4940	  137.00	  130.92	 -887.92	   44.08
     36.5274	  111.00	  115.02	 -898.02	   44.05
     36.5609	   86.00	  103.42	 -911.42	   44.01
     36.5943	   83.00	   94.70	 -905.70	   43.98
     36.6277	   97.00	   87.96	 -884.96	   43.95
     36.6611	   87.00	   82.66	 -889.66	   43.91
     36.6946	   62.00	   78.41	 -910.41	   43.88
     36.7280	   83.00	   74.96	 -885.96	   43.85
     36.7614	   69.00	   72.14	 -897.14	   43.81
     36.7948	   77.00	   69.82	 -886.82	   43.78
     36.8282	   82.00	   67.92	 -879.92	   43.75
     36.8617	   73.00	   66.42	 -887.42	   43.71
     36.8951	   81.00	   65.35	 -878.35	   43.68
     36.9285	   66.00	   64.81	 -892.81	   43.65
     36.9619	   67.00	   64.87	 -891.87	   43.62
     36.9954	   68.00	   65.20	 -891.20	   43.58
     37.0288	   75.00	   64.78	 -883.78	   43.55
     37.0622	   56.00	   63.51	 -901.51	   43.52
     37.0956	   65.00	   62.23	 -891.23	   43.48
     37.1291	   51.00	   60.79	 -903.79	   43.45
     37.1625	   61.00	   59.27	 -892.27	   43.42
     37.1959	   66.00	   58.04	 -886.04	   43.39
     37.2293	   49.00	   57.15	 -902.15	   43.35
     37.2627	   55.00	   56.49	 -895.49	   43.32
     37.2962	   61.00	   55.98	 -888.98	   43.29
     37.3296	   51.00	   55.57	 -898.57	   43.25
     37.3630	   50.00	   55.22	 -899.22	   43.22
     37.3964	   37.00	   54.92	 -911.92	   43.19
     37.4299	   50.00	   54.68	 -898.68	   43.16
     37.4633	   62.00	   54.47	 -886.47	   43.12
     37.4967	   40.00	   54.32	 -908.32	   43.09
     37.5301	   41.00	   54.22	 -907.22	   43.06
     37.5635	   39.00	   54.18	 -909.18	   43.03
     37.5970	   46.00	   54.24	 -902.24	   42.99
     37.6304	   50.00	   54.44	 -898.44	   42.96
     37.6638	   40.00	   54.91	 -908.91	   42.93
     37.6972	   48.00	   55.89	 -901.89	   42.90
     37.7307	   55.00	   57.80	 -896.80	   42.87
     37.7641	   52.00	   61.01	 -903.01	   42.83
     37.7975	   55.00	   65.16	 -904.16	   42.80
     37.8309	   61.00	   67.48	 -900.48	   42.77
     37.8643	   46.00	   66.25	 -914.25	   42.74
     37.8978	   67.00	   64.29	 -891.29	   42.70
     37.9312	   62.00	   62.03	 -894.03	   42.67
     37.9646	   56.00	   58.91	 -896.91	   42.64
     37.9980	   50.00	   56.22	 -900.22	   42.61
     38.0315	   52.00	   54.45	 -896.45	   42.58
     38.0649	   41.00	   53.40	 -906.40	   42.54
     38.0983	   49.00	   52.77	 -897.77	   42.51
     38.1317	   47.00	   52.37	 -899.37	   42.48
     38.1651	   58.00	   52.10	 -888.10	   42.45
     38.1986	   58.00	   52.10	 -888.10	   42.42
     38.2320	   40.00	   51.97	 -905.97	   42.38
     38.2654	   48.00	   51.88	 -897.88	   42.35
     38.2988	   45.00	   51.92	 -900.92	   42.32
     38.3323	   52.00	   51.89	 -893.89	   42.29
     38.3657	   49.00	   51.90	 -896.90	   42.26
     38.3991	   50.00	   51.95	 -895.95	   42.22
     38.4325	   39.00	   52.05	 -907.05	   42.19
     38.4660	   36.00	   52.21	 -910.21	   42.16
     38.4994	   42.00	   52.50	 -904.50	   42.13
     38.5328	   40.00	   53.01	 -907.01	   42.10
     38.5662	   60.00	   53.88	 -887.88	   42.07
     38.5996	   57.00	   55.26	 -892.26	   42.03
     38.6331	   49.00	   56.91	 -901.91	   42.00
     38.6665	   43.00	   57.77	 -908.77	   41.97
     38.6999	   52.00	   57.48	 -899.48	   41.94
     38.7333	   53.00	   57.11	 -898.11	   41.91
     38.7668	   45.00	   56.67	 -905.67	   41.88
     38.8002	   31.00	   56.01	 -919.01	   41.84
     38.8336	   46.00	   55.62	 -903.62	   41.81
     38.8670	   40.00	   55.68	 -909.68	   41.78
     38.9004	   61.00	   56.17	 -889.17	   41.75
     38.9339	   49.00	   57.05	 -902.05	   41.72
     38.9673	   61.00	   58.34	 -891.34	   41.69
     39.0007	   50.00	   60.16	 -904.16	   41.66
     39.0341	   63.00	   62.73	 -893.73	   41.63
     39.0676	   52.00	   66.51	 -908.51	   41.59
     39.1010	   55.00	   71.95	 -910.95	   41.56
     39.1344	   65.00	   82.26	 -911.26	   41.53
     39.1678	   82.00	  100.90	 -912.90	   41.50
     39.2012	  101.00	  133.02	 -926.02	   41.47
     39.2347	  153.00	  181.59	 -922.59	   41.44
     39.2681	  192.00	  229.98	 -931.98	   41.41
     39.3015	  214.00	  238.14	 -918.14	   41.38
     39.3349	  191.00	  215.52	 -918.52	   41.34
     39.3684	  161.00	  194.19	 -927.19	   41.31
     39.4018	  142.00	  164.50	 -916.50	   41.28
     39.4352	  110.00	  127.62	 -911.62	   41.25
     39.4686	   78.00	   99.08	 -915.08	   41.22
     39.5021	  100.00	   81.26	 -875.26	   41.19
     39.5355	   50.00	   70.91	 -914.91	   41.16
     39.5689	   50.00	   64.86	 -908.85	   41.13
     39.6023	   37.00	   61.05	 -918.05	   41.10
     39.6357	   53.00	   58.47	 -899.47	   41.07
     39.6692	   45.00	   56.61	 -905.61	   41.03
     39.7026	   36.00	   55.22	 -913.22	   41.00
     39.7360	   39.00	   54.15	 -909.15	   40.97
     39.7694	   39.00	   53.32	 -908.32	   40.94
     39.8029	   45.00	   52.65	 -901.65	   40.91
     39.8363	   35.00	   52.12	 -911.12	   40.88
     39.8697	   39.00	   51.69	 -906.69	   40.85
     39.9031	   31.00	   51.34	 -914.34	   40.82
     39.9365	   32.00	   51.05	 -913.05	   40.79
     39.9700	   54.00	   50.82	 -890.82	   40.76
     40.0034	   35.00	   50.63	 -909.63	   40.73
     40.0368	   46.00	   50.47	 -898.47	   40.70
     40.0702	   48.00	   50.35	 -896.35	   40.67
     40.1037	   43.00	   50.26	 -901.26	   40.64
     40.1371	   48.00	   50.19	 -896.19	   40.61
     40.1705	   53.00	   50.15	 -891.15	   40.58
     40.2039	   32.00	   50.13	 -912.13	   40.55
     40.2373	   54.00	   50.13	 -890.13	   40.51
     40.2708	   36.00	   50.15	 -908.15	   40.48
     40.3042	   41.00	   50.20	 -903.20	   40.45
     40.3376	   46.00	   50.27	 -898.27	   40.42
     40.3710	   45.00	   50.36	 -899.36	   40.39
     40.4045	   39.00	   50.48	 -905.48	   40.36
     40.4379	   47.00	   50.62	 -897.62	   40.33
     40.4713	   41.00	   50.80	 -903.80	   40.30
     40.5047	   53.00	   51.01	 -892.01	   40.27
     40.5382	   40.00	   51.25	 -905.25	   40.24
     40.5716	   52.00	   51.55	 -893.55	   40.21
     40.6050	   46.00	   51.89	 -899.89	   40.18
     40.6384	   52.00	   52.30	 -894.30	   40.15
     40.6718	   53.00	   52.77	 -893.77	   40.12
     40.7053	   45.00	   53.33	 -902.33	   40.09
     40.7387	   55.00	   54.00	 -893.00	   40.06
     40.7721	   49.00	   54.79	 -899.79	   40.03
     40.8055	   55.00	   55.74	 -894.74	   40.00
     40.8390	   51.00	   56.89	 -899.89	   39.97
     40.8724	   46.00	   58.28	 -906.28	   39.94
     40.9058	   76.00	   60.01	 -878.01	   39.91
     40.9392	   66.00	   62.17	 -890.17	   39.88
     40.9726	   77.00	   64.99	 -881.99	   39.85
     41.0061	   62.00	   68.55	 -900.55	   39.82
     41.0395	   93.00	   73.26	 -874.26	   39.79
     41.0729	   98.00	   79.72	 -875.72	   39.76
     41.1063	   90.00	   88.84	 -892.84	   39.73
     41.1398	   98.00	  102.72	 -898.72	   39.70
     41.1732	  112.00	  125.85	 -907.85	   39.67
     41.2066	  149.00	  167.11	 -912.11	   39.64
     41.2400	  238.00	  239.93	 -895.93	   39.61
     41.2734	  399.00	  355.56	 -850.56	   39.59
     41.3069	  556.00	  493.82	 -831.82	   39.56
     41.3403	  664.00	  557.93	 -787.93	   39.53
     41.3737	  555.00	  509.82	 -848.82	   39.50
     41.4071	  506.00	  450.98	 -838.98	   39.47
     41.4406	  417.00	  394.70	 -871.70	   39.44
     41.4740	  347.00	  304.90	 -851.90	   39.41
     41.5074	  238.00	  216.60	 -872.60	   39.38
     41.5408	  144.00	  155.79	 -905.79	   39.35
     41.5742	  127.00	  119.17	 -886.17	   39.32
     41.6077	  116.00	   97.88	 -875.88	   39.29
     41.6411	   86.00	   85.03	 -893.03	   39.26
     41.6745	   87.00	   76.63	 -883.63	   39.23
     41.7079	   73.00	   70.72	 -891.72	   39.20
     41.7414	   78.00	   66.36	 -882.36	   39.17
     41.7748	   65.00	   63.03	 -892.03	   39.14
     41.8082	   54.00	   60.44	 -900.44	   39.11
     41.8416	   48.00	   58.38	 -904.38	   39.09
     41.8751	   75.00	   56.70	 -875.70	   39.06
     41.9085	   62.00	   55.33	 -887.33	   39.03
     41.9419	   53.00	   54.19	 -895.19	   39.00
     41.9753	   68.00	   53.22	 -879.22	   38.97
     42.0087	   52.00	   52.41	 -894.41	   38.94
     42.0422	   53.00	   51.70	 -892.70	   38.91
     42.0756	   62.00	   51.09	 -883.09	   38.88
     42.1090	   58.00	   50.56	 -886.56	   38.85
     42.1424	   57.00	   50.10	 -887.10	   38.82
     42.1759	   49.00	   49.69	 -894.69	   38.79
     42.2093	   48.00	   49.32	 -895.32	   38.77
     42.2427	   42.00	   48.92	 -900.92	   38.74
     42.2761	   50.00	   48.63	 -892.63	   38.71
     42.3095	   39.00	   48.37	 -903.37	   38.68
     42.3430	   52.00	   48.09	 -890.09	   38.65
     42.3764	   50.00	   47.88	 -891.88	   38.62
     42.4098	   51.00	   47.68	 -890.68	   38.59
     42.4432	   36.00	   47.51	 -905.51	   38.56
     42.4767	   43.00	   47.35	 -898.35	   38.54
     42.5101	   37.00	   47.20	 -904.20	   38.51
     42.5435	   50.00	   47.06	 -891.06	   38.48
     42.5769	   39.00	   46.94	 -901.94	   38.45
     42.6103	   52.00	   46.82	 -888.82	   38.42
     42.6438	   40.00	   46.72	 -900.72	   38.39
     42.6772	   60.00	   46.62	 -880.62	   38.36
     42.7106	   45.00	   46.54	 -895.54	   38.34
     42.7440	   35.00	   46.45	 -905.45	   38.31
     42.7775	   42.00	   46.38	 -898.38	   38.28
     42.8109	   43.00	   46.31	 -897.31	   38.25
     42.8443	   42.00	   46.25	 -898.25	   38.22
     42.8777	   46.00	   46.20	 -894.20	   38.19
     42.9111	   45.00	   46.15	 -895.15	   38.16
     42.9446	   46.00	   46.11	 -894.11	   38.14
     42.9780	   52.00	   46.08	 -888.08	   38.11
     43.0114	   40.00	   46.05	 -900.05	   38.08
     43.0448	   43.00	   46.03	 -897.03	   38.05
     43.0783	   37.00	   46.01	 -903.01	   38.02
     43.1117	   45.00	   46.01	 -895.01	   37.99
     43.1451	   36.00	   46.01	 -904.01	   37.97
     43.1785	   41.00	   46.02	 -899.02	   37.94
     43.2120	   34.00	   46.04	 -906.04	   37.91
     43.2454	   51.00	   46.06	 -889.06	   37.88
     43.2788	   28.00	   46.11	 -912.11	   37.85
     43.3122	   42.00	   46.16	 -898.16	   37.83
     43.3456	   53.00	   46.23	 -887.23	   37.80
     43.3791	   40.00	   46.31	 -900.31	   37.77
     43.4125	   43.00	   46.42	 -897.42	   37.74
     43.4459	   41.00	   46.55	 -899.55	   37.71
     43.4793	   39.00	   46.71	 -901.71	   37.69
     43.5128	   40.00	   46.90	 -900.90	   37.66
     43.5462	   43.00	   47.13	 -898.13	   37.63
     43.5796	   51.00	   47.41	 -890.41	   37.60
     43.6130	   40.00	   47.75	 -901.75	   37.57
     43.6464	   42.00	   48.17	 -900.17	   37.55
     43.6799	   49.00	   48.69	 -893.69	   37.52
     43.7133	   53.00	   49.33	 -890.33	   37.49
     43.7467	   60.00	   50.15	 -884.15	   37.46
     43.7801	   33.00	   51.20	 -912.20	   37.43
     43.8136	   50.00	   52.58	 -896.58	   37.41
     43.8470	   47.00	   54.41	 -901.41	   37.38
     43.8804	   54.00	   56.94	 -896.94	   37.35
     43.9138	   60.00	   60.59	 -894.59	   37.32
     43.9473	   67.00	   66.27	 -893.27	   37.30
     43.9807	   75.00	   75.90	 -894.90	   37.27
     44.0141	   82.00	   93.09	 -905.09	   37.24
     44.0475	  107.00	  122.73	 -909.73	   37.21
     44.0809	  141.00	  167.47	 -920.47	   37.19
     44.1144	  209.00	  214.69	 -899.69	   37.16
     44.1478	  263.00	  226.93	 -857.93	   37.13
     44.1812	  187.00	  204.56	 -911.56	   37.10
     44.2146	  196.00	  184.98	 -882.98	   37.08
     44.2481	  192.00	  167.67	 -869.67	   37.05
     44.2815	  131.00	  137.50	 -900.50	   37.02
     44.3149	  115.00	  106.04	 -885.04	   36.99
     44.3483	   76.00	   83.93	 -901.93	   36.97
     44.3817	   54.00	   70.38	 -910.38	   36.94
     44.4152	   36.00	   62.34	 -920.34	   36.91
     44.4486	   47.00	   57.54	 -904.54	   36.88
     44.4820	   46.00	   54.41	 -902.41	   36.86
     44.5154	   39.00	   52.21	 -907.21	   36.83
     44.5489	   34.00	   50.59	 -910.59	   36.80
     44.5823	   35.00	   49.34	 -908.34	   36.78
     44.6157	   37.00	   48.37	 -905.37	   36.75
     44.6491	   46.00	   47.59	 -895.59	   36.72
     44.6825	   47.00	   46.95	 -893.95	   36.69
     44.7160	   52.00	   46.43	 -888.43	   36.67
     44.7494	   35.00	   45.99	 -904.99	   36.64
     44.7828	   49.00	   45.61	 -890.61	   36.61
     44.8162	   35.00	   45.29	 -904.29	   36.59
     44.8497	   39.00	   45.01	 -900.01	   36.56
     44.8831	   55.00	   44.77	 -883.77	   36.53
     44.9165	   40.00	   44.56	 -898.56	   36.51
     44.9499	   40.00	   44.37	 -898.37	   36.48
     44.9833	   43.00	   44.20	 -895.20	   36.45
     45.0168	   34.00	   44.05	 -904.05	   36.43
     45.0502	   36.00	   43.91	 -901.91	   36.40
     45.0836	   28.00	   43.79	 -909.79	   36.37
     45.1170	   32.00	   43.67	 -905.67	   36.34
     45.1505	   23.00	   43.56	 -914.56	   36.32
     45.1839	   36.00	   43.46	 -901.46	   36.29
     45.2173	   31.00	   43.37	 -906.37	   36.26
     45.2507	   27.00	   43.28	 -910.28	   36.24
     45.2841	   42.00	   43.20	 -895.20	   36.21
     45.3176	   41.00	   43.12	 -896.12	   36.18
     45.3510	   30.00	   43.05	 -907.05	   36.16
     45.3844	   32.00	   42.98	 -904.98	   36.13
     45.4178	   23.00	   42.92	 -913.92	   36.10
     45.4513	   33.00	   42.86	 -903.86	   36.08
     45.4847	   28.00	   42.80	 -908.80	   36.05
     45.5181	   33.00	   42.74	 -903.74	   36.03
     45.5515	   45.00	   42.69	 -891.69	   36.00
     45.5850	   28.00	   42.63	 -908.63	   35.97
     45.6184	   40.00	   42.58	 -896.58	   35.95
     45.6518	   31.00	   42.54	 -905.54	   35.92
     45.6852	   31.00	   42.49	 -905.49	   35.89
     45.7186	   42.00	   42.44	 -894.44	   35.87
     45.7521	   38.00	   42.40	 -898.40	   35.84
     45.7855	   43.00	   42.35	 -893.35	   35.81
     45.8189	   36.00	   42.31	 -900.31	   35.79
     45.8523	   24.00	   42.27	 -912.27	   35.76
     45.8858	   36.00	   42.23	 -900.23	   35.74
     45.9192	   32.00	   42.19	 -904.19	   35.71
     45.9526	   30.00	   42.15	 -906.15	   35.68
     45.9860	   20.00	   42.11	 -916.11	   35.66
     46.0194	   28.00	   42.08	 -908.08	   35.63
     46.0529	   28.00	   42.04	 -908.04	   35.60
     46.0863	   33.00	   42.00	 -903.00	   35.58
     46.1197	   34.00	   41.97	 -901.97	   35.55
     46.1531	   32.00	   41.94	 -903.94	   35.53
     46.1866	   31.00	   41.90	 -904.90	   35.50
     46.2200	   38.00	   41.87	 -897.87	   35.47
     46.2534	   28.00	   41.83	 -907.83	   35.45
     46.2868	   33.00	   41.80	 -902.80	   35.42
     46.3203	   36.00	   41.77	 -899.77	   35.40
     46.3537	   38.00	   41.74	 -897.74	   35.37
     46.3871	   35.00	   41.71	 -900.71	   35.34
     46.4205	   35.00	   41.68	 -900.68	   35.32
     46.4539	   46.00	   41.65	 -889.65	   35.29
     46.4874	   34.00	   41.62	 -901.62	   35.27
     46.5208	   38.00	   41.59	 -897.59	   35.24
     46.5542	   36.00	   41.56	 -899.56	   35.22
     46.5876	   49.00	   41.53	 -886.53	   35.19
     46.6211	   25.00	   41.50	 -910.50	   35.16
     46.6545	   39.00	   41.47	 -896.47	   35.14
     46.6879	   34.00	   41.44	 -901.44	   35.11
     46.7213	   34.00	   41.42	 -901.42	   35.09
     46.7547	   40.00	   41.39	 -895.39	   35.06
     46.7882	   35.00	   41.36	 -900.36	   35.04
     46.8216	   43.00	   41.33	 -892.33	   35.01
     46.8550	   33.00	   41.31	 -902.31	   34.98
     46.8884	   32.00	   41.28	 -903.28	   34.96
     46.9219	   30.00	   41.26	 -905.26	   34.93
     46.9553	   25.00	   41.23	 -910.23	   34.91
     46.9887	   39.00	   41.21	 -896.21	   34.88
     47.0221	   35.00	   41.19	 -900.19	   34.86
     47.0555	   34.00	   41.16	 -901.16	   34.83
     47.0890	   34.00	   41.14	 -901.14	   34.81
     47.1224	   33.00	   41.12	 -902.12	   34.78
     47.1558	   28.00	   41.02	 -907.02	   34.76
     47.1892	   43.00	   41.00	 -892.00	   34.73
     47.2227	   23.00	   40.98	 -911.98	   34.71
     47.2561	   36.00	   40.93	 -898.93	   34.68
     47.2895	   33.00	   40.91	 -901.91	   34.65
     47.3229	   41.00	   40.90	 -893.90	   34.63
     47.3563	   28.00	   40.89	 -906.89	   34.60
     47.3898	   38.00	   40.88	 -896.88	   34.58
     47.4232	   38.00	   40.87	 -896.87	   34.55
     47.4566	   48.00	   40.87	 -886.87	   34.53
     47.4900	   45.00	   40.86	 -889.86	   34.50
     47.5235	   34.00	   40.86	 -900.86	   34.48
     47.5569	   49.00	   40.87	 -885.87	   34.45
     47.5903	   46.00	   40.88	 -888.88	   34.43
     47.6237	   34.00	   40.90	 -900.90	   34.40
     47.6572	   35.00	   40.93	 -899.93	   34.38
     47.6906	   32.00	   40.96	 -902.96	   34.35
     47.7240	   34.00	   41.01	 -901.01	   34.33
     47.7574	   32.00	   41.08	 -903.08	   34.30
     47.7908	   43.00	   41.18	 -892.18	   34.28
     47.8243	   38.00	   41.31	 -897.31	   34.25
     47.8577	   39.00	   41.49	 -896.49	   34.23
     47.8911	   36.00	   41.74	 -899.74	   34.20
     47.9245	   35.00	   42.12	 -901.12	   34.18
     47.9580	   42.00	   42.71	 -894.71	   34.15
     47.9914	   27.00	   43.71	 -910.71	   34.13
     48.0248	   32.00	   45.51	 -907.51	   34.11
     48.0582	   46.00	   48.59	 -896.59	   34.08
     48.0916	   48.00	   53.24	 -899.24	   34.06
     48.1251	   65.00	   58.30	 -887.30	   34.03
     48.1585	   61.00	   59.91	 -892.91	   34.01
     48.1919	   50.00	   57.45	 -901.45	   33.98
     48.2253	   56.00	   55.10	 -893.10	   33.96
     48.2588	   47.00	   53.82	 -900.82	   33.93
     48.2922	   49.00	   51.51	 -896.51	   33.91
     48.3256	   42.00	   48.15	 -900.15	   33.88
     48.3590	   31.00	   45.34	 -908.34	   33.86
     48.3924	   38.00	   43.49	 -899.49	   33.83
     48.4259	   32.00	   42.37	 -904.37	   33.81
     48.4593	   27.00	   41.70	 -908.70	   33.79
     48.4927	   48.00	   41.27	 -887.27	   33.76
     48.5261	   32.00	   40.96	 -902.96	   33.74
     48.5596	   35.00	   40.74	 -899.74	   33.71
     48.5930	   30.00	   40.57	 -904.57	   33.69
     48.6264	   32.00	   40.42	 -902.42	   33.66
     48.6598	   30.00	   40.31	 -904.31	   33.64
     48.6932	   30.00	   40.21	 -904.21	   33.62
     48.7267	   46.00	   40.13	 -888.13	   33.59
     48.7601	   37.00	   40.05	 -897.05	   33.57
     48.7935	   30.00	   39.99	 -903.99	   33.54
     48.8269	   38.00	   39.93	 -895.93	   33.52
     48.8604	   36.00	   39.87	 -897.87	   33.49
     48.8938	   27.00	   39.82	 -906.82	   33.47
     48.9272	   48.00	   39.78	 -885.78	   33.45
     48.9606	   37.00	   39.73	 -896.73	   33.42
     48.9940	   32.00	   39.69	 -901.69	   33.40
     49.0275	   32.00	   39.65	 -901.65	   33.37
     49.0609	   40.00	   39.62	 -893.62	   33.35
     49.0943	   39.00	   39.58	 -894.58	   33.33
     49.1277	   36.00	   39.55	 -897.55	   33.30
     49.1612	   38.00	   39.51	 -895.51	   33.28
     49.1946	   55.00	   39.48	 -878.48	   33.25
     49.2280	   46.00	   39.45	 -887.45	   33.23
     49.2614	   47.00	   39.42	 -886.42	   33.21
     49.2949	   40.00	   39.39	 -893.39	   33.18
     49.3283	   38.00	   39.36	 -895.36	   33.16
     49.3617	   53.00	   39.33	 -880.33	   33.14
     49.3951	   40.00	   39.30	 -893.30	   33.11
     49.4285	   52.00	   39.27	 -881.27	   33.09
     49.4620	   49.00	   39.25	 -884.25	   33.06
     49.4954	   40.00	   39.22	 -893.22	   33.04
     49.5288	   34.00	   39.19	 -899.19	   33.02
     49.5622	   34.00	   39.16	 -899.16	   32.99
     49.5957	   52.00	   39.14	 -881.14	   32.97
     49.6291	   37.00	   39.11	 -896.11	   32.95
     49.6625	   42.00	   39.08	 -891.08	   32.92
     49.6959	   45.00	   39.06	 -888.06	   32.90
     49.7293	   40.00	   39.03	 -893.03	   32.87
     49.7628	   49.00	   39.01	 -884.01	   32.85
     49.7962	   38.00	   38.98	 -894.98	   32.83
     49.8296	   48.00	   38.96	 -884.96	   32.80
     49.8630	   41.00	   38.93	 -891.93	   32.78
     49.8965	   46.00	   38.90	 -886.90	   32.76
     49.9299	   60.00	   38.88	 -872.88	   32.73
     49.9633	   47.00	   38.85	 -885.85	   32.71
     49.9967	   48.00	   38.83	 -884.83	   32.69
     50.0302	   36.00	   38.81	 -896.81	   32.66
     50.0636	   52.00	   38.78	 -880.78	   32.64
     50.0970	   45.00	   38.76	 -887.76	   32.62
     50.1304	   50.00	   38.73	 -882.73	   32.59
     50.1638	   55.00	   38.71	 -877.71	   32.57
     50.1973	   47.00	   38.68	 -885.68	   32.55
     50.2307	   52.00	   38.66	 -880.66	   32.52
     50.2641	   38.00	   38.64	 -894.64	   32.50
     50.2975	   52.00	   38.61	 -880.61	   32.48
     50.3310	   48.00	   38.59	 -884.59	   32.46
     50.3644	   54.00	   38.56	 -878.56	   32.43
     50.3978	   61.00	   38.54	 -871.54	   32.41
     50.4312	   56.00	   38.52	 -876.52	   32.39
     50.4646	   57.00	   38.49	 -875.49	   32.36
     50.4981	   66.00	   38.47	 -866.47	   32.34
     50.5315	   47.00	   38.44	 -885.44	   32.32
     50.5649	   38.00	   38.42	 -894.42	   32.29
     50.5983	   49.00	   38.40	 -883.40	   32.27
     50.6318	   51.00	   38.37	 -881.37	   32.25
     50.6652	   45.00	   38.35	 -887.35	   32.22
     50.6986	   54.00	   38.33	 -878.33	   32.20
     50.7320	   49.00	   38.31	 -883.31	   32.18
     50.7654	   49.00	   38.29	 -883.29	   32.16
     50.7989	   45.00	   38.26	 -887.26	   32.13
     50.8323	   43.00	   38.24	 -889.24	   32.11
     50.8657	   45.00	   38.22	 -887.22	   32.09
     50.8991	   43.00	   38.20	 -889.20	   32.07
     50.9326	   39.00	   38.17	 -893.17	   32.04
     50.9660	   38.00	   38.15	 -894.15	   32.02
     50.9994	   37.00	   38.13	 -895.13	   32.00
     51.0328	   38.00	   38.10	 -894.10	   31.97
     51.0662	   46.00	   38.08	 -886.08	   31.95
     51.0997	   36.00	   38.61	 -896.61	   31.93
     51.1331	   49.00	   38.60	 -883.60	   31.91
     51.1665	   33.00	   38.59	 -899.59	   31.88
     51.1999	   46.00	   38.57	 -886.57	   31.86
     51.2334	   30.00	   38.83	 -902.83	   31.84
     51.2668	   43.00	   38.83	 -889.83	   31.82
     51.3002	   40.00	   38.83	 -892.83	   31.79
     51.3336	   34.00	   38.82	 -898.82	   31.77
     51.3671	   40.00	   38.82	 -892.82	   31.75
     51.4005	   46.00	   38.82	 -886.82	   31.73
     51.4339	   38.00	   38.82	 -894.82	   31.70
     51.4673	   37.00	   38.82	 -895.82	   31.68
     51.5007	   25.00	   38.82	 -907.82	   31.66
     51.5342	   33.00	   38.82	 -899.82	   31.64
     51.5676	   42.00	   38.82	 -890.82	   31.61
     51.6010	   34.00	   38.83	 -898.83	   31.59
     51.6344	   34.00	   38.83	 -898.83	   31.57
     51.6679	   32.00	   38.84	 -900.84	   31.55
     51.7013	   48.00	   38.84	 -884.84	   31.53
     51.7347	   40.00	   38.85	 -892.85	   31.50
     51.7681	   38.00	   38.86	 -894.86	   31.48
     51.8015	   39.00	   38.87	 -893.87	   31.46
     51.8350	   49.00	   38.89	 -883.89	   31.44
     51.8684	   30.00	   38.90	 -902.90	   31.42
     51.9018	   31.00	   38.92	 -901.92	   31.39
     51.9352	   38.00	   38.93	 -894.93	   31.37
     51.9687	   38.00	   38.95	 -894.95	   31.35
     52.0021	   40.00	   38.97	 -892.97	   31.33
     52.0355	   30.00	   38.99	 -902.99	   31.30
     52.0689	   41.00	   39.01	 -892.01	   31.28
     52.1023	   39.00	   39.04	 -894.04	   31.26
     52.1358	   43.00	   39.07	 -890.07	   31.24
     52.1692	   35.00	   39.09	 -898.09	   31.22
     52.2026	   33.00	   39.13	 -900.13	   31.20
     52.2360	   34.00	   39.16	 -899.16	   31.17
     52.2695	   36.00	   39.20	 -897.20	   31.15
     52.3029	   40.00	   39.24	 -893.24	   31.13
     52.3363	   35.00	   39.28	 -898.28	   31.11
     52.3697	   34.00	   39.32	 -899.32	   31.09
     52.4032	   55.00	   39.37	 -878.37	   31.06
     52.4366	   38.00	   39.42	 -895.42	   31.04
     52.4700	   46.00	   39.48	 -887.48	   31.02
     52.5034	   32.00	   39.54	 -901.54	   31.00
     52.5368	   41.00	   39.61	 -892.61	   30.98
     52.5703	   38.00	   39.67	 -895.67	   30.96
     52.6037	   43.00	   39.75	 -890.75	   30.93
     52.6371	   50.00	   39.83	 -883.83	   30.91
     52.6705	   43.00	   39.91	 -890.91	   30.89
     52.7040	   46.00	   40.01	 -888.01	   30.87
     52.7374	   34.00	   40.10	 -900.10	   30.85
     52.7708	   41.00	   40.21	 -893.21	   30.83
     52.8042	   50.00	   40.32	 -884.32	   30.81
     52.8376	   48.00	   40.45	 -886.45	   30.78
     52.8711	   47.00	   40.58	 -887.58	   30.76
     52.9045	   37.00	   40.72	 -897.72	   30.74
     52.9379	   50.00	   40.87	 -884.87	   30.72
     52.9713	   50.00	   41.04	 -885.04	   30.70
     53.0048	   46.00	   41.22	 -889.22	   30.68
     53.0382	   62.00	   41.41	 -873.41	   30.66
     53.0716	   50.00	   41.62	 -885.62	   30.63
     53.1050	   47.00	   41.85	 -888.85	   30.61
     53.1384	   63.00	   42.10	 -873.10	   30.59
     53.1719	   45.00	   42.37	 -891.37	   30.57
     53.2053	   65.00	   42.66	 -871.66	   30.55
     53.2387	   38.00	   42.98	 -898.98	   30.53
     53.2721	   62.00	   43.33	 -875.33	   30.51
     53.3056	   52.00	   43.72	 -885.72	   30.49
     53.3390	   54.00	   44.14	 -884.14	   30.46
     53.3724	   53.00	   44.78	 -885.78	   30.44
     53.4058	   57.00	   45.30	 -882.30	   30.42
     53.4393	   50.00	   45.88	 -889.88	   30.40
     53.4727	   64.00	   46.53	 -876.53	   30.38
     53.5061	   38.00	   47.25	 -903.25	   30.36
     53.5395	   53.00	   48.15	 -889.15	   30.34
     53.5729	   54.00	   49.08	 -889.08	   30.32
     53.6064	   80.00	   50.15	 -864.15	   30.30
     53.6398	   52.00	   51.37	 -893.37	   30.28
     53.6732	   62.00	   52.81	 -884.81	   30.25
     53.7066	   84.00	   54.54	 -864.54	   30.23
     53.7401	   70.00	   56.69	 -880.69	   30.21
     53.7735	   71.00	   59.51	 -882.51	   30.19
     53.8069	   86.00	   63.32	 -871.32	   30.17
     53.8403	   84.00	   68.41	 -878.41	   30.15
     53.8737	   96.00	   74.49	 -872.49	   30.13
     53.9072	   95.00	   79.74	 -878.74	   30.11
     53.9406	  101.00	   82.84	 -875.84	   30.09
     53.9740	  114.00	   86.16	 -866.16	   30.07
     54.0074	  131.00	   91.66	 -854.66	   30.05
     54.0409	  114.00	   99.24	 -879.24	   30.03
     54.0743	  131.00	  108.19	 -871.19	   30.01
     54.1077	  145.00	  119.77	 -868.77	   29.98
     54.1411	  195.00	  136.42	 -835.42	   29.96
     54.1745	  165.00	  161.08	 -890.08	   29.94
     54.2080	  198.00	  199.25	 -895.25	   29.92
     54.2414	  256.00	  262.43	 -900.43	   29.90
     54.2748	  323.00	  372.03	 -943.03	   29.88
     54.3082	  448.00	  558.23	-1004.23	   29.86
     54.3417	  809.00	  844.76	 -929.76	   29.84
     54.3751	 1303.00	 1189.52	 -780.52	   29.82
     54.4085	 1456.00	 1377.71	 -815.71	   29.80
     54.4419	 1198.00	 1253.68	 -949.68	   29.78
     54.4753	 1008.00	 1050.70	 -936.70	   29.76
     54.5088	  934.00	  953.88	 -913.88	   29.74
     54.5422	  918.00	  909.74	 -885.74	   29.72
     54.5756	  792.00	  769.72	 -871.72	   29.70
     54.6090	  573.00	  561.29	 -882.29	   29.68
     54.6425	  382.00	  387.50	 -899.50	   29.66
     54.6759	  269.00	  271.89	 -896.89	   29.64
     54.7093	  225.00	  201.34	 -870.34	   29.62
     54.7427	  161.00	  158.82	 -891.82	   29.60
     54.7761	  147.00	  131.94	 -878.94	   29.58
     54.8096	  156.00	  113.62	 -851.62	   29.56
     54.8430	  135.00	  100.38	 -859.38	   29.54
     54.8764	  121.00	   90.42	 -863.42	   29.52
     54.9098	  117.00	   82.78	 -859.78	   29.50
     54.9433	  121.00	   76.83	 -849.83	   29.48
     54.9767	  105.00	   72.21	 -861.21	   29.46
     55.0101	   93.00	   68.77	 -869.77	   29.44
     55.0435	   83.00	   66.49	 -877.49	   29.42
     55.0770	   94.00	   65.50	 -865.50	   29.40
     55.1104	   96.00	   65.83	 -863.83	   29.38
     55.1438	   81.00	   66.71	 -879.71	   29.36
     55.1772	  111.00	   65.94	 -848.94	   29.34
     55.2106	   87.00	   62.90	 -869.90	   29.32
     55.2441	   72.00	   59.93	 -881.93	   29.30
     55.2775	   97.00	   58.13	 -855.13	   29.28
     55.3109	   85.00	   56.71	 -865.71	   29.26
     55.3443	   65.00	   54.44	 -883.44	   29.24
     55.3778	   82.00	   51.84	 -863.84	   29.22
     55.4112	   68.00	   49.71	 -875.71	   29.20
     55.4446	   64.00	   48.15	 -878.15	   29.18
     55.4780	   63.00	   47.04	 -878.04	   29.16
     55.5114	   56.00	   46.22	 -884.22	   29.14
     55.5449	   84.00	   45.57	 -855.57	   29.12
     55.5783	   58.00	   45.05	 -881.05	   29.10
     55.6117	   56.00	   44.63	 -882.63	   29.08
     55.6451	   61.00	   44.27	 -877.27	   29.06
     55.6786	   73.00	   43.97	 -864.97	   29.04
     55.7120	   60.00	   43.73	 -877.73	   29.02
     55.7454	   62.00	   43.54	 -875.54	   29.00
     55.7788	   64.00	   43.40	 -873.40	   28.98
     55.8122	   54.00	   43.30	 -883.30	   28.96
     55.8457	   51.00	   43.25	 -886.25	   28.94
     55.8791	   65.00	   43.25	 -872.25	   28.92
     55.9125	   63.00	   43.29	 -874.29	   28.90
     55.9459	   63.00	   43.39	 -874.39	   28.88
     55.9794	   51.00	   43.55	 -886.55	   28.86
     56.0128	   54.00	   43.77	 -883.77	   28.84
     56.0462	   63.00	   44.07	 -875.07	   28.82
     56.0796	   58.00	   44.44	 -880.44	   28.81
     56.1131	   62.00	   44.92	 -876.92	   28.79
     56.1465	   57.00	   45.52	 -882.52	   28.77
     56.1799	   65.00	   46.26	 -875.26	   28.75
     56.2133	   76.00	   47.18	 -865.18	   28.73
     56.2467	   71.00	   48.33	 -871.33	   28.71
     56.2802	   79.00	   49.77	 -864.77	   28.69
     56.3136	   67.00	   51.59	 -878.59	   28.67
     56.3470	   84.00	   53.92	 -863.92	   28.65
     56.3804	   57.00	   56.95	 -893.95	   28.63
     56.4139	  108.00	   60.98	 -846.98	   28.61
     56.4473	   72.00	   66.47	 -888.47	   28.59
     56.4807	   72.00	   74.33	 -896.33	   28.57
     56.5141	  114.00	   86.36	 -866.36	   28.56
     56.5475	  104.00	  106.29	 -896.29	   28.54
     56.5810	  140.00	  140.63	 -894.63	   28.52
     56.6144	  197.00	  198.03	 -895.03	   28.50
     56.6478	  300.00	  283.91	 -877.91	   28.48
     56.6812	  394.00	  381.33	 -881.33	   28.46
     56.7147	  459.00	  424.34	 -859.34	   28.44
     56.7481	  360.00	  380.30	 -914.30	   28.42
     56.7815	  279.00	  321.23	 -936.23	   28.40
     56.8149	  316.00	  294.98	 -872.98	   28.38
     56.8483	  306.00	  286.73	 -874.73	   28.37
     56.8818	  266.00	  252.71	 -880.71	   28.35
     56.9152	  202.00	  194.47	 -886.47	   28.33
     56.9486	  139.00	  142.96	 -897.96	   28.31
     56.9820	   94.00	  107.72	 -907.72	   28.29
     57.0155	   80.00	   85.88	 -899.88	   28.27
     57.0489	   72.00	   72.65	 -894.65	   28.25
     57.0823	   70.00	   64.31	 -888.31	   28.23
     57.1157	   50.00	   58.66	 -902.66	   28.22
     57.1492	   53.00	   54.56	 -895.56	   28.20
     57.1826	   49.00	   51.47	 -896.47	   28.18
     57.2160	   48.00	   49.07	 -895.07	   28.16
     57.2494	   47.00	   47.16	 -894.16	   28.14
     57.2828	   54.00	   45.61	 -885.61	   28.12
     57.3163	   49.00	   44.33	 -889.33	   28.10
     57.3497	   52.00	   43.27	 -885.27	   28.09
     57.3831	   48.00	   42.37	 -888.37	   28.07
     57.4165	   58.00	   41.61	 -877.61	   28.05
     57.4500	   48.00	   40.95	 -886.95	   28.03
     57.4834	   62.00	   40.38	 -872.38	   28.01
     57.5168	   37.00	   39.87	 -896.87	   27.99
     57.5502	   39.00	   38.82	 -893.82	   27.97
     57.5836	   53.00	   38.44	 -879.44	   27.96
     57.6171	   38.00	   38.10	 -894.10	   27.94
     57.6505	   43.00	   37.80	 -888.80	   27.92
     57.6839	   41.00	   37.53	 -890.53	   27.90
     57.7173	   43.00	   36.98	 -887.98	   27.88
     57.7508	   49.00	   36.76	 -881.76	   27.86
     57.7842	   36.00	   36.56	 -894.56	   27.85
     57.8176	   38.00	   36.38	 -892.38	   27.83
     57.8510	   40.00	   36.21	 -890.21	   27.81
     57.8844	   47.00	   36.06	 -883.06	   27.79
     57.9179	   39.00	   35.92	 -890.92	   27.77
     57.9513	   40.00	   35.79	 -889.79	   27.75
     57.9847	   46.00	   35.67	 -883.67	   27.74
     58.0181	   37.00	   35.55	 -892.55	   27.72
     58.0516	   37.00	   35.45	 -892.45	   27.70
     58.0850	   30.00	   35.35	 -899.35	   27.68
     58.1184	   39.00	   35.25	 -890.25	   27.66
     58.1518	   47.00	   35.16	 -882.16	   27.65
     58.1852	   34.00	   35.08	 -895.08	   27.63
     58.2187	   45.00	   35.00	 -884.00	   27.61
     58.2521	   47.00	   34.93	 -881.93	   27.59
     58.2855	   37.00	   34.85	 -891.85	   27.57
     58.3189	   33.00	   34.78	 -895.78	   27.56
     58.3524	   46.00	   34.72	 -882.72	   27.54
     58.3858	   33.00	   34.66	 -895.66	   27.52
     58.4192	   33.00	   34.60	 -895.60	   27.50
     58.4526	   35.00	   34.54	 -893.54	   27.48
     58.4861	   41.00	   34.48	 -887.48	   27.47
     58.5195	   27.00	   34.43	 -901.43	   27.45
     58.5529	   32.00	   34.38	 -896.38	   27.43
     58.5863	   32.00	   34.33	 -896.33	   27.41
     58.6197	   38.00	   34.28	 -890.28	   27.40
     58.6532	   39.00	   34.24	 -889.24	   27.38
     58.6866	   40.00	   34.20	 -888.20	   27.36
     58.7200	   38.00	   34.15	 -890.15	   27.34
     58.7534	   32.00	   34.11	 -896.11	   27.32
     58.7869	   33.00	   34.07	 -895.07	   27.31
     58.8203	   38.00	   34.03	 -890.03	   27.29
     58.8537	   36.00	   34.00	 -892.00	   27.27
     58.8871	   37.00	   33.96	 -890.96	   27.25
     58.9205	   37.00	   33.92	 -890.92	   27.24
     58.9540	   30.00	   33.89	 -897.89	   27.22
     58.9874	   43.00	   33.85	 -884.85	   27.20
     59.0208	   27.00	   33.82	 -900.82	   27.18
     59.0542	   31.00	   33.79	 -896.79	   27.17
     59.0877	   35.00	   33.76	 -892.76	   27.15
     59.1211	   56.00	   33.72	 -871.72	   27.13
     59.1545	   36.00	   33.69	 -891.69	   27.11
     59.1879	   32.00	   33.66	 -895.66	   27.10
     59.2213	   39.00	   33.63	 -888.63	   27.08
     59.2548	   40.00	   33.60	 -887.60	   27.06
     59.2882	   36.00	   33.57	 -891.57	   27.04
     59.3216	   33.00	   33.55	 -894.55	   27.03
     59.3550	   40.00	   33.52	 -887.52	   27.01
     59.3885	   32.00	   33.50	 -895.50	   26.99
     59.4219	   47.00	   33.55	 -880.55	   26.97
     59.4553	   43.00	   33.52	 -884.52	   26.96
     59.4887	   46.00	   33.50	 -881.50	   26.94
     59.5222	   35.00	   33.47	 -892.47	   26.92
     59.5556	   53.00	   33.45	 -874.45	   26.91
     59.5890	   43.00	   33.46	 -884.46	   26.89
     59.6224	   49.00	   33.44	 -878.44	   26.87
     59.6558	   51.00	   33.42	 -876.42	   26.85
     59.6893	   46.00	   33.40	 -881.40	   26.84
     59.7227	   41.00	   33.38	 -886.38	   26.82
     59.7561	   41.00	   33.36	 -886.36	   26.80
     59.7895	   58.00	   33.34	 -869.34	   26.79
     59.8230	   47.00	   33.32	 -880.32	   26.77
     59.8564	   41.00	   33.30	 -886.30	   26.75
     59.8898	   36.00	   33.10	 -891.10	   26.73
     59.9232	   45.00	   33.08	 -882.08	   26.72
     59.9566	   40.00	   33.07	 -887.07	   26.70
     59.9901	   43.00	   33.05	 -884.05	   26.68
     60.0235	   28.00	   33.04	 -899.04	   26.67
     60.0569	   49.00	   32.93	 -877.93	   26.65
     60.0903	   52.00	   32.92	 -874.92	   26.63
     60.1238	   40.00	   32.91	 -886.91	   26.62
     60.1572	   41.00	   32.90	 -885.90	   26.60
     60.1906	   49.00	   32.89	 -877.89	   26.58
     60.2240	   50.00	   32.87	 -876.87	   26.57
     60.2574	   41.00	   32.86	 -885.86	   26.55
     60.2909	   40.00	   32.85	 -886.85	   26.53
     60.3243	   36.00	   32.84	 -890.84	   26.52
     60.3577	   27.00	   32.83	 -899.83	   26.50
     60.3911	   31.00	   32.82	 -895.82	   26.48
     60.4246	   39.00	   32.81	 -887.81	   26.47
     60.4580	   45.00	   32.80	 -881.80	   26.45
     60.4914	   54.00	   32.79	 -872.79	   26.43
     60.5248	   38.00	   32.78	 -888.78	   26.42
     60.5583	   30.00	   32.77	 -896.77	   26.40
     60.5917	   34.00	   32.76	 -892.76	   26.38
     60.6251	   25.00	   32.75	 -901.75	   26.37
     60.6585	   43.00	   32.82	 -883.82	   26.35
     60.6919	   41.00	   32.81	 -885.81	   26.33
     60.7254	   41.00	   32.81	 -885.81	   26.32
     60.7588	   31.00	   32.80	 -895.80	   26.30
     60.7922	   35.00	   32.80	 -891.80	   26.28
     60.8256	   38.00	   32.79	 -888.79	   26.27
     60.8591	   49.00	   32.83	 -877.83	   26.25
     60.8925	   45.00	   32.82	 -881.82	   26.23
     60.9259	   35.00	   32.82	 -891.82	   26.22
     60.9593	   32.00	   32.82	 -894.82	   26.20
     60.9927	   40.00	   32.82	 -886.82	   26.19
     61.0262	   27.00	   32.82	 -899.82	   26.17
     61.0596	   31.00	   32.83	 -895.83	   26.15
     61.0930	   33.00	   32.83	 -893.83	   26.14
     61.1264	   34.00	   32.83	 -892.83	   26.12
     61.1599	   47.00	   32.84	 -879.84	   26.10
     61.1933	   40.00	   32.84	 -886.84	   26.09
     61.2267	   36.00	   32.85	 -890.85	   26.07
     61.2601	   43.00	   32.86	 -883.86	   26.06
     61.2935	   41.00	   32.87	 -885.87	   26.04
     61.3270	   36.00	   32.89	 -890.89	   26.02
     61.3604	   33.00	   32.90	 -893.90	   26.01
     61.3938	   34.00	   32.92	 -892.92	   25.99
     61.4272	   42.00	   32.94	 -884.94	   25.97
     61.4607	   34.00	   32.96	 -892.96	   25.96
     61.4941	   34.00	   32.98	 -892.98	   25.94
     61.5275	   32.00	   33.01	 -895.01	   25.93
     61.5609	   50.00	   33.04	 -877.04	   25.91
     61.5943	   33.00	   33.07	 -894.07	   25.89
     61.6278	   34.00	   33.11	 -893.11	   25.88
     61.6612	   28.00	   33.16	 -899.16	   25.86
     61.6946	   28.00	   33.20	 -899.21	   25.85
     61.7280	   27.00	   33.26	 -900.26	   25.83
     61.7615	   39.00	   33.32	 -888.32	   25.81
     61.7949	   36.00	   33.39	 -891.39	   25.80
     61.8283	   25.00	   33.47	 -902.47	   25.78
     61.8617	   28.00	   33.56	 -899.56	   25.77
     61.8952	   50.00	   33.67	 -877.67	   25.75
     61.9286	   36.00	   33.79	 -891.79	   25.74
     61.9620	   53.00	   33.94	 -874.94	   25.72
     61.9954	   32.00	   34.13	 -896.13	   25.70
     62.0288	   45.00	   34.37	 -883.37	   25.69
     62.0623	   41.00	   34.71	 -887.71	   25.67
     62.0957	   37.00	   35.18	 -892.18	   25.66
     62.1291	   42.00	   35.81	 -887.81	   25.64
     62.1625	   38.00	   36.49	 -892.49	   25.63
     62.1960	   45.00	   36.91	 -885.91	   25.61
     62.2294	   35.00	   36.97	 -895.97	   25.59
     62.2628	   39.00	   37.03	 -892.03	   25.58
     62.2962	   32.00	   37.32	 -899.32	   25.56
     62.3296	   49.00	   37.82	 -882.82	   25.55
     62.3631	   40.00	   38.38	 -892.38	   25.53
     62.3965	   46.00	   38.90	 -886.90	   25.52
     62.4299	   50.00	   39.56	 -883.56	   25.50
     62.4633	   46.00	   40.52	 -888.52	   25.49
     62.4968	   41.00	   41.87	 -894.87	   25.47
     62.5302	   36.00	   43.75	 -901.75	   25.45
     62.5636	   49.00	   46.37	 -891.37	   25.44
     62.5970	   50.00	   50.13	 -894.13	   25.42
     62.6304	   46.00	   55.82	 -903.82	   25.41
     62.6639	   56.00	   64.81	 -902.81	   25.39
     62.6973	   83.00	   79.30	 -890.30	   25.38
     62.7307	   91.00	  101.69	 -904.69	   25.36
     62.7641	  134.00	  133.83	 -893.83	   25.35
     62.7976	  180.00	  175.08	 -889.08	   25.33
     62.8310	  205.00	  209.72	 -898.72	   25.32
     62.8644	  205.00	  208.37	 -897.37	   25.30
     62.8978	  136.00	  179.36	 -937.36	   25.29
     62.9313	  137.00	  154.56	 -911.56	   25.27
     62.9647	  137.00	  145.60	 -902.60	   25.26
     62.9981	  123.00	  145.19	 -916.19	   25.24
     63.0315	  125.00	  134.49	 -903.49	   25.23
     63.0649	  100.00	  110.38	 -904.38	   25.21
     63.0984	   98.00	   86.55	 -882.55	   25.20
     63.1318	   66.00	   69.30	 -897.30	   25.18
     63.1652	   60.00	   58.25	 -892.25	   25.17
     63.1986	   48.00	   51.48	 -897.48	   25.15
     63.2321	   47.00	   47.26	 -894.26	   25.14
     63.2655	   62.00	   44.49	 -876.49	   25.12
     63.2989	   42.00	   42.55	 -894.55	   25.11
     63.3323	   45.00	   41.14	 -890.14	   25.09
     63.3657	   54.00	   40.10	 -880.10	   25.08
     63.3992	   52.00	   39.32	 -881.32	   25.06
     63.4326	   42.00	   38.75	 -890.75	   25.05
     63.4660	   60.00	   38.35	 -872.35	   25.03
     63.4994	   35.00	   38.09	 -897.09	   25.02
     63.5329	   46.00	   37.95	 -885.95	   25.00
     63.5663	   34.00	   37.94	 -897.94	   24.99
     63.5997	   48.00	   38.04	 -884.04	   24.97
     63.6331	   38.00	   38.27	 -894.27	   24.96
     63.6665	   56.00	   38.64	 -876.64	   24.94
     63.7000	   40.00	   39.18	 -893.18	   24.93
     63.7334	   36.00	   39.92	 -897.92	   24.91
     63.7668	   42.00	   40.93	 -892.93	   24.90
     63.8002	   43.00	   42.29	 -893.29	   24.88
     63.8337	   45.00	   44.15	 -893.15	   24.87
     63.8671	   70.00	   46.74	 -870.74	   24.85
     63.9005	   39.00	   50.54	 -905.54	   24.84
     63.9339	   56.00	   56.45	 -894.45	   24.82
     63.9674	   55.00	   66.27	 -905.27	   24.81
     64.0008	   82.00	   82.84	 -894.84	   24.79
     64.0342	   78.00	  109.51	 -925.51	   24.78
     64.0676	  146.00	  147.42	 -895.42	   24.77
     64.1010	  214.00	  187.06	 -867.06	   24.75
     64.1345	  224.00	  200.43	 -870.43	   24.74
     64.1679	  196.00	  178.25	 -876.25	   24.72
     64.2013	  135.00	  150.25	 -909.25	   24.71
     64.2347	  138.00	  136.30	 -892.30	   24.69
     64.2682	  131.00	  135.89	 -898.89	   24.68
     64.3016	  157.00	  134.00	 -871.00	   24.66
     64.3350	  138.00	  116.92	 -872.92	   24.65
     64.3684	   97.00	   93.13	 -890.13	   24.64
     64.4018	   68.00	   73.55	 -899.55	   24.62
     64.4353	   63.00	   60.26	 -891.26	   24.61
     64.4687	   48.00	   51.94	 -897.94	   24.59
     64.5021	   55.00	   46.79	 -885.79	   24.58
     64.5355	   70.00	   43.46	 -867.46	   24.56
     64.5690	   40.00	   41.16	 -895.16	   24.55
     64.6024	   52.00	   39.47	 -881.47	   24.54
     64.6358	   50.00	   38.18	 -882.18	   24.52
     64.6692	   37.00	   37.17	 -894.17	   24.51
     64.7026	   41.00	   36.35	 -889.35	   24.49
     64.7361	   51.00	   35.69	 -878.69	   24.48
     64.7695	   48.00	   35.15	 -881.15	   24.46
     64.8029	   36.00	   34.69	 -892.69	   24.45
     64.8363	   42.00	   34.31	 -886.31	   24.44
     64.8698	   56.00	   33.98	 -871.98	   24.42
     64.9032	   53.00	   33.70	 -874.70	   24.41
     64.9366	   30.00	   33.46	 -897.46	   24.39
     64.9700	   47.00	   33.26	 -880.26	   24.38
     65.0034	   49.00	   33.08	 -878.08	   24.37
     65.0369	   35.00	   32.94	 -891.94	   24.35
     65.0703	   50.00	   32.81	 -876.81	   24.34
     65.1037	   48.00	   32.71	 -878.71	   24.32
     65.1371	   37.00	   32.63	 -889.63	   24.31
     65.1706	   38.00	   32.58	 -888.58	   24.30
     65.2040	   41.00	   32.56	 -885.56	   24.28
     65.2374	   37.00	   32.56	 -889.56	   24.27
     65.2708	   33.00	   32.61	 -893.61	   24.25
     65.3042	   46.00	   32.71	 -880.71	   24.24
     65.3377	   42.00	   32.88	 -884.88	   24.23
     65.3711	   25.00	   33.18	 -902.18	   24.21
     65.4045	   55.00	   33.70	 -872.70	   24.20
     65.4379	   39.00	   34.61	 -889.61	   24.19
     65.4714	   35.00	   36.16	 -895.16	   24.17
     65.5048	   37.00	   38.63	 -895.63	   24.16
     65.5382	   45.00	   42.18	 -891.18	   24.14
     65.5716	   50.00	   45.22	 -889.22	   24.13
     65.6051	   65.00	   45.51	 -874.51	   24.12
     65.6385	   57.00	   43.19	 -880.19	   24.10
     65.6719	   41.00	   40.90	 -893.90	   24.09
     65.7053	   42.00	   39.91	 -891.91	   24.08
     65.7387	   37.00	   40.07	 -897.07	   24.06
     65.7722	   49.00	   39.85	 -884.85	   24.05
     65.8056	   39.00	   38.31	 -893.31	   24.04
     65.8390	   40.00	   36.27	 -890.27	   24.02
     65.8724	   42.00	   34.61	 -886.61	   24.01
     65.9059	   24.00	   33.48	 -903.48	   23.99
     65.9393	   40.00	   32.76	 -886.76	   23.98
     65.9727	   37.00	   32.31	 -889.31	   23.97
     66.0061	   32.00	   32.01	 -894.01	   23.95
     66.0396	   36.00	   31.79	 -889.79	   23.94
     66.0730	   36.00	   31.63	 -889.63	   23.93
     66.1064	   45.00	   31.50	 -880.50	   23.91
     66.1398	   45.00	   31.31	 -880.31	   23.90
     66.1732	   30.00	   31.23	 -895.23	   23.89
     66.2067	   30.00	   31.16	 -895.16	   23.87
     66.2401	   26.00	   31.09	 -899.09	   23.86
     66.2735	   39.00	   31.04	 -886.04	   23.85
     66.3069	   30.00	   31.05	 -895.05	   23.83
     66.3403	   38.00	   31.01	 -887.01	   23.82
     66.3738	   25.00	   30.98	 -899.98	   23.81
     66.4072	   32.00	   30.95	 -892.95	   23.79
     66.4406	   33.00	   30.92	 -891.92	   23.78
     66.4740	   30.00	   30.90	 -894.90	   23.77
     66.5075	   40.00	   30.93	 -884.93	   23.75
     66.5409	   36.00	   30.91	 -888.91	   23.74
     66.5743	   52.00	   30.90	 -872.90	   23.73
     66.6077	   46.00	   30.89	 -878.89	   23.72
     66.6412	   45.00	   30.88	 -879.88	   23.70
     66.6746	   40.00	   30.87	 -884.87	   23.69
     66.7080	   30.00	   30.86	 -894.86	   23.68
     66.7414	   33.00	   30.86	 -891.86	   23.66
     66.7748	   38.00	   30.86	 -886.86	   23.65
     66.8083	   32.00	   30.86	 -892.86	   23.64
     66.8417	   38.00	   30.86	 -886.86	   23.62
     66.8751	   39.00	   30.86	 -885.86	   23.61
     66.9085	   36.00	   30.86	 -888.86	   23.60
     66.9420	   28.00	   30.87	 -896.87	   23.59
     66.9754	   30.00	   30.88	 -894.88	   23.57
     67.0088	   42.00	   30.88	 -882.88	   23.56
     67.0422	   24.00	   30.90	 -900.90	   23.55
     67.0756	   39.00	   30.91	 -885.91	   23.53
     67.1091	   39.00	   30.92	 -885.92	   23.52
     67.1425	   45.00	   30.94	 -879.94	   23.51
     67.1759	   31.00	   30.96	 -893.96	   23.50
     67.2093	   26.00	   30.98	 -898.98	   23.48
     67.2428	   45.00	   31.00	 -880.00	   23.47
     67.2762	   47.00	   31.02	 -878.02	   23.46
     67.3096	   31.00	   31.05	 -894.05	   23.44
     67.3430	   27.00	   31.08	 -898.08	   23.43
     67.3764	   38.00	   31.11	 -887.11	   23.42
     67.4099	   42.00	   31.15	 -883.15	   23.41
     67.4433	   28.00	   31.11	 -897.11	   23.39
     67.4767	   43.00	   31.15	 -882.15	   23.38
     67.5101	   50.00	   31.20	 -875.20	   23.37
     67.5436	   35.00	   31.25	 -890.25	   23.36
     67.5770	   42.00	   31.30	 -883.30	   23.34
     67.6104	   34.00	   31.32	 -891.32	   23.33
     67.6438	   53.00	   31.39	 -872.39	   23.32
     67.6772	   49.00	   31.46	 -876.46	   23.31
     67.7107	   51.00	   31.54	 -874.54	   23.29
     67.7441	   34.00	   31.62	 -891.62	   23.28
     67.7775	   42.00	   31.71	 -883.71	   23.27
     67.8109	   32.00	   31.81	 -893.81	   23.26
     67.8444	   42.00	   31.92	 -883.92	   23.24
     67.8778	   38.00	   32.03	 -888.03	   23.23
     67.9112	   55.00	   32.16	 -871.16	   23.22
     67.9446	   38.00	   32.30	 -888.30	   23.21
     67.9781	   37.00	   32.45	 -889.45	   23.19
     68.0115	   39.00	   32.62	 -887.62	   23.18
     68.0449	   52.00	   32.80	 -874.80	   23.17
     68.0783	   45.00	   33.00	 -882.00	   23.16
     68.1117	   56.00	   33.22	 -871.22	   23.14
     68.1452	   27.00	   33.47	 -900.47	   23.13
     68.1786	   32.00	   33.74	 -895.74	   23.12
     68.2120	   42.00	   34.05	 -886.05	   23.11
     68.2454	   46.00	   34.39	 -882.39	   23.10
     68.2789	   53.00	   34.77	 -875.77	   23.08
     68.3123	   33.00	   35.20	 -896.20	   23.07
     68.3457	   49.00	   35.69	 -880.69	   23.06
     68.3791	   47.00	   36.25	 -883.25	   23.05
     68.4125	   51.00	   36.90	 -879.90	   23.03
     68.4460	   41.00	   37.64	 -890.64	   23.02
     68.4794	   55.00	   38.51	 -877.51	   23.01
     68.5128	   43.00	   39.54	 -890.54	   23.00
     68.5462	   46.00	   40.77	 -888.77	   22.99
     68.5797	   48.00	   42.29	 -888.29	   22.97
     68.6131	   67.00	   44.19	 -871.19	   22.96
     68.6465	   43.00	   46.62	 -897.62	   22.95
     68.6799	   72.00	   49.74	 -871.74	   22.94
     68.7133	   66.00	   53.61	 -881.61	   22.93
     68.7468	   63.00	   58.01	 -889.01	   22.91
     68.7802	   73.00	   62.78	 -883.78	   22.90
     68.8136	   87.00	   68.82	 -875.82	   22.89
     68.8470	   96.00	   77.79	 -875.79	   22.88
     68.8805	   98.00	   91.98	 -887.98	   22.87
     68.9139	  119.00	  115.19	 -890.19	   22.85
     68.9473	  158.00	  153.44	 -889.44	   22.84
     68.9807	  162.00	  214.10	 -946.10	   22.83
     69.0142	  273.00	  301.60	 -922.60	   22.82
     69.0476	  378.00	  401.07	 -917.07	   22.81
     69.0810	  471.00	  454.27	 -877.27	   22.80
     69.1144	  397.00	  416.05	 -913.05	   22.78
     69.1478	  300.00	  340.55	 -934.55	   22.77
     69.1813	  226.00	  288.94	 -956.94	   22.76
     69.2147	  230.00	  276.10	 -940.10	   22.75
     69.2481	  290.00	  286.16	 -890.16	   22.74
     69.2815	  284.00	  278.87	 -888.87	   22.72
     69.3150	  216.00	  233.79	 -911.79	   22.71
     69.3484	  187.00	  178.19	 -885.19	   22.70
     69.3818	  124.00	  134.02	 -904.02	   22.69
     69.4152	   79.00	  104.43	 -919.43	   22.68
     69.4486	   71.00	   86.16	 -909.16	   22.67
     69.4821	   84.00	   75.24	 -885.24	   22.66
     69.5155	   62.00	   68.80	 -900.80	   22.64
     69.5489	   63.00	   65.13	 -896.13	   22.63
     69.5823	   64.00	   63.46	 -893.46	   22.62
     69.6158	   62.00	   63.57	 -895.57	   22.61
     69.6492	   79.00	   65.70	 -880.70	   22.60
     69.6826	   73.00	   70.68	 -891.68	   22.59
     69.7160	   71.00	   80.28	 -903.28	   22.57
     69.7495	   70.00	   97.44	 -921.44	   22.56
     69.7829	  123.00	  125.68	 -896.68	   22.55
     69.8163	  122.00	  166.78	 -938.78	   22.54
     69.8497	  225.00	  213.10	 -882.10	   22.53
     69.8831	  221.00	  236.64	 -909.64	   22.52
     69.9166	  202.00	  217.08	 -909.08	   22.51
     69.9500	  146.00	  180.50	 -928.50	   22.50
     69.9834	  124.00	  155.29	 -925.29	   22.48
     70.0168	  117.00	  148.47	 -925.47	   22.47
     70.0502	  140.00	  153.08	 -907.08	   22.46
     70.0837	  146.00	  150.59	 -898.59	   22.45
     70.1171	  130.00	  129.91	 -893.91	   22.44
     70.1505	  113.00	  103.09	 -884.09	   22.43
     70.1839	   78.00	   81.22	 -897.22	   22.42
     70.2174	   53.00	   66.32	 -907.32	   22.41
     70.2508	   68.00	   56.97	 -882.97	   22.39
     70.2842	   50.00	   51.36	 -895.36	   22.38
     70.3176	   50.00	   48.08	 -892.08	   22.37
     70.3511	   55.00	   46.21	 -885.21	   22.36
     70.3845	   46.00	   44.87	 -892.87	   22.35
     70.4179	   36.00	   43.18	 -901.18	   22.34
     70.4513	   39.00	   41.18	 -896.18	   22.33
     70.4847	   46.00	   39.48	 -887.48	   22.32
     70.5182	   46.00	   38.32	 -886.32	   22.31
     70.5516	   39.00	   37.62	 -892.62	   22.29
     70.5850	   39.00	   37.07	 -892.07	   22.28
     70.6184	   43.00	   36.28	 -887.28	   22.27
     70.6519	   39.00	   35.29	 -890.29	   22.26
     70.6853	   34.00	   34.37	 -894.38	   22.25
     70.7187	   32.00	   33.65	 -895.65	   22.24
     70.7521	   24.00	   33.09	 -903.09	   22.23
     70.7855	   35.00	   32.66	 -891.66	   22.22
     70.8190	   27.00	   32.31	 -899.31	   22.21
     70.8524	   35.00	   32.01	 -891.01	   22.20
     70.8858	   37.00	   31.76	 -888.76	   22.19
     70.9192	   38.00	   31.53	 -887.53	   22.17
     70.9527	   34.00	   31.33	 -891.33	   22.16
     70.9861	   32.00	   31.15	 -893.15	   22.15
     71.0195	   33.00	   30.99	 -891.99	   22.14
     71.0529	   23.00	   30.84	 -901.84	   22.13
     71.0863	   23.00	   30.71	 -901.71	   22.12
     71.1198	   33.00	   30.58	 -891.58	   22.11
     71.1532	   30.00	   30.47	 -894.47	   22.10
     71.1866	   23.00	   30.36	 -901.36	   22.09
     71.2200	   41.00	   30.26	 -883.26	   22.08
     71.2535	   28.00	   30.17	 -896.17	   22.07
     71.2869	   26.00	   30.09	 -898.09	   22.06
     71.3203	   27.00	   30.01	 -897.01	   22.05
     71.3537	   25.00	   29.94	 -898.94	   22.04
     71.3872	   26.00	   29.87	 -897.87	   22.02
     71.4206	   33.00	   29.81	 -890.81	   22.01
     71.4540	   31.00	   29.75	 -892.75	   22.00
     71.4874	   27.00	   29.70	 -896.70	   21.99
     71.5208	   23.00	   29.65	 -900.65	   21.98
     71.5543	   23.00	   29.60	 -900.60	   21.97
     71.5877	   33.00	   29.56	 -890.56	   21.96
     71.6211	   28.00	   29.52	 -895.52	   21.95
     71.6545	   23.00	   29.49	 -900.49	   21.94
     71.6880	   28.00	   29.46	 -895.46	   21.93
     71.7214	   20.00	   29.43	 -903.43	   21.92
     71.7548	   26.00	   29.41	 -897.41	   21.91
     71.7882	   27.00	   29.40	 -896.40	   21.90
     71.8216	   37.00	   29.39	 -886.39	   21.89
     71.8551	   33.00	   29.39	 -890.39	   21.88
     71.8885	   33.00	   29.39	 -890.39	   21.87
     71.9219	   32.00	   29.40	 -891.40	   21.86
     71.9553	   32.00	   29.43	 -891.43	   21.85
     71.9888	   24.00	   29.46	 -899.46	   21.84
     72.0222	   30.00	   29.51	 -893.51	   21.83
     72.0556	   41.00	   29.58	 -882.58	   21.82
     72.0890	   21.00	   29.68	 -902.68	   21.81
     72.1225	   32.00	   29.81	 -891.81	   21.80
     72.1559	   20.00	   29.98	 -903.98	   21.79
     72.1893	   32.00	   30.22	 -892.22	   21.78
     72.2227	   24.00	   30.55	 -900.55	   21.77
     72.2561	   19.00	   31.02	 -906.02	   21.76
     72.2896	   31.00	   31.76	 -894.76	   21.75
     72.3230	   34.00	   32.96	 -892.96	   21.74
     72.3564	   24.00	   34.93	 -904.93	   21.73
     72.3898	   34.00	   38.06	 -898.06	   21.72
     72.4232	   33.00	   42.57	 -903.57	   21.71
     72.4567	   43.00	   47.75	 -898.75	   21.70
     72.4901	   52.00	   50.57	 -892.57	   21.69
     72.5235	   53.00	   48.90	 -889.90	   21.68
     72.5569	   26.00	   44.84	 -912.84	   21.67
     72.5904	   41.00	   41.70	 -894.70	   21.66
     72.6238	   31.00	   40.54	 -903.54	   21.65
     72.6572	   37.00	   40.97	 -897.97	   21.64
     72.6906	   31.00	   41.31	 -904.31	   21.63
     72.7241	   42.00	   39.88	 -891.88	   21.62
     72.7575	   30.00	   37.04	 -901.04	   21.61
     72.7909	   28.00	   34.35	 -900.35	   21.60
     72.8243	   31.00	   32.38	 -895.38	   21.59
     72.8577	   24.00	   31.08	 -901.08	   21.58
     72.8912	   34.00	   30.27	 -890.27	   21.57
     72.9246	   27.00	   29.74	 -896.74	   21.56
     72.9580	   19.00	   29.37	 -904.37	   21.55
     72.9914	   23.00	   29.11	 -900.11	   21.54
     73.0249	   30.00	   28.91	 -892.91	   21.53
     73.0583	   27.00	   28.75	 -895.75	   21.52
     73.0917	   20.00	   28.62	 -902.62	   21.51
     73.1251	   28.00	   28.52	 -894.52	   21.50
     73.1585	   31.00	   28.43	 -891.43	   21.49
     73.1920	   28.00	   28.36	 -894.36	   21.48
     73.2254	   25.00	   28.29	 -897.29	   21.47
     73.2588	   21.00	   28.23	 -901.23	   21.46
     73.2922	   25.00	   28.09	 -897.09	   21.45
     73.3257	   32.00	   28.04	 -890.04	   21.44
     73.3591	   34.00	   28.01	 -888.01	   21.43
     73.3925	   41.00	   27.97	 -880.97	   21.42
     73.4259	   23.00	   27.94	 -898.94	   21.41
     73.4594	   27.00	   27.92	 -894.92	   21.40
     73.4928	   23.00	   27.84	 -898.84	   21.39
     73.5262	   39.00	   27.82	 -882.82	   21.38
     73.5596	   24.00	   27.81	 -897.81	   21.37
     73.5930	   25.00	   27.79	 -896.79	   21.36
     73.6265	   26.00	   27.78	 -895.78	   21.36
     73.6599	   33.00	   27.76	 -888.76	   21.35
     73.6933	   19.00	   27.75	 -902.75	   21.34
     73.7267	   33.00	   27.75	 -888.75	   21.33
     73.7601	   25.00	   27.74	 -896.74	   21.32
     73.7936	   33.00	   27.74	 -888.74	   21.31
     73.8270	   32.00	   27.75	 -889.75	   21.30
     73.8604	   28.00	   27.77	 -893.77	   21.29
     73.8938	   23.00	   27.80	 -898.80	   21.28
     73.9273	   25.00	   27.86	 -896.86	   21.27
     73.9607	   27.00	   27.93	 -894.93	   21.26
     73.9941	   33.00	   28.00	 -889.00	   21.25
     74.0275	   39.00	   28.02	 -883.02	   21.24
     74.0610	   30.00	   27.99	 -891.99	   21.23
     74.0944	   22.00	   27.96	 -899.96	   21.22
     74.1278	   27.00	   27.96	 -894.96	   21.22
     74.1612	   22.00	   28.01	 -900.01	   21.21
     74.1946	   27.00	   28.08	 -895.08	   21.20
     74.2281	   24.00	   28.18	 -898.18	   21.19
     74.2615	   22.00	   28.30	 -900.30	   21.18
     74.2949	   23.00	   28.49	 -899.49	   21.17
     74.3283	   19.00	   28.84	 -903.84	   21.16
     74.3618	   18.00	   29.42	 -905.42	   21.15
     74.3952	   31.00	   30.29	 -893.29	   21.14
     74.4286	   28.00	   31.36	 -897.36	   21.13
     74.4620	   34.00	   32.14	 -892.14	   21.12
     74.4955	   31.00	   32.00	 -895.00	   21.12
     74.5289	   24.00	   31.19	 -901.19	   21.11
     74.5623	   40.00	   30.46	 -884.46	   21.10
     74.5957	   27.00	   30.11	 -897.11	   21.09
     74.6291	   25.00	   30.14	 -899.14	   21.08
     74.6626	   23.00	   30.34	 -901.34	   21.07
     74.6960	   36.00	   30.28	 -888.28	   21.06
     74.7294	   35.00	   29.84	 -888.84	   21.05
     74.7628	   20.00	   29.30	 -903.30	   21.04
     74.7962	   28.00	   28.91	 -894.91	   21.04
     74.8297	   39.00	   28.70	 -883.70	   21.03
     74.8631	   36.00	   28.67	 -886.67	   21.02
     74.8965	   28.00	   28.81	 -894.81	   21.01
     74.9299	   31.00	   29.19	 -892.19	   21.00
     74.9634	   19.00	   29.86	 -904.86	   20.99
     74.9968	   27.00	   30.91	 -897.91	   20.98
     75.0302	   24.00	   32.27	 -902.27	   20.97
     75.0636	   27.00	   33.40	 -900.40	   20.96
     75.0971	   42.00	   33.43	 -885.43	   20.96
     75.1305	   40.00	   32.43	 -886.43	   20.95
     75.1639	   26.00	   31.37	 -899.37	   20.94
     75.1973	   17.00	   30.76	 -907.76	   20.93
     75.2307	   37.00	   30.68	 -887.68	   20.92
     75.2642	   28.00	   30.90	 -896.90	   20.91
     75.2976	   30.00	   30.91	 -894.91	   20.90
     75.3310	   32.00	   30.38	 -892.38	   20.90
     75.3644	   22.00	   29.60	 -901.60	   20.89
     75.3979	   35.00	   28.92	 -887.92	   20.88
     75.4313	   23.00	   28.44	 -899.44	   20.87
     75.4647	   19.00	   28.13	 -903.13	   20.86
     75.4981	   28.00	   27.94	 -893.94	   20.85
     75.5315	   26.00	   27.81	 -895.81	   20.84
     75.5650	   22.00	   27.73	 -899.73	   20.84
     75.5984	   31.00	   27.68	 -890.68	   20.83
     75.6318	   37.00	   27.65	 -884.65	   20.82
     75.6652	   39.00	   27.62	 -882.62	   20.81
     75.6987	   30.00	   27.62	 -891.62	   20.80
     75.7321	   23.00	   27.62	 -898.62	   20.79
     75.7655	   23.00	   27.63	 -898.63	   20.78
     75.7989	   25.00	   27.65	 -896.65	   20.78
     75.8324	   28.00	   27.68	 -893.68	   20.77
     75.8658	   22.00	   27.73	 -899.73	   20.76
     75.8992	   35.00	   27.80	 -886.80	   20.75
     75.9326	   45.00	   27.89	 -876.89	   20.74
     75.9660	   25.00	   28.02	 -897.02	   20.73
     75.9995	   32.00	   28.22	 -890.22	   20.73
     76.0329	   20.00	   28.51	 -902.51	   20.72
     76.0663	   18.00	   28.92	 -904.92	   20.71
     76.0997	   37.00	   29.40	 -886.40	   20.70
     76.1331	   28.00	   29.78	 -895.78	   20.69
     76.1666	   32.00	   29.86	 -891.86	   20.69
     76.2000	   27.00	   29.78	 -896.78	   20.68
     76.2334	   21.00	   29.78	 -902.78	   20.67
     76.2668	   22.00	   29.99	 -901.99	   20.66
     76.3003	   39.00	   30.43	 -885.43	   20.65
     76.3337	   31.00	   31.08	 -894.08	   20.64
     76.3671	   22.00	   31.89	 -903.89	   20.64
     76.4005	   28.00	   32.95	 -898.95	   20.63
     76.4340	   32.00	   34.66	 -896.66	   20.62
     76.4674	   27.00	   37.59	 -904.59	   20.61
     76.5008	   56.00	   42.35	 -880.35	   20.60
     76.5342	   40.00	   49.38	 -903.38	   20.60
     76.5676	   57.00	   58.07	 -895.07	   20.59
     76.6011	   72.00	   64.81	 -886.81	   20.58
     76.6345	   67.00	   64.30	 -891.30	   20.57
     76.6679	   56.00	   57.87	 -895.87	   20.56
     76.7013	   57.00	   51.37	 -888.37	   20.56
     76.7348	   41.00	   47.75	 -900.75	   20.55
     76.7682	   39.00	   47.31	 -902.31	   20.54
     76.8016	   47.00	   48.82	 -895.82	   20.53
     76.8350	   53.00	   49.28	 -890.28	   20.52
     76.8684	   32.00	   46.32	 -908.32	   20.52
     76.9019	   36.00	   41.51	 -899.51	   20.51
     76.9353	   33.00	   37.19	 -898.19	   20.50
     76.9687	   42.00	   34.05	 -886.05	   20.49
     77.0021	   45.00	   31.98	 -880.98	   20.49
     77.0356	   32.00	   30.64	 -892.64	   20.48
     77.0690	   27.00	   29.77	 -896.77	   20.47
     77.1024	   19.00	   29.18	 -904.18	   20.46
     77.1358	   19.00	   28.75	 -903.75	   20.45
     77.1693	   28.00	   28.42	 -894.42	   20.45
     77.2027	   26.00	   28.16	 -896.16	   20.44
     77.2361	   20.00	   27.95	 -901.95	   20.43
     77.2695	   22.00	   27.78	 -899.78	   20.42
     77.3029	   25.00	   27.63	 -896.63	   20.42
     77.3364	   26.00	   27.51	 -895.51	   20.41
     77.3698	   24.00	   27.41	 -897.41	   20.40
     77.4032	   34.00	   27.32	 -887.32	   20.39
     77.4366	   20.00	   27.24	 -901.24	   20.39
     77.4701	   26.00	   27.18	 -895.18	   20.38
     77.5035	   22.00	   27.12	 -899.12	   20.37
     77.5369	   23.00	   27.06	 -898.06	   20.36
     77.5703	   24.00	   27.02	 -897.02	   20.36
     77.6037	   27.00	   26.97	 -893.97	   20.35
     77.6372	   18.00	   26.93	 -902.93	   20.34
     77.6706	   30.00	   26.90	 -890.90	   20.33
     77.7040	   21.00	   26.86	 -899.86	   20.33
     77.7374	   25.00	   26.83	 -895.83	   20.32
     77.7709	   19.00	   26.81	 -901.81	   20.31
     77.8043	   18.00	   26.78	 -902.78	   20.30
     77.8377	   17.00	   26.76	 -903.76	   20.30
     77.8711	   13.00	   26.73	 -907.73	   20.29
     77.9045	   27.00	   26.71	 -893.71	   20.28
     77.9380	   30.00	   26.69	 -890.69	   20.27
     77.9714	   28.00	   26.68	 -892.68	   20.27
     78.0048	   30.00	   26.66	 -890.66	   20.26
     78.0382	   25.00	   26.64	 -895.64	   20.25
     78.0717	   25.00	   26.63	 -895.62	   20.24
     78.1051	   23.00	   26.61	 -897.61	   20.24
     78.1385	   28.00	   26.60	 -892.60	   20.23
     78.1719	   27.00	   26.58	 -893.58	   20.22
     78.2054	   16.00	   26.57	 -904.57	   20.21
     78.2388	   31.00	   26.56	 -889.56	   20.21
     78.2722	   32.00	   26.55	 -888.55	   20.20
     78.3056	   19.00	   26.54	 -901.54	   20.19
     78.3390	   22.00	   26.53	 -898.53	   20.19
     78.3725	   31.00	   26.52	 -889.52	   20.18
     78.4059	   26.00	   26.51	 -894.51	   20.17
     78.4393	   30.00	   26.51	 -890.51	   20.16
     78.4727	   24.00	   26.50	 -896.50	   20.16
     78.5061	   32.00	   26.49	 -888.49	   20.15
     78.5396	   17.00	   26.52	 -903.52	   20.14
     78.5730	   17.00	   26.51	 -903.51	   20.14
     78.6064	   11.00	   26.51	 -909.51	   20.13
     78.6398	   27.00	   26.51	 -893.51	   20.12
     78.6733	   21.00	   26.50	 -899.50	   20.11
     78.7067	   33.00	   26.50	 -887.50	   20.11
     78.7401	   33.00	   26.50	 -887.50	   20.10
     78.7735	   31.00	   26.52	 -889.52	   20.09
     78.8070	   23.00	   26.52	 -897.52	   20.09
     78.8404	   36.00	   26.52	 -884.52	   20.08
     78.8738	   32.00	   26.52	 -888.52	   20.07
     78.9072	   21.00	   26.53	 -899.53	   20.07
     78.9406	   25.00	   26.54	 -895.54	   20.06
     78.9741	   31.00	   26.54	 -889.54	   20.05
     79.0075	   28.00	   26.55	 -892.55	   20.05
     79.0409	   27.00	   26.57	 -893.57	   20.04
     79.0743	   22.00	   26.58	 -898.58	   20.03
     79.1078	   25.00	   26.60	 -895.60	   20.02
     79.1412	   20.00	   26.62	 -900.62	   20.02
     79.1746	   24.00	   26.65	 -896.65	   20.01
     79.2080	   34.00	   26.67	 -886.67	   20.00
     79.2414	   30.00	   26.71	 -890.71	   20.00
     79.2749	   31.00	   26.75	 -889.75	   19.99
     79.3083	   33.00	   26.80	 -887.80	   19.98
     79.3417	   30.00	   26.86	 -890.86	   19.98
     79.3751	   24.00	   26.93	 -896.93	   19.97
     79.4086	   21.00	   27.01	 -900.01	   19.96
     79.4420	   24.00	   27.11	 -897.11	   19.96
     79.4754	   24.00	   27.24	 -897.24	   19.95
     79.5088	   19.00	   27.40	 -902.40	   19.94
     79.5423	   21.00	   27.60	 -900.60	   19.94
     79.5757	   33.00	   27.86	 -888.86	   19.93
     79.6091	   39.00	   28.20	 -883.20	   19.92
     79.6425	   23.00	   28.67	 -899.67	   19.92
     79.6759	   32.00	   29.35	 -891.35	   19.91
     79.7094	   31.00	   30.40	 -893.40	   19.90
     79.7428	   38.00	   32.08	 -888.08	   19.90
     79.7762	   39.00	   34.71	 -889.71	   19.89
     79.8096	   35.00	   38.65	 -897.65	   19.88
     79.8430	   51.00	   43.84	 -886.84	   19.88
     79.8765	   45.00	   48.98	 -897.98	   19.87
     79.9099	   52.00	   50.83	 -892.83	   19.87
     79.9433	   43.00	   47.99	 -898.99	   19.86
     79.9767	   31.00	   43.49	 -906.49	   19.85
     80.0102	   31.00	   40.11	 -903.11	   19.85
     80.0436	   28.00	   38.68	 -904.68	   19.84
     80.0770	   28.00	   39.03	 -905.03	   19.83
     80.1104	   33.00	   40.18	 -901.18	   19.83
     80.1439	   35.00	   40.25	 -899.25	   19.82
     80.1773	   39.00	   38.15	 -893.15	   19.81
     80.2107	   30.00	   35.17	 -899.17	   19.81
     80.2441	   34.00	   32.56	 -892.56	   19.80
     80.2775	   25.00	   30.68	 -899.68	   19.79
     80.3110	   24.00	   29.42	 -899.42	   19.79
     80.3444	   34.00	   28.61	 -888.61	   19.78
     80.3778	   24.00	   28.08	 -898.08	   19.78
     80.4112	   27.00	   27.74	 -894.74	   19.77
     80.4447	   26.00	   27.48	 -895.48	   19.76
     80.4781	   39.00	   27.29	 -882.29	   19.76
     80.5115	   33.00	   27.16	 -888.16	   19.75
     80.5449	   31.00	   27.06	 -890.06	   19.74
     80.5784	   33.00	   27.01	 -888.01	   19.74
     80.6118	   23.00	   26.98	 -897.98	   19.73
     80.6452	   24.00	   26.97	 -896.97	   19.73
     80.6786	   36.00	   26.91	 -884.91	   19.72
     80.7120	   25.00	   26.82	 -895.82	   19.71
     80.7455	   25.00	   26.74	 -895.74	   19.71
     80.7789	   25.00	   26.67	 -895.67	   19.70
     80.8123	   27.00	   26.64	 -893.64	   19.70
     80.8457	   27.00	   26.62	 -893.62	   19.69
     80.8792	   27.00	   26.61	 -893.61	   19.68
     80.9126	   18.00	   26.59	 -902.59	   19.68
     80.9460	   27.00	   26.55	 -893.55	   19.67
     80.9794	   16.00	   26.51	 -904.51	   19.67
     81.0128	   36.00	   26.48	 -884.48	   19.66
     81.0463	   19.00	   26.46	 -901.46	   19.65
     81.0797	   19.00	   26.45	 -901.45	   19.65
     81.1131	   26.00	   26.44	 -894.44	   19.64
     81.1465	   24.00	   26.44	 -896.44	   19.64
     81.1800	   26.00	   26.45	 -894.45	   19.63
     81.2134	   26.00	   26.46	 -894.46	   19.62
     81.2468	   25.00	   26.47	 -895.47	   19.62
     81.2802	   28.00	   26.48	 -892.48	   19.61
     81.3136	   19.00	   26.50	 -901.50	   19.61
     81.3471	   26.00	   26.52	 -894.52	   19.60
     81.3805	   27.00	   26.55	 -893.55	   19.59
     81.4139	   40.00	   26.58	 -880.58	   19.59
     81.4473	   37.00	   26.62	 -883.62	   19.58
     81.4808	   26.00	   26.66	 -894.66	   19.58
     81.5142	   22.00	   26.70	 -898.70	   19.57
     81.5476	   24.00	   26.76	 -896.76	   19.57
     81.5810	   28.00	   26.82	 -892.82	   19.56
     81.6144	   26.00	   26.89	 -894.89	   19.55
     81.6479	   28.00	   26.97	 -892.97	   19.55
     81.6813	   25.00	   27.06	 -896.06	   19.54
     81.7147	   35.00	   27.17	 -886.17	   19.54
     81.7481	   35.00	   27.29	 -886.29	   19.53
     81.7816	   45.00	   27.44	 -876.44	   19.53
     81.8150	   35.00	   27.61	 -886.61	   19.52
     81.8484	   31.00	   27.81	 -890.81	   19.51
     81.8818	   26.00	   28.04	 -896.04	   19.51
     81.9153	   28.00	   28.33	 -894.33	   19.50
     81.9487	   38.00	   28.67	 -884.67	   19.50
     81.9821	   32.00	   29.09	 -891.09	   19.49
     82.0155	   41.00	   29.62	 -882.62	   19.49
     82.0489	   38.00	   30.28	 -886.28	   19.48
     82.0824	   23.00	   31.15	 -902.15	   19.48
     82.1158	   33.00	   32.30	 -893.30	   19.47
     82.1492	   28.00	   33.90	 -899.90	   19.46
     82.1826	   38.00	   36.24	 -892.24	   19.46
     82.2160	   38.00	   39.79	 -895.79	   19.45
     82.2495	   51.00	   45.31	 -888.31	   19.45
     82.2829	   49.00	   53.74	 -898.74	   19.44
     82.3163	   64.00	   65.93	 -895.93	   19.44
     82.3497	   88.00	   81.24	 -887.24	   19.43
     82.3832	  104.00	   94.68	 -884.68	   19.43
     82.4166	  106.00	   97.07	 -885.07	   19.42
     82.4500	   77.00	   87.24	 -904.23	   19.42
     82.4834	   76.00	   74.44	 -892.44	   19.41
     82.5169	   57.00	   65.35	 -902.35	   19.41
     82.5503	   49.00	   61.77	 -906.77	   19.40
     82.5837	   68.00	   63.16	 -889.16	   19.39
     82.6171	   67.00	   67.09	 -894.09	   19.39
     82.6505	   70.00	   68.59	 -892.59	   19.38
     82.6840	   53.00	   64.08	 -905.08	   19.38
     82.7174	   43.00	   56.22	 -907.22	   19.37
     82.7508	   45.00	   48.57	 -897.57	   19.37
     82.7842	   41.00	   42.42	 -895.42	   19.36
     82.8177	   39.00	   38.01	 -893.01	   19.36
     82.8511	   31.00	   35.12	 -898.12	   19.35
     82.8845	   35.00	   33.33	 -892.33	   19.35
     82.9179	   38.00	   32.27	 -888.27	   19.34
     82.9514	   36.00	   31.61	 -889.61	   19.34
     82.9848	   32.00	   31.05	 -893.05	   19.33
     83.0182	   35.00	   30.38	 -889.38	   19.33
     83.0516	   31.00	   29.70	 -892.70	   19.32
     83.0850	   25.00	   29.15	 -898.15	   19.32
     83.1185	   34.00	   28.78	 -888.78	   19.31
     83.1519	   35.00	   28.58	 -887.58	   19.31
     83.1853	   31.00	   28.52	 -891.52	   19.30
     83.2187	   24.00	   28.53	 -898.53	   19.30
     83.2522	   26.00	   28.48	 -896.48	   19.29
     83.2856	   30.00	   28.26	 -892.26	   19.29
     83.3190	   27.00	   27.96	 -894.96	   19.28
     83.3524	   24.00	   27.71	 -897.71	   19.28
     83.3858	   28.00	   27.56	 -893.56	   19.27
     83.4193	   25.00	   27.49	 -896.49	   19.27
     83.4527	   26.00	   27.50	 -895.50	   19.26
     83.4861	   42.00	   27.53	 -879.53	   19.26
     83.5195	   21.00	   27.49	 -900.49	   19.25
     83.5530	   28.00	   27.38	 -893.38	   19.25
     83.5864	   32.00	   27.27	 -889.27	   19.24
     83.6198	   27.00	   27.20	 -894.20	   19.24
     83.6532	   27.00	   27.17	 -894.17	   19.23
     83.6866	   24.00	   27.19	 -897.19	   19.23
     83.7201	   38.00	   27.24	 -883.24	   19.22
     83.7535	   23.00	   27.32	 -898.32	   19.22
     83.7869	   20.00	   27.44	 -901.44	   19.21
     83.8203	   21.00	   27.59	 -900.59	   19.21
     83.8538	   27.00	   27.79	 -894.79	   19.20
     83.8872	   26.00	   28.05	 -896.05	   19.20
     83.9206	   35.00	   28.37	 -887.37	   19.19
     83.9540	   28.00	   28.79	 -894.79	   19.19
     83.9874	   34.00	   29.34	 -889.34	   19.18
     84.0209	   45.00	   30.07	 -879.07	   19.18
     84.0543	   22.00	   31.09	 -903.09	   19.18
     84.0877	   37.00	   32.59	 -889.59	   19.17
     84.1211	   32.00	   34.90	 -896.90	   19.17
     84.1546	   46.00	   38.53	 -886.53	   19.16
     84.1880	   46.00	   44.12	 -892.12	   19.16
     84.2214	   55.00	   52.21	 -891.21	   19.15
     84.2548	   61.00	   62.51	 -895.51	   19.15
     84.2883	   87.00	   72.09	 -879.09	   19.14
     84.3217	   82.00	   74.89	 -886.89	   19.14
     84.3551	   78.00	   68.96	 -884.96	   19.13
     84.3885	   54.00	   60.00	 -900.00	   19.13
     84.4219	   43.00	   53.03	 -904.03	   19.12
     84.4554	   47.00	   49.62	 -896.62	   19.12
     84.4888	   45.00	   49.66	 -898.66	   19.12
     84.5222	   53.00	   52.00	 -893.00	   19.11
     84.5556	   57.00	   53.90	 -890.90	   19.11
     84.5891	   67.00	   52.07	 -879.07	   19.10
     84.6225	   54.00	   46.88	 -886.88	   19.10
     84.6559	   40.00	   41.25	 -895.25	   19.09
     84.6893	   39.00	   36.75	 -891.75	   19.09
     84.7227	   37.00	   33.57	 -890.57	   19.08
     84.7562	   26.00	   31.46	 -899.46	   19.08
     84.7896	   28.00	   30.07	 -896.07	   19.08
     84.8230	   35.00	   29.13	 -888.13	   19.07
     84.8564	   36.00	   28.47	 -886.47	   19.07
     84.8899	   36.00	   27.98	 -885.98	   19.06
     84.9233	   36.00	   27.59	 -885.59	   19.06
     84.9567	   33.00	   27.29	 -888.29	   19.05
     84.9901	   25.00	   27.04	 -896.04	   19.05
     85.0235	   31.00	   26.84	 -889.84	   19.05
     85.0570	   35.00	   26.66	 -885.66	   19.04
     85.0904	   25.00	   26.52	 -895.52	   19.04
     85.1238	   28.00	   26.39	 -892.39	   19.03
     85.1572	   37.00	   26.29	 -883.29	   19.03
     85.1907	   28.00	   26.19	 -892.19	   19.02
     85.2241	   22.00	   26.11	 -898.11	   19.02
     85.2575	   18.00	   26.04	 -902.04	   19.02
     85.2909	   19.00	   25.97	 -900.97	   19.01
     85.3244	   26.00	   25.91	 -893.91	   19.01
     85.3578	   24.00	   25.86	 -895.86	   19.00
     85.3912	   32.00	   25.81	 -887.81	   19.00
     85.4246	   27.00	   25.77	 -892.77	   18.99
     85.4580	   39.00	   25.73	 -880.73	   18.99
     85.4915	   27.00	   25.70	 -892.70	   18.99
     85.5249	   24.00	   25.67	 -895.67	   18.98
     85.5583	   27.00	   25.69	 -892.69	   18.98
     85.5917	   30.00	   25.67	 -889.67	   18.97
     85.6252	   23.00	   25.64	 -896.64	   18.97
     85.6586	   20.00	   25.62	 -899.62	   18.97
     85.6920	   33.00	   25.60	 -886.60	   18.96
     85.7254	   30.00	   25.58	 -889.58	   18.96
     85.7589	   19.00	   25.56	 -900.56	   18.95
     85.7923	   21.00	   25.54	 -898.54	   18.95
     85.8257	   28.00	   25.56	 -891.56	   18.95
     85.8591	   21.00	   25.54	 -898.54	   18.94
     85.8925	   31.00	   25.53	 -888.53	   18.94
     85.9259	   42.00	   25.52	 -877.52	   18.93
     85.9594	   32.00	   25.51	 -887.51	   18.93
     85.9928	   28.00	   25.50	 -891.50	   18.93
     86.0262	   26.00	   25.49	 -893.49	   18.92
     86.0596	   36.00	   25.49	 -883.49	   18.92
     86.0931	   16.00	   25.48	 -903.48	   18.91
     86.1265	   34.00	   25.44	 -885.44	   18.91
     86.1599	   18.00	   25.43	 -901.43	   18.91
     86.1933	   20.00	   25.43	 -899.43	   18.90
     86.2268	   37.00	   25.43	 -882.43	   18.90
     86.2602	   40.00	   25.42	 -879.42	   18.90
     86.2936	   31.00	   25.42	 -888.42	   18.89
     86.3270	   35.00	   25.42	 -884.42	   18.89
     86.3604	   27.00	   25.42	 -892.42	   18.88
     86.3939	   18.00	   25.41	 -901.41	   18.88
     86.4273	   21.00	   25.41	 -898.41	   18.88
     86.4607	   25.00	   25.41	 -894.41	   18.87
     86.4941	   25.00	   25.42	 -894.42	   18.87
     86.5276	   31.00	   25.42	 -888.42	   18.87
     86.5610	   24.00	   25.43	 -895.43	   18.86
     86.5944	   27.00	   25.44	 -892.44	   18.86
     86.6278	   23.00	   25.45	 -896.45	   18.85
     86.6613	   28.00	   25.50	 -891.50	   18.85
     86.6947	   38.00	   25.51	 -881.51	   18.85
     86.7281	   45.00	   25.53	 -874.53	   18.84
     86.7615	   22.00	   25.55	 -897.55	   18.84
     86.7949	   31.00	   25.58	 -888.58	   18.84
     86.8284	   25.00	   25.61	 -894.61	   18.83
     86.8618	   30.00	   25.64	 -889.64	   18.83
     86.8952	   30.00	   25.68	 -889.68	   18.83
     86.9286	   33.00	   25.74	 -886.74	   18.82
     86.9621	   25.00	   25.79	 -894.79	   18.82
     86.9955	   23.00	   25.85	 -896.85	   18.82
     87.0289	   21.00	   25.93	 -898.93	   18.81
     87.0623	   19.00	   26.02	 -901.02	   18.81
     87.0957	   39.00	   26.12	 -881.12	   18.81
     87.1292	   32.00	   26.26	 -888.26	   18.80
     87.1626	   37.00	   26.42	 -883.42	   18.80
     87.1960	   21.00	   26.63	 -899.63	   18.79
     87.2294	   33.00	   26.90	 -887.90	   18.79
     87.2629	   27.00	   27.26	 -894.26	   18.79
     87.2963	   25.00	   27.77	 -896.77	   18.78
     87.3297	   30.00	   28.53	 -892.53	   18.78
     87.3631	   31.00	   29.69	 -892.69	   18.78
     87.3965	   33.00	   31.48	 -892.48	   18.77
     87.4300	   46.00	   34.14	 -882.14	   18.77
     87.4634	   33.00	   37.76	 -898.76	   18.77
     87.4968	   36.00	   41.87	 -899.87	   18.76
     87.5302	   51.00	   44.76	 -887.76	   18.76
     87.5637	   52.00	   44.36	 -886.36	   18.76
     87.5971	   42.00	   41.27	 -893.27	   18.75
     87.6305	   40.00	   37.87	 -891.87	   18.75
     87.6639	   41.00	   35.51	 -888.51	   18.75
     87.6974	   28.00	   34.50	 -900.50	   18.75
     87.7308	   33.00	   34.74	 -895.74	   18.74
     87.7642	   37.00	   35.78	 -892.78	   18.74
     87.7976	   40.00	   36.61	 -890.61	   18.74
     87.8310	   28.00	   36.02	 -902.02	   18.73
     87.8645	   27.00	   34.09	 -901.09	   18.73
     87.8979	   27.00	   31.92	 -898.92	   18.73
     87.9313	   28.00	   30.13	 -896.13	   18.72
     87.9647	   27.00	   28.85	 -895.85	   18.72
     87.9982	   30.00	   28.00	 -892.00	   18.72
     88.0316	   18.00	   27.43	 -903.43	   18.71
     88.0650	   31.00	   27.06	 -890.06	   18.71
     88.0984	   19.00	   26.78	 -901.78	   18.71
     88.1318	   23.00	   26.60	 -897.60	   18.70
     88.1653	   31.00	   26.47	 -889.47	   18.70
     88.1987	   23.00	   26.38	 -897.38	   18.70
     88.2321	   23.00	   26.30	 -897.30	   18.70
     88.2655	   21.00	   26.25	 -899.25	   18.69
     88.2990	   32.00	   26.22	 -888.22	   18.69
     88.3324	   23.00	   26.20	 -897.20	   18.69
     88.3658	   26.00	   26.17	 -894.17	   18.68
     88.3992	   27.00	   26.17	 -893.17	   18.68
     88.4326	   26.00	   26.18	 -894.18	   18.68
     88.4661	   24.00	   26.20	 -896.20	   18.67
     88.4995	   21.00	   26.23	 -899.23	   18.67
     88.5329	   26.00	   26.26	 -894.26	   18.67
     88.5663	   23.00	   26.31	 -897.31	   18.67
     88.5998	   42.00	   26.36	 -878.36	   18.66
     88.6332	   37.00	   26.42	 -883.42	   18.66
     88.6666	   30.00	   26.49	 -890.49	   18.66
     88.7000	   23.00	   26.57	 -897.57	   18.65
     88.7334	   34.00	   26.66	 -886.66	   18.65
     88.7669	   25.00	   26.77	 -895.77	   18.65
     88.8003	   32.00	   26.89	 -888.89	   18.65
     88.8337	   26.00	   27.03	 -895.03	   18.64
     88.8671	   26.00	   27.19	 -895.19	   18.64
     88.9006	   28.00	   27.37	 -893.37	   18.64
     88.9340	   42.00	   27.57	 -879.57	   18.63
     88.9674	   32.00	   27.81	 -889.81	   18.63
     89.0008	   21.00	   28.09	 -901.09	   18.63
     89.0343	   30.00	   28.41	 -892.41	   18.63
     89.0677	   31.00	   28.79	 -891.79	   18.62
     89.1011	   33.00	   29.24	 -890.24	   18.62
     89.1345	   36.00	   29.78	 -887.78	   18.62
     89.1679	   33.00	   30.43	 -891.43	   18.62
     89.2014	   41.00	   31.22	 -884.22	   18.61
     89.2348	   32.00	   32.21	 -894.21	   18.61
     89.2682	   43.00	   33.46	 -884.46	   18.61
     89.3016	   33.00	   35.08	 -896.08	   18.60
     89.3351	   40.00	   37.26	 -891.26	   18.60
     89.3685	   47.00	   40.32	 -887.32	   18.60
     89.4019	   52.00	   44.86	 -886.86	   18.60
     89.4353	   40.00	   51.79	 -905.79	   18.59
     89.4688	   55.00	   62.37	 -901.37	   18.59
     89.5022	   63.00	   77.90	 -908.90	   18.59
     89.5356	   92.00	   98.92	 -900.92	   18.59
     89.5690	  141.00	  122.89	 -875.89	   18.58
     89.6024	  186.00	  140.27	 -848.27	   18.58
     89.6359	  124.00	  139.05	 -909.05	   18.58
     89.6693	  113.00	  121.61	 -902.61	   18.58
     89.7027	   97.00	  101.29	 -898.29	   18.57
     89.7361	   79.00	   86.39	 -901.39	   18.57
     89.7695	   67.00	   79.12	 -906.12	   18.57
     89.8030	   73.00	   79.11	 -900.11	   18.57
     89.8364	   83.00	   84.54	 -895.54	   18.56
     89.8698	   91.00	   90.90	 -893.90	   18.56
     89.9032	   99.00	   90.99	 -885.99	   18.56
     89.9367	   71.00	   82.05	 -905.05	   18.56
     89.9701	   73.00	   69.29	 -890.29	   18.56
     90.0035	   53.00	   57.79	 -898.79	   18.55
     90.0369	   56.00	   49.16	 -887.16	   18.55
     90.0703	   34.00	   43.20	 -903.20	   18.55
     90.1038	   41.00	   39.25	 -892.25	   18.55
     90.1372	   40.00	   36.66	 -890.66	   18.54
     90.1706	   41.00	   34.94	 -887.94	   18.54
     90.2040	   40.00	   33.77	 -887.77	   18.54
     90.2375	   34.00	   32.97	 -892.97	   18.54
     90.2709	   35.00	   32.43	 -891.43	   18.53
     90.3043	   38.00	   32.12	 -888.12	   18.53
     90.3377	   35.00	   32.00	 -891.00	   18.53
     90.3712	   46.00	   32.07	 -880.07	   18.53
     90.4046	   41.00	   32.34	 -885.34	   18.53
     90.4380	   39.00	   32.85	 -887.85	   18.52
     90.4714	   32.00	   33.69	 -895.69	   18.52
     90.5048	   35.00	   35.00	 -894.00	   18.52
     90.5383	   45.00	   37.05	 -886.05	   18.52
     90.5717	   47.00	   40.28	 -887.28	   18.51
     90.6051	   43.00	   45.33	 -896.33	   18.51
     90.6385	   50.00	   52.90	 -896.90	   18.51
     90.6720	   63.00	   63.47	 -894.47	   18.51
     90.7054	   75.00	   76.31	 -895.31	   18.51
     90.7388	  119.00	   87.45	 -862.45	   18.50
     90.7722	  102.00	   90.00	 -882.00	   18.50
     90.8056	   93.00	   82.33	 -883.33	   18.50
     90.8391	   95.00	   70.89	 -869.89	   18.50
     90.8725	   56.00	   61.40	 -899.40	   18.50
     90.9059	   56.00	   55.84	 -893.84	   18.49
     90.9393	   36.00	   54.34	 -912.34	   18.49
     90.9728	   51.00	   56.25	 -899.25	   18.49
     91.0062	   57.00	   59.94	 -896.94	   18.49
     91.0396	   79.00	   62.05	 -877.05	   18.49
     91.0730	   63.00	   59.28	 -890.28	   18.48
     91.1064	   55.00	   52.80	 -891.80	   18.48
     91.1399	   35.00	   45.91	 -904.91	   18.48
     91.1733	   43.00	   40.33	 -891.33	   18.48
     91.2067	   45.00	   36.29	 -885.29	   18.48
     91.2401	   32.00	   33.52	 -895.52	   18.47
     91.2736	   33.00	   31.66	 -892.66	   18.47
     91.3070	   27.00	   30.38	 -897.38	   18.47
     91.3404	   33.00	   29.50	 -890.50	   18.47
     91.3738	   34.00	   28.82	 -888.82	   18.47
     91.4073	   37.00	   28.29	 -885.29	   18.46
     91.4407	   31.00	   27.86	 -890.86	   18.46
     91.4741	   32.00	   27.51	 -889.51	   18.46
     91.5075	   26.00	   27.23	 -895.23	   18.46
     91.5409	   35.00	   26.98	 -885.98	   18.46
     91.5744	   38.00	   26.78	 -882.78	   18.46
     91.6078	   33.00	   26.60	 -887.60	   18.45
     91.6412	   25.00	   26.45	 -895.45	   18.45
     91.6746	   32.00	   26.31	 -888.31	   18.45
     91.7081	   34.00	   26.19	 -886.19	   18.45
     91.7415	   24.00	   26.09	 -896.09	   18.45
     91.7749	   34.00	   26.03	 -886.03	   18.44
     91.8083	   28.00	   25.95	 -891.95	   18.44
     91.8418	   22.00	   25.87	 -897.87	   18.44
     91.8752	   28.00	   25.81	 -891.81	   18.44
     91.9086	   25.00	   25.75	 -894.75	   18.44
     91.9420	   23.00	   25.69	 -896.69	   18.44
     91.9754	   30.00	   25.64	 -889.64	   18.43
     92.0089	   31.00	   25.60	 -888.60	   18.43
     92.0423	   25.00	   25.55	 -894.55	   18.43
     92.0757	   32.00	   25.54	 -887.54	   18.43
     92.1091	   23.00	   25.50	 -896.50	   18.43
     92.1425	   22.00	   25.47	 -897.47	   18.43
     92.1760	   37.00	   25.44	 -882.44	   18.43
     92.2094	   28.00	   25.41	 -891.41	   18.42
     92.2428	   30.00	   25.39	 -889.39	   18.42
     92.2762	   17.00	   25.36	 -902.36	   18.42
     92.3097	   30.00	   25.34	 -889.34	   18.42
     92.3431	   22.00	   25.32	 -897.32	   18.42
     92.3765	   21.00	   25.31	 -898.31	   18.42
     92.4099	   23.00	   25.29	 -896.29	   18.41
     92.4433	   30.00	   25.27	 -889.27	   18.41
     92.4768	   24.00	   25.26	 -895.26	   18.41
     92.5102	   23.00	   25.25	 -896.25	   18.41
     92.5436	   19.00	   25.24	 -900.24	   18.41
     92.5770	   26.00	   25.23	 -893.23	   18.41
     92.6105	   24.00	   25.22	 -895.22	   18.41
     92.6439	   20.00	   25.21	 -899.21	   18.40
     92.6773	   21.00	   25.20	 -898.20	   18.40
     92.7107	   28.00	   25.20	 -891.20	   18.40
     92.7442	   27.00	   25.19	 -892.19	   18.40
     92.7776	   33.00	   25.19	 -886.19	   18.40
     92.8110	   23.00	   25.19	 -896.19	   18.40
     92.8444	   22.00	   25.19	 -897.19	   18.40
     92.8778	   28.00	   25.21	 -891.21	   18.39
     92.9113	   22.00	   25.21	 -897.21	   18.39
     92.9447	   25.00	   25.22	 -894.22	   18.39
     92.9781	   19.00	   25.23	 -900.23	   18.39
     93.0115	   23.00	   25.25	 -896.25	   18.39
     93.0450	   26.00	   25.27	 -893.27	   18.39
     93.0784	   33.00	   25.31	 -886.31	   18.39
     93.1118	   35.00	   25.36	 -884.36	   18.39
     93.1452	   22.00	   25.43	 -897.43	   18.38
     93.1786	   33.00	   25.50	 -886.50	   18.38
     93.2121	   28.00	   25.54	 -891.54	   18.38
     93.2455	   27.00	   25.52	 -892.52	   18.38
     93.2789	   27.00	   25.47	 -892.47	   18.38
     93.3123	   31.00	   25.43	 -888.43	   18.38
     93.3458	   23.00	   25.40	 -896.40	   18.38
     93.3792	   39.00	   25.39	 -880.39	   18.38
     93.4126	   34.00	   25.41	 -885.41	   18.37
     93.4460	   30.00	   25.43	 -889.43	   18.37
     93.4794	   34.00	   25.47	 -885.47	   18.37
     93.5129	   26.00	   25.48	 -893.48	   18.37
     93.5463	   27.00	   25.48	 -892.48	   18.37
     93.5797	   33.00	   25.40	 -886.40	   18.37
     93.6131	   25.00	   25.39	 -894.39	   18.37
     93.6466	   26.00	   25.39	 -893.39	   18.37
     93.6800	   33.00	   25.39	 -886.39	   18.37
     93.7134	   25.00	   25.41	 -894.41	   18.36
     93.7468	   24.00	   25.43	 -895.43	   18.36
     93.7803	   30.00	   25.45	 -889.45	   18.36
     93.8137	   37.00	   25.48	 -882.48	   18.36
     93.8471	   28.00	   25.49	 -891.49	   18.36
     93.8805	   31.00	   25.53	 -888.53	   18.36
     93.9139	   33.00	   25.58	 -886.58	   18.36
     93.9474	   27.00	   25.64	 -892.64	   18.36
     93.9808	   28.00	   25.71	 -891.71	   18.36
     94.0142	   24.00	   25.80	 -895.80	   18.36
     94.0476	   34.00	   25.91	 -885.91	   18.36
     94.0811	   34.00	   26.07	 -886.07	   18.35
     94.1145	   32.00	   26.28	 -888.28	   18.35
     94.1479	   40.00	   26.56	 -880.56	   18.35
     94.1813	   24.00	   26.88	 -896.88	   18.35
     94.2148	   24.00	   27.18	 -897.18	   18.35
     94.2482	   35.00	   27.31	 -886.31	   18.35
     94.2816	   27.00	   27.25	 -894.25	   18.35
     94.3150	   25.00	   27.09	 -896.09	   18.35
     94.3484	   24.00	   26.98	 -896.98	   18.35
     94.3819	   26.00	   26.94	 -894.94	   18.35
     94.4153	   35.00	   27.00	 -886.00	   18.35
     94.4487	   36.00	   27.14	 -885.14	   18.34
     94.4821	   36.00	   27.34	 -885.34	   18.34
     94.5155	   21.00	   27.57	 -900.57	   18.34
     94.5490	   40.00	   27.75	 -881.75	   18.34
     94.5824	   28.00	   27.85	 -893.85	   18.34
     94.6158	   33.00	   27.92	 -888.92	   18.34
     94.6492	   24.00	   28.03	 -898.03	   18.34
     94.6827	   33.00	   28.21	 -889.21	   18.34
     94.7161	   37.00	   28.45	 -885.45	   18.34
     94.7495	   41.00	   28.74	 -881.74	   18.34
     94.7829	   25.00	   29.14	 -898.14	   18.34
     94.8163	   31.00	   29.64	 -892.64	   18.34
     94.8498	   38.00	   30.24	 -886.24	   18.34
     94.8832	   33.00	   30.97	 -891.97	   18.34
     94.9166	   35.00	   31.87	 -890.87	   18.33
     94.9500	   36.00	   33.01	 -891.01	   18.33
     94.9835	   42.00	   34.47	 -886.47	   18.33
     95.0169	   36.00	   36.39	 -894.39	   18.33
     95.0503	   51.00	   39.05	 -882.05	   18.33
     95.0837	   34.00	   42.90	 -902.90	   18.33
     95.1172	   48.00	   48.62	 -894.62	   18.33
     95.1506	   56.00	   57.15	 -895.15	   18.33
     95.1840	   71.00	   69.50	 -892.50	   18.33
     95.2174	   83.00	   86.27	 -897.27	   18.33
     95.2508	  111.00	  106.34	 -889.34	   18.33
     95.2843	  147.00	  124.24	 -871.24	   18.33
     95.3177	  132.00	  130.15	 -892.15	   18.33
     95.3511	  128.00	  120.28	 -886.28	   18.33
     95.3845	   71.00	  102.83	 -925.83	   18.33
     95.4180	   63.00	   86.90	 -917.90	   18.33
     95.4514	   85.00	   76.31	 -885.31	   18.33
     95.4848	   65.00	   71.71	 -900.71	   18.33
     95.5182	   55.00	   72.62	 -911.62	   18.32
     95.5517	   77.00	   77.79	 -894.79	   18.32
     95.5851	  100.00	   84.33	 -878.33	   18.32
     95.6185	   91.00	   87.08	 -890.08	   18.32
     95.6519	  102.00	   82.39	 -874.39	   18.32
     95.6853	   71.00	   72.90	 -895.90	   18.32
     95.7188	   83.00	   63.32	 -874.32	   18.32
     95.7522	   49.00	   55.99	 -900.99	   18.32
     95.7856	   66.00	   51.35	 -879.35	   18.32
     95.8190	   60.00	   49.26	 -883.26	   18.32
     95.8524	   50.00	   49.59	 -893.59	   18.32
     95.8859	   49.00	   52.45	 -897.45	   18.32
     95.9193	   50.00	   58.23	 -902.23	   18.32
     95.9527	   68.00	   67.35	 -893.35	   18.32
     95.9861	   75.00	   79.76	 -898.76	   18.32
     96.0196	  124.00	   93.46	 -863.46	   18.32
     96.0530	  110.00	  102.78	 -886.78	   18.32
     96.0864	  124.00	  101.30	 -871.30	   18.32
     96.1198	  102.00	   90.45	 -882.45	   18.32
     96.1533	   75.00	   77.42	 -896.42	   18.32
     96.1867	   56.00	   67.05	 -905.05	   18.32
     96.2201	   60.00	   60.80	 -894.80	   18.32
     96.2535	   60.00	   58.71	 -892.71	   18.32
     96.2869	   68.00	   60.27	 -886.27	   18.32
     96.3204	   65.00	   64.33	 -893.33	   18.32
     96.3538	   95.00	   68.27	 -867.27	   18.32
     96.3872	   64.00	   68.26	 -898.26	   18.32
     96.4206	   62.00	   63.00	 -895.00	   18.32
     96.4541	   76.00	   55.34	 -873.34	   18.32
     96.4875	   52.00	   48.18	 -890.18	   18.32
     96.5209	   50.00	   42.60	 -886.60	   18.32
     96.5543	   32.00	   38.60	 -900.60	   18.32
     96.5877	   39.00	   35.87	 -890.87	   18.32
     96.6212	   38.00	   34.04	 -890.04	   18.32
     96.6546	   38.00	   32.81	 -888.81	   18.32
     96.6880	   42.00	   31.98	 -883.98	   18.32
     96.7214	   39.00	   31.43	 -886.43	   18.32
     96.7549	   38.00	   31.08	 -887.08	   18.32
     96.7883	   40.00	   30.89	 -884.89	   18.32
     96.8217	   34.00	   30.87	 -890.87	   18.32
     96.8551	   38.00	   31.00	 -887.00	   18.32
     96.8885	   36.00	   31.33	 -889.33	   18.32
     96.9220	   40.00	   31.90	 -885.90	   18.32
     96.9554	   33.00	   32.81	 -893.81	   18.32
     96.9888	   43.00	   34.25	 -885.25	   18.32
     97.0222	   45.00	   36.50	 -885.50	   18.32
     97.0557	   38.00	   39.93	 -895.93	   18.32
     97.0891	   43.00	   44.95	 -895.95	   18.32
     97.1225	   43.00	   51.83	 -902.83	   18.32
     97.1559	   48.00	   60.15	 -906.15	   18.32
     97.1893	   71.00	   67.78	 -890.78	   18.32
     97.2228	   84.00	   70.67	 -880.67	   18.32
     97.2562	   75.00	   66.87	 -885.87	   18.32
     97.2896	   55.00	   59.45	 -898.45	   18.32
     97.3230	   40.00	   52.30	 -906.30	   18.32
     97.3565	   47.00	   47.22	 -894.22	   18.32
     97.3899	   41.00	   44.59	 -897.59	   18.32
     97.4233	   56.00	   44.26	 -882.26	   18.32
     97.4567	   37.00	   45.87	 -902.87	   18.32
     97.4902	   47.00	   48.53	 -895.53	   18.32
     97.5236	   49.00	   50.44	 -895.44	   18.32
     97.5570	   43.00	   49.52	 -900.52	   18.32
     97.5904	   54.00	   45.80	 -885.80	   18.32
     97.6238	   41.00	   41.22	 -894.22	   18.32
     97.6573	   30.00	   37.18	 -901.18	   18.32
     97.6907	   30.00	   34.09	 -898.09	   18.32
     97.7241	   33.00	   31.88	 -892.88	   18.32
     97.7575	   22.00	   30.35	 -902.35	   18.32
     97.7910	   39.00	   29.29	 -884.29	   18.32
     97.8244	   33.00	   28.55	 -889.55	   18.32
     97.8578	   25.00	   28.01	 -897.01	   18.32
     97.8912	   22.00	   27.60	 -899.60	   18.32
     97.9247	   33.00	   27.28	 -888.28	   18.32
     97.9581	   30.00	   27.04	 -891.04	   18.32
     97.9915	   24.00	   26.86	 -896.86	   18.32
     98.0249	   32.00	   26.75	 -888.75	   18.32
     98.0583	   17.00	   26.69	 -903.69	   18.32
     98.0918	   23.00	   26.70	 -897.70	   18.32
     98.1252	   23.00	   26.77	 -897.77	   18.32
     98.1586	   30.00	   26.85	 -890.85	   18.32
     98.1920	   21.00	   26.86	 -899.86	   18.32
     98.2254	   21.00	   26.74	 -899.74	   18.32
     98.2589	   32.00	   26.53	 -888.53	   18.32
     98.2923	   39.00	   26.32	 -881.32	   18.32
     98.3257	   17.00	   26.17	 -903.17	   18.32
     98.3591	   33.00	   26.09	 -887.09	   18.33
     98.3926	   28.00	   26.09	 -892.09	   18.33
     98.4260	   25.00	   26.17	 -895.17	   18.33
     98.4594	   24.00	   26.33	 -896.33	   18.33
     98.4928	   31.00	   26.52	 -889.52	   18.33
     98.5262	   30.00	   26.64	 -890.64	   18.33
     98.5597	   37.00	   26.60	 -883.60	   18.33
     98.5931	   27.00	   26.40	 -893.40	   18.33
     98.6265	   32.00	   26.12	 -888.12	   18.33
     98.6599	   21.00	   25.88	 -898.88	   18.33
     98.6934	   28.00	   25.69	 -891.69	   18.33
     98.7268	   28.00	   25.58	 -891.58	   18.33
     98.7602	   23.00	   25.52	 -896.52	   18.33
     98.7936	   26.00	   25.51	 -893.51	   18.33
     98.8271	   30.00	   25.53	 -889.53	   18.33
     98.8605	   26.00	   25.55	 -893.55	   18.33
     98.8939	   26.00	   25.52	 -893.52	   18.33
     98.9273	   16.00	   25.43	 -903.43	   18.33
     98.9607	   20.00	   25.32	 -899.32	   18.33
     98.9942	   21.00	   25.22	 -898.22	   18.34
     99.0276	   30.00	   25.14	 -889.14	   18.34
     99.0610	   21.00	   25.08	 -898.08	   18.34
     99.0944	   24.00	   25.03	 -895.03	   18.34
     99.1279	   25.00	   24.99	 -893.99	   18.34
     99.1613	   31.00	   24.97	 -887.97	   18.34
     99.1947	   27.00	   24.95	 -891.95	   18.34
     99.2281	   23.00	   24.93	 -895.93	   18.34
     99.2616	   17.00	   24.91	 -901.91	   18.34
     99.2950	   26.00	   24.90	 -892.90	   18.34
     99.3284	   32.00	   24.89	 -886.89	   18.34
     99.3618	   23.00	   24.89	 -895.89	   18.34
     99.3952	   24.00	   24.88	 -894.88	   18.34
     99.4287	   22.00	   24.88	 -896.88	   18.34
     99.4621	   28.00	   24.88	 -890.88	   18.35
     99.4955	   31.00	   24.84	 -887.84	   18.35
     99.5289	   28.00	   24.86	 -890.86	   18.35
     99.5623	   22.00	   24.90	 -896.90	   18.35
     99.5958	   30.00	   24.96	 -888.96	   18.35
     99.6292	   32.00	   25.04	 -887.04	   18.35
     99.6626	   24.00	   25.13	 -895.14	   18.35
     99.6960	   20.00	   25.23	 -899.23	   18.35
     99.7295	   19.00	   25.28	 -900.28	   18.35
     99.7629	   24.00	   25.25	 -895.25	   18.35
     99.7963	   18.00	   25.13	 -901.13	   18.35
     99.8297	   19.00	   25.03	 -900.03	   18.35
     99.8632	   21.00	   24.95	 -897.95	   18.36
     99.8966	   22.00	   24.90	 -896.90	   18.36
     99.9300	   24.00	   24.88	 -894.88	   18.36
     99.9634	   18.00	   24.89	 -900.89	   18.36
     99.9968	   37.00	   24.92	 -881.92	   18.36
     25.4040	        	        	        	        	    -223	(  1  0  1)	  0  1 :  2
     25.4673	        	        	        	        	    -223	(  1  0  1)	  0  2 :  2
     27.5310	        	        	        	        	       0	(  1  1  0)	  0  1 :  1
     27.5998	        	        	        	        	       0	(  1  1  0)	  0  2 :  1
     36.1738	        	        	        	        	       0	(  1  0  1)	  0  1 :  1
     36.2656	        	        	        	        	       0	(  1  0  1)	  0  2 :  1
     37.0138	        	        	        	        	    -223	(  1  0  3)	  0  1 :  2
     37.1079	        	        	        	        	    -223	(  1  0  3)	  0  2 :  2
     37.8250	        	        	        	        	    -223	(  0  0  4)	  0  1 :  2
     37.9213	        	        	        	        	    -223	(  0  0  4)	  0  2 :  2
     38.6562	        	        	        	        	    -223	(  1  1  2)	  0  1 :  2
     38.7548	        	        	        	        	    -223	(  1  1  2)	  0  2 :  2
     39.2809	        	        	        	        	       0	(  2  0  0)	  0  1 :  1
     39.3812	        	        	        	        	       0	(  2  0  0)	  0  2 :  1
     41.3312	        	        	        	        	       0	(  1  1  1)	  0  1 :  1
     41.4372	        	        	        	        	       0	(  1  1  1)	  0  2 :  1
     44.1318	        	        	        	        	       0	(  2  1  0)	  0  1 :  1
     44.2458	        	        	        	        	       0	(  2  1  0)	  0  2 :  1
     48.1457	        	        	        	        	    -223	(  2  0  0)	  0  1 :  2
     48.2713	        	        	        	        	    -223	(  2  0  0)	  0  2 :  2
     52.0542	        	        	        	        	    -223	(  2  0  2)	  0  1 :  2
     52.1916	        	        	        	        	    -223	(  2  0  2)	  0  2 :  2
     53.9044	        	        	        	        	    -223	(  1  0  5)	  0  1 :  2
     54.0475	        	        	        	        	    -223	(  1  0  5)	  0  2 :  2
     54.4056	        	        	        	        	       0	(  2  1  1)	  0  1 :  1
     54.5502	        	        	        	        	       0	(  2  1  1)	  0  2 :  1
     55.1664	        	        	        	        	    -223	(  2  1  1)	  0  1 :  2
     55.3134	        	        	        	        	    -223	(  2  1  1)	  0  2 :  2
     56.7081	        	        	        	        	       0	(  2  2  0)	  0  1 :  1
     56.8599	        	        	        	        	       0	(  2  2  0)	  0  2 :  1
     62.1864	        	        	        	        	    -223	(  2  1  3)	  0  1 :  2
     62.3562	        	        	        	        	    -223	(  2  1  3)	  0  2 :  2
     62.7415	        	        	        	        	    -223	(  2  0  4)	  0  1 :  2
     62.8430	        	        	        	        	       0	(  0  0  2)	  0  1 :  1
     62.9131	        	        	        	        	    -223	(  2  0  4)	  0  2 :  2
     63.0149	        	        	        	        	       0	(  0  0  2)	  0  2 :  1
     64.1252	        	        	        	        	       0	(  3  1  0)	  0  1 :  1
     64.3015	        	        	        	        	       0	(  3  1  0)	  0  2 :  1
     65.5881	        	        	        	        	       0	(  2  2  1)	  0  1 :  1
     65.7695	        	        	        	        	       0	(  2  2  1)	  0  2 :  1
     68.7521	        	        	        	        	    -223	(  1  1  6)	  0  1 :  2
     68.9446	        	        	        	        	    -223	(  1  1  6)	  0  2 :  2
     69.0802	        	        	        	        	       0	(  3  0  1)	  0  1 :  1
     69.2739	        	        	        	        	       0	(  3  0  1)	  0  2 :  1
     69.8816	        	        	        	        	       0	(  1  1  2)	  0  1 :  1
     70.0783	        	        	        	        	       0	(  1  1  2)	  0  2 :  1
     70.3962	        	        	        	        	    -223	(  2  2  0)	  0  1 :  2
     70.5947	        	        	        	        	    -223	(  2  2  0)	  0  2 :  2
     72.4922	        	        	        	        	       0	(  3  1  1)	  0  1 :  1
     72.6986	        	        	        	        	       0	(  3  1  1)	  0  2 :  1
     74.0136	        	        	        	        	    -223	(  1  0  7)	  0  1 :  2
     74.2258	        	        	        	        	    -223	(  1  0  7)	  0  2 :  2
     74.4712	        	        	        	        	       0	(  3  2  0)	  0  1 :  1
     74.6852	        	        	        	        	       0	(  3  2  0)	  0  2 :  1
     75.0790	        	        	        	        	    -223	(  2  1  5)	  0  1 :  2
     75.2954	        	        	        	        	    -223	(  2  1  5)	  0  2 :  2
     76.1392	        	        	        	        	    -223	(  3  0  1)	  0  1 :  2
     76.3597	        	        	        	        	    -223	(  3  0  1)	  0  2 :  2
     76.6133	        	        	        	        	       0	(  2  0  2)	  0  1 :  1
     76.8357	        	        	        	        	       0	(  2  0  2)	  0  2 :  1
     78.6594	        	        	        	        	    -223	(  2  0  6)	  0  1 :  2
     78.8902	        	        	        	        	    -223	(  2  0  6)	  0  2 :  2
     79.9032	        	        	        	        	       0	(  2  1  2)	  0  1 :  1
     80.1391	        	        	        	        	       0	(  2  1  2)	  0  2 :  1
     80.6594	        	        	        	        	    -223	(  0  0  8)	  0  1 :  2
     80.8985	        	        	        	        	    -223	(  0  0  8)	  0  2 :  2
     82.2385	        	        	        	        	    -223	(  3  0  3)	  0  1 :  2
     82.4032	        	        	        	        	       0	(  3  2  1)	  0  1 :  1
     82.4844	        	        	        	        	    -223	(  3  0  3)	  0  2 :  2
     82.6497	        	        	        	        	       0	(  3  2  1)	  0  2 :  1
     82.7346	        	        	        	        	    -223	(  2  2  4)	  0  1 :  2
     82.9826	        	        	        	        	    -223	(  2  2  4)	  0  2 :  2
     83.2518	        	        	        	        	    -223	(  3  1  2)	  0  1 :  2
     83.5021	        	        	        	        	    -223	(  3  1  2)	  0  2 :  2
     84.3127	        	        	        	        	       0	(  4  0  0)	  0  1 :  1
     84.5677	        	        	        	        	       0	(  4  0  0)	  0  2 :  1
     87.5412	        	        	        	        	       0	(  4  1  0)	  0  1 :  1
     87.8110	        	        	        	        	       0	(  4  1  0)	  0  2 :  1
     89.6152	        	        	        	        	       0	(  2  2  2)	  0  1 :  1
     89.8951	        	        	        	        	       0	(  2  2  2)	  0  2 :  1
     90.7615	        	        	        	        	       0	(  3  3  0)	  0  1 :  1
     91.0470	        	        	        	        	       0	(  3  3  0)	  0  2 :  1
     92.2481	        	        	        	        	    -223	(  3  1  4)	  0  1 :  2
     92.5411	        	        	        	        	    -223	(  3  1  4)	  0  2 :  2
     93.2109	        	        	        	        	    -223	(  2  1  7)	  0  1 :  2
     93.5090	        	        	        	        	    -223	(  2  1  7)	  0  2 :  2
     94.2395	        	        	        	        	    -223	(  3  0  5)	  0  1 :  2
     94.5429	        	        	        	        	    -223	(  3  0  5)	  0  2 :  2
     95.2693	        	        	        	        	    -223	(  3  2  1)	  0  1 :  2
     95.3113	        	        	        	        	       0	(  4  1  1)	  0  1 :  1
     95.5783	        	        	        	        	    -223	(  3  2  1)	  0  2 :  2
     95.6206	        	        	        	        	       0	(  4  1  1)	  0  2 :  1
     96.0650	        	        	        	        	       0	(  3  1  2)	  0  1 :  1
     96.3784	        	        	        	        	       0	(  3  1  2)	  0  2 :  1
     97.2188	        	        	        	        	       0	(  4  2  0)	  0  1 :  1
     97.5386	        	        	        	        	       0	(  4  2  0)	  0  2 :  1
     98.1964	        	        	        	        	    -223	(  1  0  9)	  0  1 :  2
     98.5544	        	        	        	        	       0	(  3  3  1)	  0  1 :  1
     98.5218	        	        	        	        	    -223	(  1  0  9)	  0  2 :  2
     98.8818	        	        	        	        	       0	(  3  3  1)	  0  2 :  1
     99.7330	        	        	        	        	    -223	(  2  0  8)	  0  1 :  2
    100.0673	        	        	        	        	    -223	(  2  0  8)	  0  2 :  2
    101.3205	        	        	        	        	    -223	(  3  2  3)	  0  1 :  2
    101.6645	        	        	        	        	    -223	(  3  2  3)	  0  2 :  2
    105.1351	        	        	        	        	       0	(  4  2  1)	  0  1 :  1
    105.5035	        	        	        	        	       0	(  4  2  1)	  0  2 :  1
    105.9133	        	        	        	        	       0	(  3  2  2)	  0  1 :  1
    106.0973	        	        	        	        	       0	(  1  0  3)	  0  1 :  1
    106.2869	        	        	        	        	       0	(  3  2  2)	  0  2 :  1
    106.4722	        	        	        	        	       0	(  1  0  3)	  0  2 :  1
    107.4796	        	        	        	        	    -223	(  3  1  6)	  0  1 :  2
    107.8642	        	        	        	        	    -223	(  3  1  6)	  0  2 :  2
    109.1006	        	        	        	        	    -223	(  4  0  0)	  0  1 :  2
    109.4968	        	        	        	        	    -223	(  4  0  0)	  0  2 :  2
    109.4774	        	        	        	        	       0	(  1  1  3)	  0  1 :  1
