 Fe3O4   Chi2:  1.7899  CELL:    8.39629   8.39629   8.39629   90.0000   90.0000   90.0000   SPGR: 227:2                  TEMP:      0.00
  1   2693     1.54060     1.54439     0.00000    -0.00980     0.00000    0
    60     0     1
       0.00000      15.00000
 2Theta	Yobs	Ycal	Yobs-Ycal	Backg	Posr	(hkl)	K
     10.0167	  203.00	  131.92	 -470.00	  129.51
     10.0501	  209.00	  131.64	 -470.00	  129.23
     10.0836	  210.00	  131.36	 -470.00	  128.95
     10.1170	  202.00	  131.08	 -470.00	  128.67
     10.1504	  199.00	  130.80	 -470.00	  128.39
     10.1838	  208.00	  130.52	 -470.00	  128.12
     10.2172	  206.00	  130.24	 -470.00	  127.84
     10.2507	  211.00	  129.97	 -470.00	  127.56
     10.2841	  199.00	  129.69	 -470.00	  127.28
     10.3175	  194.00	  129.41	 -470.00	  127.01
     10.3509	  190.00	  129.14	 -470.00	  126.73
     10.3844	  199.00	  128.86	 -470.00	  126.45
     10.4178	  199.00	  128.58	 -470.00	  126.18
     10.4512	  190.00	  128.31	 -470.00	  125.90
     10.4846	  182.00	  128.04	 -470.00	  125.63
     10.5180	  167.00	  127.76	 -470.00	  125.35
     10.5515	  186.00	  127.49	 -470.00	  125.08
     10.5849	  180.00	  127.21	 -470.00	  124.81
     10.6183	  186.00	  126.94	 -470.00	  124.54
     10.6517	  177.00	  126.67	 -470.00	  124.26
     10.6852	  176.00	  126.40	 -470.00	  123.99
     10.7186	  176.00	  126.13	 -470.00	  123.72
     10.7520	  186.00	  125.86	 -470.00	  123.45
     10.7854	  189.00	  125.59	 -470.00	  123.18
     10.8189	  199.00	  125.32	 -470.00	  122.91
     10.8523	  181.00	  125.05	 -470.00	  122.64
     10.8857	  162.00	  124.78	 -470.00	  122.37
     10.9191	  184.00	  124.51	 -470.00	  122.11
     10.9525	  163.00	  124.24	 -470.00	  121.84
     10.9860	  180.00	  123.98	 -470.00	  121.57
     11.0194	  159.00	  123.71	 -470.00	  121.30
     11.0528	  173.00	  123.44	 -470.00	  121.04
     11.0862	  184.00	  123.18	 -470.00	  120.77
     11.1197	  176.00	  122.91	 -470.00	  120.51
     11.1531	  188.00	  122.65	 -470.00	  120.24
     11.1865	  140.00	  122.38	 -470.00	  119.98
     11.2199	  169.00	  122.12	 -470.00	  119.71
     11.2533	  180.00	  121.86	 -470.00	  119.45
     11.2868	  148.00	  121.59	 -470.00	  119.19
     11.3202	  156.00	  121.33	 -470.00	  118.93
     11.3536	  184.00	  121.07	 -470.00	  118.66
     11.3870	  171.00	  120.81	 -470.00	  118.40
     11.4205	  178.00	  120.55	 -470.00	  118.14
     11.4539	  162.00	  120.29	 -470.00	  117.88
     11.4873	  155.00	  120.03	 -470.00	  117.62
     11.5207	  157.00	  119.77	 -470.00	  117.36
     11.5541	  130.00	  119.51	 -470.00	  117.10
     11.5876	  142.00	  119.25	 -470.00	  116.84
     11.6210	  170.00	  118.99	 -470.00	  116.58
     11.6544	  157.00	  118.73	 -470.00	  116.33
     11.6878	  153.00	  118.48	 -470.00	  116.07
     11.7213	  169.00	  118.22	 -470.00	  115.81
     11.7547	  146.00	  117.96	 -470.00	  115.56
     11.7881	  145.00	  117.71	 -470.00	  115.30
     11.8215	  161.00	  117.45	 -470.00	  115.05
     11.8550	  153.00	  117.20	 -470.00	  114.79
     11.8884	  146.00	  116.94	 -470.00	  114.54
     11.9218	  145.00	  116.69	 -470.00	  114.28
     11.9552	  148.00	  116.43	 -470.00	  114.03
     11.9886	  156.00	  116.18	 -470.00	  113.77
     12.0221	  161.00	  115.93	 -470.00	  113.52
     12.0555	  140.00	  115.68	 -470.00	  113.27
     12.0889	  172.00	  115.42	 -470.00	  113.02
     12.1223	  154.00	  115.17	 -470.00	  112.77
     12.1558	  142.00	  114.92	 -470.00	  112.52
     12.1892	  125.00	  114.67	 -470.00	  112.27
     12.2226	  140.00	  114.42	 -470.00	  112.02
     12.2560	  133.00	  114.17	 -470.00	  111.77
     12.2894	  153.00	  113.92	 -470.00	  111.52
     12.3229	  168.00	  113.68	 -470.00	  111.27
     12.3563	  144.00	  113.43	 -470.00	  111.02
     12.3897	  138.00	  113.18	 -470.00	  110.77
     12.4231	  132.00	  112.93	 -470.00	  110.53
     12.4566	  151.00	  112.69	 -470.00	  110.28
     12.4900	  115.00	  112.44	 -470.00	  110.03
     12.5234	  117.00	  112.19	 -470.00	  109.79
     12.5568	  124.00	  111.95	 -470.00	  109.54
     12.5902	  148.00	  111.70	 -470.00	  109.30
     12.6237	  138.00	  111.46	 -470.00	  109.05
     12.6571	  137.00	  111.22	 -470.00	  108.81
     12.6905	  151.00	  110.97	 -470.00	  108.57
     12.7239	  129.00	  110.73	 -470.00	  108.32
     12.7574	  144.00	  110.49	 -470.00	  108.08
     12.7908	  148.00	  110.24	 -470.00	  107.84
     12.8242	  124.00	  110.00	 -470.00	  107.60
     12.8576	  138.00	  109.76	 -470.00	  107.35
     12.8910	  119.00	  109.52	 -470.00	  107.11
     12.9245	  118.00	  109.28	 -470.00	  106.87
     12.9579	  115.00	  109.04	 -470.00	  106.63
     12.9913	  136.00	  108.80	 -470.00	  106.39
     13.0247	  133.00	  108.56	 -470.00	  106.15
     13.0582	  136.00	  108.32	 -470.00	  105.92
     13.0916	  128.00	  108.08	 -470.00	  105.68
     13.1250	  141.00	  107.85	 -470.00	  105.44
     13.1584	  132.00	  107.61	 -470.00	  105.20
     13.1919	  143.00	  107.37	 -470.00	  104.97
     13.2253	  110.00	  107.14	 -470.00	  104.73
     13.2587	  102.00	  106.90	 -470.00	  104.49
     13.2921	  143.00	  106.66	 -470.00	  104.26
     13.3255	  123.00	  106.43	 -470.00	  104.02
     13.3590	  127.00	  106.19	 -470.00	  103.79
     13.3924	  108.00	  105.96	 -470.00	  103.55
     13.4258	  123.00	  105.73	 -470.00	  103.32
     13.4592	  138.00	  105.49	 -470.00	  103.09
     13.4927	  112.00	  105.26	 -470.00	  102.85
     13.5261	  137.00	  105.03	 -470.00	  102.62
     13.5595	  115.00	  104.80	 -470.00	  102.39
     13.5929	  108.00	  104.56	 -470.00	  102.16
     13.6263	  123.00	  104.33	 -470.00	  101.93
     13.6598	  105.00	  104.10	 -470.00	  101.70
     13.6932	  119.00	  103.87	 -470.00	  101.47
     13.7266	  117.00	  103.64	 -470.00	  101.24
     13.7600	  114.00	  103.41	 -470.00	  101.01
     13.7935	  126.00	  103.18	 -470.00	  100.78
     13.8269	  126.00	  102.95	 -470.00	  100.55
     13.8603	  114.00	  102.73	 -470.00	  100.32
     13.8937	  136.00	  102.50	 -470.00	  100.09
     13.9271	  128.00	  102.27	 -470.00	   99.87
     13.9606	  101.00	  102.04	 -470.00	   99.64
     13.9940	  136.00	  101.82	 -470.00	   99.41
     14.0274	  129.00	  101.59	 -470.00	   99.19
     14.0608	  101.00	  101.37	 -470.00	   98.96
     14.0943	  117.00	  101.14	 -470.00	   98.74
     14.1277	  125.00	  100.92	 -470.00	   98.51
     14.1611	  106.00	  100.69	 -470.00	   98.29
     14.1945	  108.00	  100.47	 -470.00	   98.06
     14.2280	  109.00	  100.25	 -470.00	   97.84
     14.2614	   90.00	  100.02	 -470.00	   97.62
     14.2948	  119.00	   99.80	 -470.00	   97.39
     14.3282	  115.00	   99.58	 -470.00	   97.17
     14.3616	  122.00	   99.36	 -470.00	   96.95
     14.3951	  121.00	   99.13	 -470.00	   96.73
     14.4285	  103.00	   98.91	 -470.00	   96.51
     14.4619	  125.00	   98.69	 -470.00	   96.29
     14.4953	  111.00	   98.47	 -470.00	   96.07
     14.5288	  121.00	   98.25	 -470.00	   95.85
     14.5622	  112.00	   98.03	 -470.00	   95.63
     14.5956	  132.00	   97.82	 -470.00	   95.41
     14.6290	   87.00	   97.60	 -470.00	   95.19
     14.6624	  113.00	   97.38	 -470.00	   94.97
     14.6959	  118.00	   97.16	 -470.00	   94.75
     14.7293	  124.00	   96.94	 -470.00	   94.54
     14.7627	  154.00	   96.73	 -470.00	   94.32
     14.7961	  102.00	   96.51	 -470.00	   94.10
     14.8296	   90.00	   96.29	 -470.00	   93.89
     14.8630	  106.00	   96.08	 -470.00	   93.67
     14.8964	  110.00	   95.86	 -470.00	   93.46
     14.9298	  121.00	   95.65	 -470.00	   93.24
     14.9632	  115.00	   95.44	 -470.00	   93.03
     14.9967	  108.00	   95.22	 -470.00	   92.82
     15.0301	  137.00	   95.01	 -428.01	   92.60
     15.0635	  108.00	   94.80	 -456.80	   92.39
     15.0969	  115.00	   94.58	 -449.58	   92.18
     15.1304	  110.00	   94.37	 -454.37	   91.96
     15.1638	  109.00	   94.16	 -455.16	   91.75
     15.1972	   98.00	   93.95	 -465.95	   91.54
     15.2306	  113.00	   93.76	 -450.76	   91.33
     15.2640	  109.00	   93.56	 -454.56	   91.12
     15.2975	   95.00	   93.35	 -468.35	   90.91
     15.3309	  110.00	   93.14	 -453.14	   90.70
     15.3643	  112.00	   92.93	 -450.93	   90.49
     15.3977	  119.00	   92.72	 -443.72	   90.28
     15.4312	  130.00	   92.52	 -432.52	   90.07
     15.4646	  100.00	   92.31	 -462.31	   89.86
     15.4980	  117.00	   92.10	 -445.10	   89.66
     15.5314	   91.00	   91.90	 -470.90	   89.45
     15.5649	   99.00	   91.69	 -462.69	   89.24
     15.5983	  103.00	   91.48	 -458.48	   89.04
     15.6317	   91.00	   91.28	 -470.28	   88.83
     15.6651	   84.00	   91.07	 -477.07	   88.62
     15.6985	  104.00	   90.87	 -456.87	   88.42
     15.7320	   82.00	   90.67	 -478.67	   88.21
     15.7654	   91.00	   90.46	 -469.46	   88.01
     15.7988	   95.00	   90.26	 -465.26	   87.81
     15.8322	  111.00	   90.06	 -449.06	   87.60
     15.8657	  113.00	   89.86	 -446.86	   87.40
     15.8991	   92.00	   89.65	 -467.65	   87.20
     15.9325	   99.00	   89.45	 -460.45	   86.99
     15.9659	   85.00	   89.25	 -474.25	   86.79
     15.9993	   81.00	   89.05	 -478.05	   86.59
     16.0328	   79.00	   88.85	 -479.85	   86.39
     16.0662	  100.00	   88.65	 -458.65	   86.19
     16.0996	   92.00	   88.46	 -466.46	   85.99
     16.1330	   91.00	   88.26	 -467.26	   85.79
     16.1665	   75.00	   88.06	 -483.06	   85.59
     16.1999	   95.00	   87.86	 -462.86	   85.39
     16.2333	  118.00	   87.67	 -439.67	   85.19
     16.2667	  111.00	   87.47	 -446.47	   84.99
     16.3001	  100.00	   87.27	 -457.27	   84.79
     16.3336	   96.00	   87.08	 -461.08	   84.60
     16.3670	   99.00	   86.88	 -457.88	   84.40
     16.4004	   92.00	   86.69	 -464.69	   84.20
     16.4338	   91.00	   86.50	 -465.50	   84.00
     16.4673	  103.00	   86.30	 -453.30	   83.81
     16.5007	   88.00	   86.11	 -468.11	   83.61
     16.5341	   76.00	   85.92	 -479.92	   83.42
     16.5675	   99.00	   85.73	 -456.73	   83.22
     16.6010	   85.00	   85.54	 -470.54	   83.03
     16.6344	   88.00	   85.35	 -467.35	   82.83
     16.6678	   78.00	   85.16	 -477.16	   82.64
     16.7012	   94.00	   84.97	 -460.97	   82.45
     16.7346	   88.00	   84.78	 -466.78	   82.25
     16.7681	   84.00	   84.59	 -470.59	   82.06
     16.8015	   78.00	   84.41	 -476.41	   81.87
     16.8349	   83.00	   84.22	 -471.22	   81.68
     16.8683	   94.00	   84.04	 -460.04	   81.48
     16.9018	   97.00	   83.85	 -456.85	   81.29
     16.9352	   76.00	   83.67	 -477.67	   81.10
     16.9686	   79.00	   83.49	 -474.49	   80.91
     17.0020	   69.00	   83.31	 -484.31	   80.72
     17.0354	  102.00	   83.13	 -451.13	   80.53
     17.0689	   82.00	   82.95	 -470.95	   80.34
     17.1023	   82.00	   82.77	 -470.77	   80.15
     17.1357	   86.00	   82.59	 -466.59	   79.97
     17.1691	  100.00	   82.42	 -452.42	   79.78
     17.2026	   85.00	   82.25	 -467.25	   79.59
     17.2360	   96.00	   82.08	 -456.08	   79.40
     17.2694	   84.00	   81.91	 -467.91	   79.22
     17.3028	   73.00	   81.74	 -478.74	   79.03
     17.3362	   87.00	   81.57	 -464.57	   78.84
     17.3697	   94.00	   81.41	 -457.41	   78.66
     17.4031	   96.00	   81.25	 -455.25	   78.47
     17.4365	  105.00	   81.10	 -446.10	   78.29
     17.4699	   85.00	   80.95	 -465.95	   78.10
     17.5034	   85.00	   80.80	 -465.80	   77.92
     17.5368	   99.00	   80.66	 -451.66	   77.73
     17.5702	  111.00	   80.52	 -439.52	   77.55
     17.6036	   91.00	   80.40	 -459.40	   77.37
     17.6371	  100.00	   80.28	 -450.28	   77.18
     17.6705	   89.00	   80.17	 -461.17	   77.00
     17.7039	   83.00	   80.08	 -467.08	   76.82
     17.7373	   88.00	   80.00	 -462.00	   76.64
     17.7707	   92.00	   79.95	 -457.95	   76.46
     17.8042	   85.00	   79.92	 -464.92	   76.28
     17.8376	   87.00	   79.92	 -462.92	   76.10
     17.8710	   87.00	   79.97	 -462.97	   75.91
     17.9044	   77.00	   80.09	 -473.09	   75.74
     17.9379	  105.00	   80.28	 -445.28	   75.56
     17.9713	   90.00	   80.60	 -460.60	   75.38
     18.0047	   84.00	   81.09	 -467.09	   75.20
     18.0381	  100.00	   81.85	 -451.85	   75.02
     18.0715	   85.00	   83.08	 -468.08	   74.84
     18.1050	   96.00	   85.47	 -459.47	   74.66
     18.1384	   94.00	   91.36	 -467.36	   74.49
     18.1718	  108.00	  106.86	 -468.86	   74.31
     18.2052	  127.00	  140.92	 -483.92	   74.13
     18.2387	  170.00	  194.63	 -494.63	   73.96
     18.2721	  208.00	  242.90	 -504.90	   73.78
     18.3055	  222.00	  244.40	 -492.40	   73.61
     18.3389	  156.00	  201.76	 -515.76	   73.43
     18.3723	  132.00	  148.38	 -486.38	   73.26
     18.4058	   92.00	  111.04	 -489.04	   73.08
     18.4392	   90.00	   92.32	 -472.32	   72.91
     18.4726	   91.00	   84.54	 -463.54	   72.73
     18.5060	   91.00	   81.23	 -460.23	   72.56
     18.5395	   77.00	   79.45	 -472.45	   72.39
     18.5729	   84.00	   78.26	 -464.26	   72.21
     18.6063	   75.00	   77.38	 -472.38	   72.04
     18.6397	   74.00	   76.68	 -472.68	   71.87
     18.6731	   82.00	   76.11	 -464.11	   71.70
     18.7066	   77.00	   75.64	 -468.64	   71.53
     18.7400	   91.00	   75.23	 -454.23	   71.36
     18.7734	   68.00	   74.86	 -476.86	   71.19
     18.8068	   77.00	   74.53	 -467.53	   71.02
     18.8403	   87.00	   74.23	 -457.23	   70.85
     18.8737	   69.00	   73.96	 -474.96	   70.68
     18.9071	   76.00	   73.70	 -467.70	   70.51
     18.9405	   69.00	   73.45	 -474.45	   70.34
     18.9740	   92.00	   73.21	 -451.21	   70.17
     19.0074	   84.00	   72.99	 -458.99	   70.00
     19.0408	   73.00	   72.77	 -469.77	   69.84
     19.0742	   84.00	   72.56	 -458.56	   69.67
     19.1076	   73.00	   72.35	 -469.35	   69.50
     19.1411	   77.00	   72.15	 -465.15	   69.34
     19.1745	   79.00	   71.96	 -462.96	   69.17
     19.2079	   78.00	   71.76	 -463.76	   69.00
     19.2413	   88.00	   71.57	 -453.57	   68.84
     19.2748	   77.00	   71.39	 -464.39	   68.67
     19.3082	   65.00	   71.20	 -476.20	   68.51
     19.3416	   70.00	   71.02	 -471.02	   68.34
     19.3750	   86.00	   70.84	 -454.84	   68.18
     19.4084	   70.00	   70.66	 -470.66	   68.02
     19.4419	   73.00	   70.48	 -467.48	   67.85
     19.4753	   65.00	   70.31	 -475.31	   67.69
     19.5087	   64.00	   70.13	 -476.13	   67.53
     19.5421	   55.00	   69.96	 -484.96	   67.36
     19.5756	   71.00	   69.79	 -468.79	   67.20
     19.6090	   73.00	   69.62	 -466.62	   67.04
     19.6424	   72.00	   69.45	 -467.45	   66.88
     19.6758	   59.00	   69.28	 -480.28	   66.72
     19.7092	   60.00	   69.11	 -479.11	   66.56
     19.7427	   79.00	   68.94	 -459.94	   66.40
     19.7761	   76.00	   68.78	 -462.78	   66.24
     19.8095	   87.00	   68.61	 -451.61	   66.08
     19.8429	   60.00	   68.45	 -478.45	   65.92
     19.8764	   65.00	   68.28	 -473.28	   65.76
     19.9098	   90.00	   68.12	 -448.12	   65.60
     19.9432	   63.00	   67.96	 -474.96	   65.44
     19.9766	   65.00	   67.79	 -472.79	   65.28
     20.0100	   81.00	   67.63	 -456.63	   65.13
     20.0435	   65.00	   67.47	 -472.47	   64.97
     20.0769	   59.00	   67.31	 -478.31	   64.81
     20.1103	   68.00	   67.15	 -469.15	   64.66
     20.1437	   60.00	   66.99	 -476.99	   64.50
     20.1772	   64.00	   66.83	 -472.83	   64.34
     20.2106	   63.00	   66.67	 -473.67	   64.19
     20.2440	   72.00	   66.52	 -464.52	   64.03
     20.2774	   69.00	   66.36	 -467.36	   63.88
     20.3109	   57.00	   66.20	 -479.20	   63.72
     20.3443	   78.00	   66.05	 -458.05	   63.57
     20.3777	   59.00	   65.89	 -476.89	   63.41
     20.4111	   62.00	   65.73	 -473.73	   63.26
     20.4445	   47.00	   65.58	 -488.58	   63.11
     20.4780	   62.00	   65.42	 -473.42	   62.95
     20.5114	   76.00	   65.27	 -459.27	   62.80
     20.5448	   51.00	   65.11	 -484.11	   62.65
     20.5782	   52.00	   64.96	 -482.96	   62.50
     20.6117	   71.00	   64.81	 -463.81	   62.35
     20.6451	   65.00	   64.66	 -469.66	   62.20
     20.6785	   62.00	   64.50	 -472.50	   62.04
     20.7119	   59.00	   64.35	 -475.35	   61.89
     20.7453	   71.00	   64.20	 -463.20	   61.74
     20.7788	   59.00	   64.05	 -475.05	   61.59
     20.8122	   54.00	   63.90	 -479.90	   61.44
     20.8456	   58.00	   63.75	 -475.75	   61.29
     20.8790	   72.00	   63.60	 -461.60	   61.15
     20.9125	   48.00	   63.45	 -485.45	   61.00
     20.9459	   60.00	   63.30	 -473.30	   60.85
     20.9793	   76.00	   63.15	 -457.15	   60.70
     21.0127	   73.00	   63.00	 -460.00	   60.55
     21.0461	   47.00	   62.85	 -485.85	   60.41
     21.0796	   66.00	   62.70	 -466.70	   60.26
     21.1130	   52.00	   62.56	 -480.56	   60.11
     21.1464	   60.00	   62.41	 -472.41	   59.97
     21.1798	   61.00	   62.26	 -471.26	   59.82
     21.2133	   62.00	   62.11	 -470.11	   59.67
     21.2467	   64.00	   61.97	 -467.97	   59.53
     21.2801	   56.00	   61.82	 -475.82	   59.38
     21.3135	   65.00	   61.68	 -466.68	   59.24
     21.3470	   47.00	   61.53	 -484.53	   59.09
     21.3804	   71.00	   61.39	 -460.39	   58.95
     21.4138	   57.00	   61.21	 -474.21	   58.81
     21.4472	   58.00	   61.07	 -473.07	   58.66
     21.4806	   56.00	   60.93	 -474.93	   58.52
     21.5141	   62.00	   60.78	 -468.78	   58.38
     21.5475	   63.00	   60.64	 -467.64	   58.23
     21.5809	   63.00	   60.50	 -467.50	   58.09
     21.6143	   68.00	   60.36	 -462.36	   57.95
     21.6478	   61.00	   60.21	 -469.21	   57.81
     21.6812	   51.00	   60.07	 -479.07	   57.67
     21.7146	   54.00	   59.93	 -475.93	   57.53
     21.7480	   60.00	   59.79	 -469.79	   57.39
     21.7814	   50.00	   59.65	 -479.65	   57.24
     21.8149	   46.00	   59.51	 -483.51	   57.10
     21.8483	   64.00	   59.37	 -465.37	   56.97
     21.8817	   74.00	   59.23	 -455.23	   56.83
     21.9151	   45.00	   59.09	 -484.09	   56.69
     21.9486	   64.00	   58.95	 -464.95	   56.55
     21.9820	   54.00	   58.82	 -474.82	   56.41
     22.0154	   56.00	   58.68	 -472.68	   56.27
     22.0488	   47.00	   58.54	 -481.54	   56.13
     22.0822	   52.00	   58.40	 -476.40	   56.00
     22.1157	   49.00	   58.26	 -479.26	   55.86
     22.1491	   51.00	   58.13	 -477.13	   55.72
     22.1825	   50.00	   57.99	 -477.99	   55.59
     22.2159	   52.00	   57.86	 -475.86	   55.45
     22.2494	   52.00	   57.72	 -475.72	   55.31
     22.2828	   31.00	   57.58	 -496.58	   55.18
     22.3162	   55.00	   57.45	 -472.45	   55.04
     22.3496	   56.00	   57.31	 -471.31	   54.91
     22.3830	   55.00	   57.18	 -472.18	   54.77
     22.4165	   61.00	   57.04	 -466.04	   54.64
     22.4499	   50.00	   56.91	 -476.91	   54.50
     22.4833	   54.00	   56.78	 -472.78	   54.37
     22.5167	   48.00	   56.64	 -478.64	   54.24
     22.5502	   59.00	   56.51	 -467.51	   54.10
     22.5836	   61.00	   56.38	 -465.38	   53.97
     22.6170	   51.00	   56.24	 -475.24	   53.84
     22.6504	   59.00	   56.11	 -467.11	   53.70
     22.6839	   44.00	   55.98	 -481.98	   53.57
     22.7173	   55.00	   55.85	 -470.85	   53.44
     22.7507	   52.00	   55.72	 -473.72	   53.31
     22.7841	   46.00	   55.58	 -479.58	   53.18
     22.8175	   49.00	   55.45	 -476.45	   53.05
     22.8510	   56.00	   55.32	 -469.32	   52.92
     22.8844	   60.00	   55.19	 -465.19	   52.79
     22.9178	   50.00	   55.06	 -475.06	   52.66
     22.9512	   64.00	   54.93	 -460.93	   52.53
     22.9847	   51.00	   54.80	 -473.80	   52.40
     23.0181	   55.00	   54.68	 -469.68	   52.27
     23.0515	   39.00	   54.55	 -485.55	   52.14
     23.0849	   42.00	   54.42	 -482.42	   52.01
     23.1183	   37.00	   54.29	 -487.29	   51.88
     23.1518	   49.00	   54.16	 -475.16	   51.76
     23.1852	   51.00	   54.03	 -473.03	   51.63
     23.2186	   52.00	   53.91	 -471.91	   51.50
     23.2520	   50.00	   53.78	 -473.78	   51.37
     23.2855	   51.00	   53.65	 -472.65	   51.25
     23.3189	   52.00	   53.53	 -471.53	   51.12
     23.3523	   56.00	   53.40	 -467.40	   50.99
     23.3857	   55.00	   53.27	 -468.27	   50.87
     23.4191	   57.00	   53.15	 -466.15	   50.74
     23.4526	   52.00	   53.02	 -471.02	   50.62
     23.4860	   43.00	   52.90	 -479.90	   50.49
     23.5194	   36.00	   52.77	 -486.77	   50.37
     23.5528	   66.00	   52.65	 -456.65	   50.24
     23.5863	   59.00	   52.53	 -463.53	   50.12
     23.6197	   56.00	   52.40	 -466.40	   50.00
     23.6531	   43.00	   52.28	 -479.28	   49.87
     23.6865	   46.00	   52.16	 -476.16	   49.75
     23.7200	   49.00	   52.03	 -473.03	   49.63
     23.7534	   37.00	   51.91	 -484.91	   49.50
     23.7868	   41.00	   51.79	 -480.79	   49.38
     23.8202	   51.00	   51.67	 -470.67	   49.26
     23.8536	   42.00	   51.54	 -479.54	   49.14
     23.8871	   50.00	   51.42	 -471.42	   49.02
     23.9205	   52.00	   51.30	 -469.30	   48.90
     23.9539	   46.00	   51.18	 -475.18	   48.77
     23.9873	   39.00	   51.06	 -482.06	   48.65
     24.0208	   54.00	   50.94	 -466.94	   48.53
     24.0542	   42.00	   50.82	 -478.82	   48.41
     24.0876	   55.00	   50.70	 -465.70	   48.29
     24.1210	   44.00	   50.58	 -476.58	   48.17
     24.1544	   50.00	   50.46	 -470.46	   48.05
     24.1879	   44.00	   50.34	 -476.34	   47.94
     24.2213	   47.00	   50.22	 -473.22	   47.82
     24.2547	   50.00	   50.10	 -470.10	   47.70
     24.2881	   41.00	   49.99	 -478.99	   47.58
     24.3216	   42.00	   49.87	 -477.87	   47.46
     24.3550	   36.00	   49.75	 -483.75	   47.35
     24.3884	   45.00	   49.63	 -474.63	   47.23
     24.4218	   52.00	   49.52	 -467.52	   47.11
     24.4552	   54.00	   49.40	 -465.40	   46.99
     24.4887	   46.00	   49.28	 -473.28	   46.88
     24.5221	   49.00	   49.17	 -470.17	   46.76
     24.5555	   48.00	   49.05	 -471.05	   46.65
     24.5889	   48.00	   48.94	 -470.94	   46.53
     24.6224	   50.00	   48.82	 -468.82	   46.42
     24.6558	   47.00	   48.71	 -471.71	   46.30
     24.6892	   57.00	   48.59	 -461.59	   46.19
     24.7226	   50.00	   48.48	 -468.48	   46.07
     24.7561	   36.00	   48.36	 -482.36	   45.96
     24.7895	   52.00	   48.25	 -466.25	   45.84
     24.8229	   42.00	   48.14	 -476.14	   45.73
     24.8563	   44.00	   48.02	 -474.02	   45.62
     24.8897	   45.00	   47.91	 -472.91	   45.50
     24.9232	   42.00	   47.80	 -475.80	   45.39
     24.9566	   38.00	   47.68	 -479.68	   45.28
     24.9900	   48.00	   47.57	 -469.57	   45.16
     25.0234	   51.00	   47.46	 -466.46	   45.05
     25.0569	   46.00	   47.35	 -471.35	   44.94
     25.0903	   44.00	   47.24	 -473.24	   44.83
     25.1237	   37.00	   47.12	 -480.12	   44.72
     25.1571	   47.00	   47.01	 -470.01	   44.61
     25.1905	   38.00	   46.90	 -478.90	   44.50
     25.2240	   47.00	   46.79	 -469.79	   44.39
     25.2574	   55.00	   46.68	 -461.68	   44.28
     25.2908	   51.00	   46.57	 -465.57	   44.17
     25.3242	   43.00	   46.46	 -473.46	   44.06
     25.3577	   59.00	   46.35	 -457.35	   43.95
     25.3911	   45.00	   46.24	 -471.24	   43.84
     25.4245	   52.00	   46.14	 -464.14	   43.73
     25.4579	   43.00	   46.03	 -473.03	   43.62
     25.4913	   39.00	   45.92	 -476.92	   43.51
     25.5248	   38.00	   45.81	 -477.81	   43.40
     25.5582	   39.00	   45.70	 -476.70	   43.30
     25.5916	   43.00	   45.60	 -472.60	   43.19
     25.6250	   48.00	   45.49	 -467.49	   43.08
     25.6585	   41.00	   45.38	 -474.38	   42.98
     25.6919	   41.00	   45.27	 -474.27	   42.87
     25.7253	   32.00	   45.17	 -483.17	   42.76
     25.7587	   55.00	   45.06	 -460.06	   42.66
     25.7921	   35.00	   44.96	 -479.96	   42.55
     25.8256	   49.00	   44.85	 -465.85	   42.44
     25.8590	   47.00	   44.75	 -467.75	   42.34
     25.8924	   57.00	   44.64	 -457.64	   42.23
     25.9258	   45.00	   44.54	 -469.54	   42.13
     25.9593	   41.00	   44.43	 -473.43	   42.02
     25.9927	   35.00	   44.33	 -479.33	   41.92
     26.0261	   49.00	   44.22	 -465.22	   41.82
     26.0595	   42.00	   44.12	 -472.12	   41.71
     26.0930	   36.00	   44.01	 -478.01	   41.61
     26.1264	   45.00	   43.91	 -468.91	   41.51
     26.1598	   41.00	   43.81	 -472.81	   41.40
     26.1932	   44.00	   43.71	 -469.71	   41.30
     26.2266	   45.00	   43.60	 -468.60	   41.20
     26.2601	   39.00	   43.50	 -474.50	   41.09
     26.2935	   34.00	   43.40	 -479.40	   40.99
     26.3269	   57.00	   43.30	 -456.30	   40.89
     26.3603	   61.00	   43.20	 -452.20	   40.79
     26.3938	   39.00	   43.09	 -474.09	   40.69
     26.4272	   44.00	   42.99	 -468.99	   40.59
     26.4606	   47.00	   42.89	 -465.89	   40.49
     26.4940	   44.00	   42.79	 -468.79	   40.39
     26.5274	   32.00	   42.69	 -480.69	   40.29
     26.5609	   34.00	   42.59	 -478.59	   40.19
     26.5943	   41.00	   42.49	 -471.49	   40.09
     26.6277	   29.00	   42.39	 -483.39	   39.99
     26.6611	   35.00	   42.29	 -477.29	   39.89
     26.6946	   35.00	   42.19	 -477.19	   39.79
     26.7280	   44.00	   42.10	 -468.10	   39.69
     26.7614	   44.00	   42.00	 -468.00	   39.59
     26.7948	   34.00	   41.90	 -477.90	   39.49
     26.8282	   45.00	   41.80	 -466.80	   39.39
     26.8617	   44.00	   41.70	 -467.70	   39.30
     26.8951	   39.00	   41.61	 -472.61	   39.20
     26.9285	   38.00	   41.51	 -473.51	   39.10
     26.9619	   39.00	   41.49	 -472.49	   39.00
     26.9954	   43.00	   41.40	 -468.40	   38.91
     27.0288	   45.00	   41.30	 -466.30	   38.81
     27.0622	   32.00	   41.25	 -479.25	   38.71
     27.0956	   59.00	   41.16	 -452.16	   38.62
     27.1291	   47.00	   41.07	 -464.07	   38.52
     27.1625	   43.00	   40.97	 -467.97	   38.43
     27.1959	   37.00	   40.88	 -473.88	   38.33
     27.2293	   35.00	   40.79	 -475.79	   38.24
     27.2627	   39.00	   40.70	 -471.70	   38.14
     27.2962	   27.00	   40.61	 -483.61	   38.05
     27.3296	   46.00	   40.52	 -464.52	   37.95
     27.3630	   43.00	   40.43	 -467.43	   37.86
     27.3964	   45.00	   40.34	 -465.34	   37.77
     27.4299	   41.00	   40.25	 -469.25	   37.67
     27.4633	   44.00	   40.16	 -466.16	   37.58
     27.4967	   39.00	   40.07	 -471.07	   37.49
     27.5301	   32.00	   39.98	 -477.98	   37.39
     27.5635	   49.00	   39.90	 -460.90	   37.30
     27.5970	   36.00	   39.81	 -473.81	   37.21
     27.6304	   36.00	   39.72	 -473.72	   37.12
     27.6638	   41.00	   39.63	 -468.63	   37.02
     27.6972	   36.00	   39.55	 -473.55	   36.93
     27.7307	   42.00	   39.46	 -467.46	   36.84
     27.7641	   32.00	   39.38	 -477.38	   36.75
     27.7975	   42.00	   39.29	 -467.29	   36.66
     27.8309	   37.00	   39.21	 -472.21	   36.57
     27.8643	   46.00	   39.13	 -463.13	   36.48
     27.8978	   35.00	   39.04	 -474.04	   36.39
     27.9312	   38.00	   38.96	 -470.96	   36.30
     27.9646	   47.00	   38.88	 -461.88	   36.21
     27.9980	   51.00	   38.80	 -457.80	   36.12
     28.0315	   38.00	   38.72	 -470.72	   36.03
     28.0649	   37.00	   38.64	 -471.64	   35.94
     28.0983	   35.00	   38.56	 -473.56	   35.85
     28.1317	   39.00	   38.48	 -469.48	   35.76
     28.1651	   34.00	   38.40	 -474.40	   35.67
     28.1986	   36.00	   38.33	 -472.33	   35.58
     28.2320	   42.00	   38.25	 -466.25	   35.50
     28.2654	   38.00	   38.18	 -470.18	   35.41
     28.2988	   42.00	   38.10	 -466.10	   35.32
     28.3323	   28.00	   38.03	 -480.03	   35.23
     28.3657	   36.00	   37.96	 -471.96	   35.15
     28.3991	   34.00	   37.89	 -473.89	   35.06
     28.4325	   37.00	   37.82	 -470.82	   34.97
     28.4660	   36.00	   37.75	 -471.75	   34.89
     28.4994	   35.00	   37.68	 -472.68	   34.80
     28.5328	   44.00	   37.62	 -463.62	   34.72
     28.5662	   37.00	   37.55	 -470.55	   34.63
     28.5996	   47.00	   37.49	 -460.49	   34.54
     28.6331	   43.00	   37.43	 -464.43	   34.46
     28.6665	   38.00	   37.37	 -469.37	   34.37
     28.6999	   48.00	   37.32	 -459.32	   34.29
     28.7333	   65.00	   37.26	 -442.26	   34.20
     28.7668	   60.00	   37.21	 -447.21	   34.12
     28.8002	   57.00	   37.17	 -450.17	   34.04
     28.8336	   45.00	   37.12	 -462.12	   33.95
     28.8670	   46.00	   37.08	 -461.08	   33.87
     28.9004	   43.00	   37.04	 -464.04	   33.79
     28.9339	   36.00	   37.01	 -471.01	   33.70
     28.9673	   38.00	   36.98	 -468.98	   33.62
     29.0007	   46.00	   36.95	 -460.95	   33.54
     29.0341	   42.00	   36.94	 -464.94	   33.45
     29.0676	   48.00	   36.93	 -458.93	   33.37
     29.1010	   44.00	   36.92	 -462.92	   33.29
     29.1344	   31.00	   36.93	 -475.93	   33.21
     29.1678	   42.00	   36.94	 -464.94	   33.13
     29.2012	   35.00	   36.97	 -471.97	   33.05
     29.2347	   37.00	   37.01	 -470.01	   32.96
     29.2681	   47.00	   37.06	 -460.06	   32.88
     29.3015	   30.00	   37.13	 -477.13	   32.80
     29.3349	   35.00	   37.22	 -472.22	   32.72
     29.3684	   39.00	   37.34	 -468.34	   32.64
     29.4018	   45.00	   37.49	 -462.49	   32.56
     29.4352	   36.00	   37.67	 -471.67	   32.48
     29.4686	   41.00	   37.89	 -466.89	   32.40
     29.5020	   39.00	   38.17	 -469.17	   32.32
     29.5355	   32.00	   38.51	 -476.51	   32.24
     29.5689	   44.00	   38.93	 -464.93	   32.16
     29.6023	   34.00	   39.46	 -475.46	   32.09
     29.6357	   38.00	   40.13	 -472.13	   32.01
     29.6692	   37.00	   40.98	 -473.98	   31.93
     29.7026	   45.00	   42.07	 -467.07	   31.85
     29.7360	   37.00	   43.49	 -476.49	   31.77
     29.7694	   42.00	   45.40	 -473.40	   31.69
     29.8029	   39.00	   48.00	 -479.00	   31.62
     29.8363	   59.00	   51.72	 -462.72	   31.54
     29.8697	   56.00	   57.55	 -471.55	   31.46
     29.9031	   68.00	   68.72	 -470.72	   31.39
     29.9365	  102.00	   94.85	 -462.85	   31.31
     29.9700	  145.00	  155.78	 -480.78	   31.23
     30.0034	  288.00	  272.02	 -454.02	   31.16
     30.0368	  451.00	  432.11	 -451.11	   31.08
     30.0702	  658.00	  551.50	 -363.50	   31.00
     30.1037	  561.00	  543.04	 -452.04	   30.93
     30.1371	  460.00	  456.93	 -466.93	   30.85
     30.1705	  360.00	  331.95	 -441.95	   30.78
     30.2039	  222.00	  209.44	 -457.44	   30.70
     30.2373	  125.00	  126.67	 -471.67	   30.63
     30.2708	   77.00	   82.80	 -475.80	   30.55
     30.3042	   63.00	   62.81	 -469.81	   30.48
     30.3376	   52.00	   53.63	 -471.63	   30.41
     30.3710	   60.00	   48.58	 -458.58	   30.33
     30.4045	   64.00	   45.26	 -451.26	   30.26
     30.4379	   50.00	   42.86	 -462.86	   30.18
     30.4713	   32.00	   41.05	 -479.05	   30.11
     30.5047	   51.00	   39.65	 -458.65	   30.04
     30.5382	   32.00	   38.53	 -476.53	   29.97
     30.5716	   48.00	   37.63	 -459.63	   29.89
     30.6050	   34.00	   36.88	 -472.88	   29.82
     30.6384	   29.00	   36.25	 -477.25	   29.75
     30.6718	   45.00	   35.72	 -460.72	   29.68
     30.7053	   46.00	   35.26	 -459.26	   29.60
     30.7387	   43.00	   34.86	 -461.86	   29.53
     30.7721	   37.00	   34.51	 -467.51	   29.46
     30.8055	   31.00	   34.20	 -473.20	   29.39
     30.8390	   35.00	   33.91	 -468.91	   29.32
     30.8724	   28.00	   33.66	 -475.66	   29.25
     30.9058	   37.00	   33.43	 -466.43	   29.18
     30.9392	   38.00	   33.21	 -465.21	   29.11
     30.9726	   33.00	   33.02	 -470.02	   29.04
     31.0061	   24.00	   32.83	 -478.83	   28.97
     31.0395	   35.00	   32.66	 -467.66	   28.90
     31.0729	   29.00	   32.50	 -473.50	   28.83
     31.1063	   42.00	   32.35	 -460.35	   28.76
     31.1398	   28.00	   32.20	 -474.20	   28.69
     31.1732	   34.00	   32.07	 -468.07	   28.62
     31.2066	   34.00	   31.94	 -467.94	   28.55
     31.2400	   36.00	   31.81	 -465.81	   28.48
     31.2734	   35.00	   31.69	 -466.69	   28.41
     31.3069	   31.00	   31.58	 -470.58	   28.34
     31.3403	   21.00	   31.46	 -480.46	   28.28
     31.3737	   33.00	   31.36	 -468.36	   28.21
     31.4071	   31.00	   31.25	 -470.25	   28.14
     31.4406	   29.00	   31.15	 -472.15	   28.07
     31.4740	   30.00	   31.05	 -471.05	   28.01
     31.5074	   35.00	   30.95	 -465.95	   27.94
     31.5408	   31.00	   30.86	 -469.86	   27.87
     31.5742	   33.00	   30.77	 -467.77	   27.81
     31.6077	   27.00	   30.68	 -473.68	   27.74
     31.6411	   32.00	   30.59	 -468.59	   27.67
     31.6745	   33.00	   30.50	 -467.50	   27.61
     31.7079	   24.00	   30.41	 -476.41	   27.54
     31.7414	   36.00	   30.33	 -464.33	   27.47
     31.7748	   31.00	   30.25	 -469.25	   27.41
     31.8082	   18.00	   30.16	 -482.16	   27.34
     31.8416	   22.00	   30.08	 -478.08	   27.28
     31.8750	   42.00	   30.00	 -458.00	   27.21
     31.9085	   48.00	   29.92	 -451.92	   27.15
     31.9419	   38.00	   29.85	 -461.85	   27.08
     31.9753	   33.00	   29.77	 -466.77	   27.02
     32.0087	   23.00	   29.69	 -476.69	   26.96
     32.0422	   31.00	   29.62	 -468.62	   26.89
     32.0756	   30.00	   29.54	 -469.54	   26.83
     32.1090	   36.00	   29.47	 -463.47	   26.76
     32.1424	   30.00	   29.40	 -469.40	   26.70
     32.1759	   21.00	   29.32	 -478.32	   26.64
     32.2093	   27.00	   29.25	 -472.25	   26.57
     32.2427	   23.00	   29.18	 -476.18	   26.51
     32.2761	   35.00	   29.11	 -464.11	   26.45
     32.3095	   31.00	   29.36	 -468.36	   26.39
     32.3430	   30.00	   29.30	 -469.30	   26.32
     32.3764	   29.00	   29.24	 -470.24	   26.26
     32.4098	   29.00	   29.34	 -470.34	   26.20
     32.4432	   25.00	   29.28	 -474.28	   26.14
     32.4767	   23.00	   29.22	 -476.22	   26.08
     32.5101	   43.00	   29.17	 -456.17	   26.01
     32.5435	   30.00	   29.11	 -469.11	   25.95
     32.5769	   24.00	   29.06	 -475.06	   25.89
     32.6103	   24.00	   29.01	 -475.01	   25.83
     32.6438	   34.00	   28.95	 -464.95	   25.77
     32.6772	   34.00	   28.90	 -464.90	   25.71
     32.7106	   25.00	   28.85	 -473.85	   25.65
     32.7440	   24.00	   28.80	 -474.80	   25.59
     32.7775	   33.00	   28.76	 -465.76	   25.53
     32.8109	   23.00	   28.71	 -475.71	   25.47
     32.8443	   28.00	   28.66	 -470.66	   25.41
     32.8777	   20.00	   28.62	 -478.62	   25.35
     32.9111	   28.00	   28.57	 -470.57	   25.29
     32.9446	   23.00	   28.53	 -475.53	   25.23
     32.9780	   30.00	   28.49	 -468.49	   25.17
     33.0114	   32.00	   28.45	 -466.45	   25.11
     33.0448	   34.00	   28.41	 -464.41	   25.06
     33.0783	   32.00	   28.37	 -466.37	   25.00
     33.1117	   57.00	   28.33	 -441.33	   24.94
     33.1451	   55.00	   28.29	 -443.29	   24.88
     33.1785	   51.00	   28.26	 -447.26	   24.82
     33.2120	   32.00	   28.14	 -466.14	   24.77
     33.2454	   41.00	   28.11	 -457.11	   24.71
     33.2788	   45.00	   28.05	 -453.05	   24.65
     33.3122	   29.00	   28.02	 -469.02	   24.59
     33.3456	   32.00	   28.00	 -466.00	   24.54
     33.3791	   38.00	   27.97	 -459.97	   24.48
     33.4125	   41.00	   27.95	 -456.95	   24.42
     33.4459	   29.00	   27.93	 -468.93	   24.37
     33.4793	   38.00	   27.92	 -459.92	   24.31
     33.5128	   37.00	   27.90	 -460.90	   24.25
     33.5462	   38.00	   27.89	 -459.89	   24.20
     33.5796	   31.00	   27.88	 -466.88	   24.14
     33.6130	   30.00	   27.87	 -467.87	   24.09
     33.6464	   31.00	   27.87	 -466.87	   24.03
     33.6799	   31.00	   27.87	 -466.87	   23.98
     33.7133	   39.00	   27.87	 -458.87	   23.92
     33.7467	   43.00	   27.88	 -454.88	   23.87
     33.7801	   45.00	   27.89	 -452.89	   23.81
     33.8136	   65.00	   27.90	 -432.90	   23.76
     33.8470	  113.00	   27.92	 -384.92	   23.70
     33.8804	  114.00	   27.95	 -383.95	   23.65
     33.9138	  112.00	   28.00	 -386.00	   23.60
     33.9472	   74.00	   28.04	 -424.04	   23.54
     33.9807	   39.00	   28.08	 -459.08	   23.49
     34.0141	   37.00	   28.14	 -461.14	   23.43
     34.0475	   45.00	   28.19	 -453.19	   23.38
     34.0809	   39.00	   28.26	 -459.26	   23.33
     34.1144	   48.00	   28.33	 -450.33	   23.27
     34.1478	   55.00	   28.42	 -443.42	   23.22
     34.1812	   46.00	   28.51	 -452.51	   23.17
     34.2146	   30.00	   28.62	 -468.62	   23.12
     34.2481	   28.00	   28.74	 -470.74	   23.06
     34.2815	   44.00	   28.88	 -454.88	   23.01
     34.3149	   37.00	   29.03	 -462.03	   22.96
     34.3483	   25.00	   29.20	 -474.20	   22.91
     34.3817	   31.00	   29.39	 -468.39	   22.86
     34.4152	   27.00	   29.61	 -472.61	   22.80
     34.4486	   28.00	   29.86	 -471.86	   22.75
     34.4820	   41.00	   30.13	 -459.13	   22.70
     34.5154	   25.00	   30.45	 -475.45	   22.65
     34.5489	   28.00	   30.80	 -472.80	   22.60
     34.5823	   22.00	   31.20	 -479.20	   22.55
     34.6157	   28.00	   31.66	 -473.66	   22.50
     34.6491	   32.00	   32.18	 -470.18	   22.45
     34.6825	   34.00	   32.78	 -468.78	   22.40
     34.7160	   24.00	   33.47	 -479.47	   22.35
     34.7494	   45.00	   34.26	 -459.26	   22.30
     34.7828	   31.00	   35.19	 -474.19	   22.25
     34.8162	   28.00	   36.28	 -478.28	   22.20
     34.8497	   38.00	   37.56	 -469.56	   22.15
     34.8831	   37.00	   39.08	 -472.08	   22.10
     34.9165	   41.00	   40.91	 -469.91	   22.05
     34.9499	   39.00	   43.12	 -474.12	   22.00
     34.9833	   32.00	   45.84	 -483.84	   21.95
     35.0168	   38.00	   49.21	 -481.21	   21.90
     35.0502	   41.00	   53.48	 -482.48	   21.86
     35.0836	   50.00	   58.97	 -478.97	   21.81
     35.1170	   74.00	   66.19	 -462.19	   21.76
     35.1505	   66.00	   75.95	 -479.95	   21.71
     35.1839	   87.00	   89.74	 -472.74	   21.66
     35.2173	  110.00	  111.18	 -471.18	   21.62
     35.2507	  152.00	  151.60	 -469.60	   21.57
     35.2841	  232.00	  243.29	 -481.29	   21.52
     35.3176	  411.00	  450.14	 -509.14	   21.47
     35.3510	  780.00	  836.08	 -526.08	   21.43
     35.3844	 1454.00	 1363.64	 -379.64	   21.38
     35.4178	 1880.00	 1764.63	 -354.63	   21.33
     35.4513	 1625.00	 1745.21	 -590.21	   21.29
     35.4847	 1360.00	 1502.60	 -612.60	   21.24
     35.5181	 1095.00	 1186.75	 -561.75	   21.19
     35.5515	  736.00	  799.49	 -533.49	   21.15
     35.5850	  452.00	  472.05	 -490.05	   21.10
     35.6184	  278.00	  266.73	 -458.73	   21.06
     35.6518	  161.00	  161.83	 -470.83	   21.01
     35.6852	  116.00	  113.45	 -467.45	   20.96
     35.7186	  100.00	   89.42	 -459.42	   20.92
     35.7521	  105.00	   75.04	 -440.04	   20.87
     35.7855	   78.00	   65.13	 -457.13	   20.83
     35.8189	   75.00	   57.84	 -452.84	   20.78
     35.8523	   50.00	   52.30	 -472.30	   20.74
     35.8858	   46.00	   47.98	 -471.98	   20.69
     35.9192	   64.00	   44.56	 -450.56	   20.65
     35.9526	   43.00	   41.79	 -468.79	   20.60
     35.9860	   48.00	   39.52	 -461.52	   20.56
     36.0194	   38.00	   37.64	 -469.64	   20.52
     36.0529	   36.00	   36.06	 -470.06	   20.47
     36.0863	   27.00	   34.72	 -477.72	   20.43
     36.1197	   38.00	   33.58	 -465.58	   20.39
     36.1531	   47.00	   32.60	 -455.60	   20.34
     36.1866	   38.00	   31.75	 -463.75	   20.30
     36.2200	   24.00	   31.01	 -477.01	   20.26
     36.2534	   39.00	   30.36	 -461.36	   20.21
     36.2868	   24.00	   29.80	 -475.80	   20.17
     36.3202	   17.00	   29.31	 -482.31	   20.13
     36.3537	   32.00	   28.87	 -466.87	   20.08
     36.3871	   39.00	   28.50	 -459.50	   20.04
     36.4205	   24.00	   28.17	 -474.17	   20.00
     36.4539	   22.00	   27.90	 -475.90	   19.96
     36.4874	   25.00	   27.67	 -472.67	   19.92
     36.5208	   28.00	   27.48	 -469.48	   19.87
     36.5542	   38.00	   27.35	 -459.35	   19.83
     36.5876	   38.00	   27.27	 -459.27	   19.79
     36.6211	   25.00	   27.24	 -472.24	   19.75
     36.6545	   44.00	   27.29	 -453.29	   19.71
     36.6879	   30.00	   27.42	 -467.42	   19.67
     36.7213	   27.00	   27.67	 -470.67	   19.62
     36.7547	   20.00	   28.07	 -478.07	   19.58
     36.7882	   34.00	   28.69	 -464.69	   19.54
     36.8216	   29.00	   29.67	 -470.67	   19.50
     36.8550	   34.00	   31.34	 -467.34	   19.46
     36.8884	   30.00	   34.79	 -474.79	   19.42
     36.9219	   43.00	   42.88	 -469.88	   19.38
     36.9553	   42.00	   60.65	 -488.65	   19.34
     36.9887	   68.00	   91.92	 -493.92	   19.30
     37.0221	  159.00	  131.10	 -442.10	   19.26
     37.0555	  178.00	  155.02	 -447.02	   19.22
     37.0890	  137.00	  147.91	 -480.91	   19.18
     37.1224	  126.00	  129.35	 -473.35	   19.14
     37.1558	  121.00	  106.75	 -455.75	   19.10
     37.1892	   72.00	   78.96	 -476.96	   19.07
     37.2227	   49.00	   55.46	 -476.46	   19.03
     37.2561	   37.00	   40.63	 -473.63	   18.99
     37.2895	   28.00	   32.96	 -474.96	   18.95
     37.3229	   29.00	   29.35	 -470.35	   18.91
     37.3563	   28.00	   27.50	 -469.50	   18.87
     37.3898	   30.00	   26.35	 -466.35	   18.83
     37.4232	   24.00	   25.54	 -471.54	   18.80
     37.4566	   23.00	   24.92	 -471.92	   18.76
     37.4900	   24.00	   24.43	 -470.43	   18.72
     37.5235	   23.00	   24.04	 -471.04	   18.68
     37.5569	   24.00	   23.71	 -469.71	   18.64
     37.5903	   22.00	   23.43	 -471.43	   18.61
     37.6237	   32.00	   23.20	 -461.20	   18.57
     37.6572	   24.00	   22.99	 -468.99	   18.53
     37.6906	   23.00	   22.81	 -469.81	   18.50
     37.7240	   23.00	   22.64	 -469.64	   18.46
     37.7574	   18.00	   22.50	 -474.50	   18.42
     37.7908	   24.00	   22.36	 -468.36	   18.38
     37.8243	   27.00	   22.24	 -465.24	   18.35
     37.8577	   27.00	   22.12	 -465.12	   18.31
     37.8911	   24.00	   22.02	 -468.02	   18.28
     37.9245	   22.00	   21.91	 -469.91	   18.24
     37.9580	   22.00	   21.82	 -469.82	   18.20
     37.9914	   19.00	   21.73	 -472.73	   18.17
     38.0248	   21.00	   21.65	 -470.65	   18.13
     38.0582	   17.00	   21.57	 -474.57	   18.10
     38.0916	   31.00	   21.49	 -460.49	   18.06
     38.1251	   17.00	   21.41	 -474.41	   18.03
     38.1585	   11.00	   21.34	 -480.34	   17.99
     38.1919	   24.00	   21.27	 -467.27	   17.96
     38.2253	   20.00	   21.21	 -471.21	   17.92
     38.2588	   23.00	   21.14	 -468.14	   17.89
     38.2922	   17.00	   21.08	 -474.08	   17.85
     38.3256	   24.00	   21.02	 -467.02	   17.82
     38.3590	   17.00	   20.96	 -473.96	   17.78
     38.3924	   23.00	   20.90	 -467.90	   17.75
     38.4259	   23.00	   20.84	 -467.84	   17.71
     38.4593	   15.00	   20.79	 -475.79	   17.68
     38.4927	   16.00	   20.74	 -474.74	   17.64
     38.5261	   23.00	   20.68	 -467.68	   17.61
     38.5596	   17.00	   20.32	 -473.32	   17.58
     38.5930	   24.00	   20.27	 -466.27	   17.54
     38.6264	   29.00	   20.23	 -461.23	   17.51
     38.6598	   14.00	   20.03	 -476.03	   17.48
     38.6932	   18.00	   19.99	 -471.99	   17.44
     38.7267	   27.00	   19.95	 -462.95	   17.41
     38.7601	   34.00	   19.91	 -455.91	   17.38
     38.7935	   28.00	   19.87	 -461.87	   17.34
     38.8269	   23.00	   19.84	 -466.84	   17.31
     38.8604	   18.00	   19.80	 -471.80	   17.28
     38.8938	   28.00	   19.76	 -461.76	   17.25
     38.9272	   23.00	   19.73	 -466.73	   17.21
     38.9606	   17.00	   19.69	 -472.69	   17.18
     38.9940	   16.00	   19.66	 -473.66	   17.15
     39.0275	   15.00	   19.62	 -474.62	   17.12
     39.0609	   18.00	   19.58	 -471.58	   17.09
     39.0943	   17.00	   19.55	 -472.55	   17.05
     39.1277	   25.00	   19.52	 -464.52	   17.02
     39.1612	   17.00	   19.48	 -472.48	   16.99
     39.1946	   12.00	   19.45	 -477.45	   16.96
     39.2280	   23.00	   19.41	 -466.41	   16.93
     39.2614	   24.00	   19.38	 -465.38	   16.90
     39.2949	   14.00	   19.35	 -475.35	   16.87
     39.3283	   24.00	   19.31	 -465.31	   16.84
     39.3617	   17.00	   19.28	 -472.28	   16.80
     39.3951	   18.00	   19.25	 -471.25	   16.77
     39.4285	   20.00	   19.22	 -469.22	   16.74
     39.4620	    9.00	   19.18	 -480.18	   16.71
     39.4954	   20.00	   19.15	 -469.15	   16.68
     39.5288	   16.00	   19.12	 -473.12	   16.65
     39.5622	   24.00	   19.09	 -465.09	   16.62
     39.5957	   18.00	   19.06	 -471.06	   16.59
     39.6291	   18.00	   19.02	 -471.02	   16.56
     39.6625	   29.00	   18.99	 -459.99	   16.53
     39.6959	   18.00	   18.96	 -470.96	   16.50
     39.7293	   33.00	   18.93	 -455.93	   16.47
     39.7628	   12.00	   18.90	 -476.90	   16.44
     39.7962	   21.00	   18.87	 -467.87	   16.42
     39.8296	   16.00	   18.84	 -472.84	   16.39
     39.8630	   19.00	   18.81	 -469.81	   16.36
     39.8965	   21.00	   18.86	 -467.86	   16.33
     39.9299	   17.00	   18.83	 -471.83	   16.30
     39.9633	   18.00	   18.80	 -470.80	   16.27
     39.9967	   20.00	   18.81	 -468.81	   16.24
     40.0302	   22.00	   18.78	 -466.78	   16.21
     40.0636	   15.00	   18.76	 -473.76	   16.18
     40.0970	   25.00	   18.73	 -463.73	   16.16
     40.1304	   20.00	   18.70	 -468.70	   16.13
     40.1638	   15.00	   18.68	 -473.68	   16.10
     40.1973	   16.00	   18.63	 -472.63	   16.07
     40.2307	   11.00	   18.60	 -477.60	   16.04
     40.2641	   25.00	   18.58	 -463.58	   16.02
     40.2975	   16.00	   18.54	 -472.54	   15.99
     40.3310	   16.00	   18.52	 -472.52	   15.96
     40.3644	   27.00	   18.49	 -461.49	   15.93
     40.3978	   19.00	   18.47	 -469.47	   15.91
     40.4312	   20.00	   18.45	 -468.45	   15.88
     40.4646	   11.00	   18.42	 -477.42	   15.85
     40.4981	   19.00	   18.40	 -469.40	   15.83
     40.5315	   20.00	   18.38	 -468.38	   15.80
     40.5649	   14.00	   18.36	 -474.36	   15.77
     40.5983	   18.00	   18.34	 -470.34	   15.75
     40.6318	   10.00	   18.31	 -478.31	   15.72
     40.6652	   21.00	   18.29	 -467.29	   15.69
     40.6986	   16.00	   18.27	 -472.27	   15.67
     40.7320	   12.00	   18.25	 -476.25	   15.64
     40.7654	   20.00	   18.23	 -468.23	   15.61
     40.7989	   28.00	   18.21	 -460.21	   15.59
     40.8323	   28.00	   18.19	 -460.19	   15.56
     40.8657	   16.00	   18.17	 -472.17	   15.54
     40.8991	   16.00	   18.15	 -472.15	   15.51
     40.9326	   21.00	   18.14	 -467.14	   15.48
     40.9660	   22.00	   18.12	 -466.12	   15.46
     40.9994	   29.00	   18.10	 -459.10	   15.43
     41.0328	   23.00	   18.09	 -465.09	   15.41
     41.0662	   29.00	   18.07	 -459.07	   15.38
     41.0997	   30.00	   18.05	 -458.05	   15.36
     41.1331	   37.00	   18.04	 -451.04	   15.33
     41.1665	   48.00	   18.02	 -440.02	   15.31
     41.1999	   29.00	   18.01	 -459.01	   15.28
     41.2334	   29.00	   18.00	 -459.00	   15.26
     41.2668	   35.00	   17.99	 -452.99	   15.23
     41.3002	   20.00	   17.97	 -467.97	   15.21
     41.3336	   23.00	   17.96	 -464.96	   15.19
     41.3671	   25.00	   17.95	 -462.95	   15.16
     41.4005	   10.00	   17.94	 -477.94	   15.14
     41.4339	   23.00	   17.94	 -464.94	   15.11
     41.4673	   19.00	   17.93	 -468.93	   15.09
     41.5007	   29.00	   17.93	 -458.93	   15.07
     41.5342	   27.00	   17.92	 -460.92	   15.04
     41.5676	   30.00	   17.92	 -457.92	   15.02
     41.6010	   28.00	   17.92	 -459.92	   14.99
     41.6344	   24.00	   17.92	 -463.92	   14.97
     41.6679	   17.00	   17.92	 -470.92	   14.95
     41.7013	   22.00	   17.93	 -465.93	   14.92
     41.7347	   25.00	   17.93	 -462.93	   14.90
     41.7681	   21.00	   17.94	 -466.94	   14.88
     41.8015	   21.00	   17.95	 -466.95	   14.85
     41.8350	   19.00	   17.97	 -468.97	   14.83
     41.8684	   17.00	   17.99	 -470.99	   14.81
     41.9018	   21.00	   18.01	 -467.01	   14.79
     41.9352	   22.00	   18.03	 -466.03	   14.76
     41.9687	   17.00	   18.06	 -471.06	   14.74
     42.0021	   18.00	   18.10	 -470.10	   14.72
     42.0355	   20.00	   18.14	 -468.14	   14.70
     42.0689	   20.00	   18.18	 -468.18	   14.67
     42.1023	   23.00	   18.24	 -465.24	   14.65
     42.1358	   24.00	   18.30	 -464.30	   14.63
     42.1692	   19.00	   18.37	 -469.37	   14.61
     42.2026	   25.00	   18.46	 -463.46	   14.59
     42.2360	   17.00	   18.55	 -471.55	   14.57
     42.2695	   20.00	   18.66	 -468.66	   14.54
     42.3029	   12.00	   18.79	 -476.79	   14.52
     42.3363	   15.00	   18.94	 -473.94	   14.50
     42.3697	   19.00	   19.12	 -470.12	   14.48
     42.4032	   23.00	   19.32	 -466.32	   14.46
     42.4366	   16.00	   19.56	 -473.56	   14.44
     42.4700	   22.00	   19.84	 -467.84	   14.42
     42.5034	   22.00	   20.18	 -468.18	   14.39
     42.5368	   20.00	   20.59	 -470.59	   14.37
     42.5703	   10.00	   21.08	 -481.08	   14.35
     42.6037	   19.00	   21.68	 -472.68	   14.33
     42.6371	   19.00	   22.43	 -473.43	   14.31
     42.6705	   28.00	   23.37	 -465.37	   14.29
     42.7040	   28.00	   24.58	 -466.58	   14.27
     42.7374	   34.00	   26.16	 -462.16	   14.25
     42.7708	   41.00	   28.28	 -457.28	   14.23
     42.8042	   38.00	   31.25	 -463.25	   14.21
     42.8376	   37.00	   35.77	 -468.77	   14.19
     42.8711	   60.00	   43.93	 -453.93	   14.17
     42.9045	   74.00	   61.49	 -457.49	   14.15
     42.9379	   90.00	  100.01	 -480.01	   14.13
     42.9713	  156.00	  172.13	 -486.13	   14.11
     43.0048	  248.00	  275.02	 -497.02	   14.09
     43.0382	  365.00	  365.24	 -470.24	   14.07
     43.0716	  364.00	  374.16	 -480.16	   14.05
     43.1050	  303.00	  326.37	 -493.37	   14.03
     43.1384	  267.00	  282.39	 -485.39	   14.01
     43.1719	  252.00	  233.69	 -451.69	   13.99
     43.2053	  170.00	  167.02	 -467.02	   13.97
     43.2387	  108.00	  107.08	 -469.08	   13.96
     43.2721	   82.00	   67.51	 -455.51	   13.94
     43.3056	   64.00	   46.33	 -452.33	   13.92
     43.3390	   33.00	   36.13	 -473.13	   13.90
     43.3724	   37.00	   30.94	 -463.94	   13.88
     43.4058	   28.00	   27.80	 -469.80	   13.86
     43.4393	   24.00	   25.63	 -471.63	   13.84
     43.4727	   32.00	   24.03	 -462.03	   13.82
     43.5061	   21.00	   22.79	 -471.79	   13.81
     43.5395	   15.00	   21.82	 -476.82	   13.79
     43.5729	   20.00	   21.05	 -471.05	   13.77
     43.6064	   24.00	   20.42	 -466.42	   13.75
     43.6398	   29.00	   19.89	 -460.89	   13.73
     43.6732	   23.00	   19.46	 -466.46	   13.72
     43.7066	   25.00	   19.09	 -464.09	   13.70
     43.7401	   21.00	   18.77	 -467.77	   13.68
     43.7735	   23.00	   18.49	 -465.49	   13.66
     43.8069	   22.00	   18.26	 -466.26	   13.65
     43.8403	   21.00	   18.05	 -467.05	   13.63
     43.8737	   20.00	   17.86	 -467.86	   13.61
     43.9072	   18.00	   17.70	 -469.70	   13.59
     43.9406	   19.00	   17.55	 -468.55	   13.58
     43.9740	   24.00	   17.42	 -463.42	   13.56
     44.0074	   20.00	   17.30	 -467.30	   13.54
     44.0409	   16.00	   17.19	 -471.19	   13.52
     44.0743	   15.00	   17.09	 -472.09	   13.51
     44.1077	   21.00	   16.99	 -465.99	   13.49
     44.1411	   21.00	   16.91	 -465.91	   13.47
     44.1745	   20.00	   16.83	 -466.83	   13.46
     44.2080	   14.00	   16.76	 -472.76	   13.44
     44.2414	   19.00	   16.69	 -467.69	   13.42
     44.2748	   25.00	   16.63	 -461.63	   13.41
     44.3082	   18.00	   16.57	 -468.57	   13.39
     44.3417	   14.00	   16.51	 -472.51	   13.37
     44.3751	   23.00	   16.46	 -463.46	   13.36
     44.4085	   15.00	   16.41	 -471.41	   13.34
     44.4419	   18.00	   16.36	 -468.36	   13.33
     44.4753	   11.00	   16.31	 -475.31	   13.31
     44.5088	   30.00	   16.27	 -456.27	   13.29
     44.5422	   19.00	   16.23	 -467.23	   13.28
     44.5756	   19.00	   16.19	 -467.19	   13.26
     44.6090	   24.00	   16.15	 -462.15	   13.25
     44.6425	   19.00	   16.11	 -467.11	   13.23
     44.6759	   18.00	   16.08	 -468.08	   13.22
     44.7093	   17.00	   16.04	 -469.04	   13.20
     44.7427	    9.00	   16.01	 -477.01	   13.18
     44.7761	   16.00	   15.98	 -469.98	   13.17
     44.8096	   14.00	   15.95	 -471.95	   13.15
     44.8430	   22.00	   15.92	 -463.92	   13.14
     44.8764	   14.00	   15.89	 -471.89	   13.12
     44.9098	   11.00	   15.86	 -474.86	   13.11
     44.9433	   19.00	   15.84	 -466.84	   13.09
     44.9767	   18.00	   15.81	 -467.81	   13.08
     45.0101	   14.00	   15.79	 -471.79	   13.06
     45.0435	   12.00	   15.76	 -473.76	   13.05
     45.0770	   14.00	   15.74	 -471.74	   13.03
     45.1104	   16.00	   15.71	 -469.71	   13.02
     45.1438	   14.00	   15.69	 -471.69	   13.01
     45.1772	   20.00	   15.67	 -465.67	   12.99
     45.2106	    9.00	   15.65	 -476.65	   12.98
     45.2441	   16.00	   15.62	 -469.62	   12.96
     45.2775	    9.00	   15.60	 -476.60	   12.95
     45.3109	   17.00	   15.58	 -468.58	   12.93
     45.3443	   21.00	   15.56	 -464.56	   12.92
     45.3778	   12.00	   15.54	 -473.54	   12.91
     45.4112	   20.00	   15.52	 -465.52	   12.89
     45.4446	   19.00	   15.50	 -466.50	   12.88
     45.4780	   20.00	   15.48	 -465.48	   12.86
     45.5114	   19.00	   15.46	 -466.46	   12.85
     45.5449	   10.00	   15.45	 -475.45	   12.84
     45.5783	   15.00	   15.43	 -470.43	   12.82
     45.6117	   16.00	   15.41	 -469.41	   12.81
     45.6451	   15.00	   15.39	 -470.39	   12.80
     45.6786	   11.00	   15.38	 -474.38	   12.78
     45.7120	    9.00	   15.36	 -476.36	   12.77
     45.7454	   19.00	   15.34	 -466.34	   12.76
     45.7788	   11.00	   15.33	 -474.33	   12.74
     45.8122	   11.00	   15.31	 -474.31	   12.73
     45.8457	   15.00	   15.29	 -470.29	   12.72
     45.8791	   18.00	   15.28	 -467.28	   12.70
     45.9125	   18.00	   15.26	 -467.26	   12.69
     45.9459	   18.00	   15.25	 -467.25	   12.68
     45.9794	   10.00	   15.23	 -475.23	   12.67
     46.0128	   18.00	   15.22	 -467.22	   12.65
     46.0462	   10.00	   15.21	 -475.21	   12.64
     46.0796	   17.00	   15.19	 -468.19	   12.63
     46.1131	   16.00	   15.18	 -469.18	   12.62
     46.1465	   15.00	   15.17	 -470.17	   12.60
     46.1799	    9.00	   15.15	 -476.15	   12.59
     46.2133	   18.00	   15.14	 -467.14	   12.58
     46.2467	   21.00	   15.05	 -464.05	   12.57
     46.2802	    5.00	   15.04	 -480.04	   12.55
     46.3136	   17.00	   15.04	 -468.04	   12.54
     46.3470	   16.00	   14.99	 -468.99	   12.53
     46.3804	   19.00	   14.98	 -465.98	   12.52
     46.4139	   14.00	   14.98	 -470.98	   12.51
     46.4473	   14.00	   14.97	 -470.97	   12.49
     46.4807	   16.00	   14.97	 -468.97	   12.48
     46.5141	   20.00	   14.96	 -464.96	   12.47
     46.5475	   15.00	   14.96	 -469.96	   12.46
     46.5810	   22.00	   14.96	 -462.96	   12.45
     46.6144	   15.00	   14.96	 -469.96	   12.44
     46.6478	   20.00	   14.96	 -464.96	   12.42
     46.6812	   17.00	   14.97	 -467.97	   12.41
     46.7147	   15.00	   14.98	 -469.98	   12.40
     46.7481	   15.00	   15.00	 -470.00	   12.39
     46.7815	   15.00	   15.03	 -470.03	   12.38
     46.8149	   11.00	   15.06	 -474.06	   12.37
     46.8483	   12.00	   15.12	 -473.12	   12.36
     46.8818	    9.00	   15.19	 -476.19	   12.34
     46.9152	   16.00	   15.31	 -469.31	   12.33
     46.9486	   14.00	   15.52	 -471.52	   12.32
     46.9820	   17.00	   15.98	 -468.98	   12.31
     47.0155	   28.00	   16.97	 -458.97	   12.30
     47.0489	   27.00	   18.88	 -461.88	   12.29
     47.0823	   20.00	   21.75	 -471.75	   12.28
     47.1157	   28.00	   24.63	 -466.63	   12.27
     47.1492	   27.00	   25.44	 -468.44	   12.26
     47.1826	   15.00	   24.07	 -479.07	   12.25
     47.2160	   15.00	   22.67	 -477.67	   12.24
     47.2494	   29.00	   21.72	 -462.72	   12.23
     47.2828	   22.00	   20.25	 -468.25	   12.22
     47.3163	   16.00	   18.37	 -472.37	   12.21
     47.3497	   12.00	   16.83	 -474.83	   12.20
     47.3831	   18.00	   15.87	 -467.87	   12.19
     47.4165	   18.00	   15.37	 -467.37	   12.18
     47.4500	   15.00	   15.12	 -470.12	   12.17
     47.4834	   14.00	   14.98	 -470.98	   12.16
     47.5168	   12.00	   14.88	 -472.88	   12.15
     47.5502	    9.00	   14.82	 -475.82	   12.14
     47.5836	   19.00	   14.76	 -465.76	   12.13
     47.6171	   15.00	   14.72	 -469.72	   12.12
     47.6505	   17.00	   14.68	 -467.68	   12.11
     47.6839	   15.00	   14.65	 -469.65	   12.10
     47.7173	   19.00	   14.62	 -465.62	   12.09
     47.7508	   15.00	   14.60	 -469.60	   12.08
     47.7842	   16.00	   14.58	 -468.58	   12.07
     47.8176	   11.00	   14.56	 -473.56	   12.06
     47.8510	   14.00	   14.54	 -470.54	   12.05
     47.8844	   14.00	   14.52	 -470.52	   12.04
     47.9179	   10.00	   14.50	 -474.50	   12.03
     47.9513	   17.00	   14.49	 -467.49	   12.02
     47.9847	   12.00	   14.48	 -472.48	   12.01
     48.0181	   14.00	   14.46	 -470.46	   12.00
     48.0516	   17.00	   14.45	 -467.45	   11.99
     48.0850	   14.00	   14.44	 -470.44	   11.99
     48.1184	    9.00	   14.42	 -475.42	   11.98
     48.1518	    8.00	   14.41	 -476.41	   11.97
     48.1852	   14.00	   14.40	 -470.40	   11.96
     48.2187	   12.00	   14.39	 -472.39	   11.95
     48.2521	   15.00	   14.38	 -469.38	   11.94
     48.2855	    9.00	   14.37	 -475.37	   11.93
     48.3189	   10.00	   14.36	 -474.36	   11.92
     48.3524	   16.00	   14.35	 -468.35	   11.91
     48.3858	   15.00	   14.34	 -469.34	   11.91
     48.4192	   15.00	   14.33	 -469.33	   11.90
     48.4526	   12.00	   14.32	 -472.32	   11.89
     48.4861	   14.00	   14.31	 -470.31	   11.88
     48.5195	    8.00	   14.30	 -476.30	   11.87
     48.5529	   10.00	   14.29	 -474.29	   11.86
     48.5863	   14.00	   14.28	 -470.28	   11.86
     48.6197	   12.00	   14.27	 -472.27	   11.85
     48.6532	   16.00	   14.26	 -468.26	   11.84
     48.6866	   15.00	   14.25	 -469.25	   11.83
     48.7200	   12.00	   14.25	 -472.25	   11.82
     48.7534	   20.00	   14.24	 -464.24	   11.82
     48.7869	   18.00	   14.23	 -466.23	   11.81
     48.8203	   20.00	   14.22	 -464.22	   11.80
     48.8537	   14.00	   14.21	 -470.21	   11.79
     48.8871	   14.00	   14.20	 -470.20	   11.78
     48.9205	   17.00	   14.19	 -467.19	   11.78
     48.9540	   14.00	   14.19	 -470.19	   11.77
     48.9874	   12.00	   14.18	 -472.18	   11.76
     49.0208	   11.00	   14.17	 -473.17	   11.75
     49.0542	   15.00	   14.16	 -469.16	   11.75
     49.0877	   15.00	   14.15	 -469.15	   11.74
     49.1211	    8.00	   14.15	 -476.15	   11.73
     49.1545	   23.00	   14.14	 -461.14	   11.72
     49.1879	   12.00	   14.13	 -472.13	   11.72
     49.2213	   16.00	   14.12	 -468.12	   11.71
     49.2548	    9.00	   14.12	 -475.12	   11.70
     49.2882	   16.00	   14.11	 -468.11	   11.69
     49.3216	   21.00	   14.10	 -463.10	   11.69
     49.3550	    8.00	   14.09	 -476.09	   11.68
     49.3885	   12.00	   14.09	 -472.09	   11.67
     49.4219	   16.00	   14.08	 -468.08	   11.67
     49.4553	   17.00	   14.07	 -467.07	   11.66
     49.4887	   15.00	   14.06	 -469.06	   11.65
     49.5222	   23.00	   14.06	 -461.06	   11.64
     49.5556	   23.00	   14.05	 -461.05	   11.64
     49.5890	    8.00	   14.04	 -476.04	   11.63
     49.6224	   15.00	   14.04	 -469.04	   11.62
     49.6558	   12.00	   14.03	 -472.03	   11.62
     49.6893	   15.00	   14.02	 -469.02	   11.61
     49.7227	   16.00	   14.02	 -468.02	   11.60
     49.7561	   14.00	   14.01	 -470.01	   11.60
     49.7895	   20.00	   14.00	 -464.00	   11.59
     49.8230	    8.00	   14.00	 -476.00	   11.58
     49.8564	   18.00	   13.99	 -465.99	   11.58
     49.8898	   14.00	   13.98	 -469.98	   11.57
     49.9232	   15.00	   13.98	 -468.98	   11.56
     49.9566	   17.00	   13.97	 -466.97	   11.56
     49.9901	   16.00	   13.96	 -467.96	   11.55
     50.0235	   16.00	   13.96	 -467.96	   11.55
     50.0569	   14.00	   13.95	 -469.95	   11.54
     50.0903	   18.00	   13.94	 -465.94	   11.53
     50.1238	   18.00	   13.94	 -465.94	   11.53
     50.1572	   18.00	   13.93	 -465.93	   11.52
     50.1906	   18.00	   13.96	 -465.96	   11.52
     50.2240	    8.00	   13.96	 -475.96	   11.51
     50.2574	   23.00	   13.95	 -460.95	   11.50
     50.2909	    6.00	   13.95	 -477.95	   11.50
     50.3243	   11.00	   13.96	 -472.96	   11.49
     50.3577	   16.00	   13.95	 -467.95	   11.49
     50.3911	   21.00	   13.95	 -462.95	   11.48
     50.4246	   20.00	   13.94	 -463.94	   11.47
     50.4580	    7.00	   13.94	 -476.94	   11.47
     50.4914	   11.00	   13.93	 -472.93	   11.46
     50.5248	   14.00	   13.93	 -469.93	   11.46
     50.5583	   11.00	   13.93	 -472.93	   11.45
     50.5917	   10.00	   13.92	 -473.92	   11.45
     50.6251	   11.00	   13.92	 -472.92	   11.44
     50.6585	   15.00	   13.91	 -468.91	   11.43
     50.6919	   27.00	   13.91	 -456.91	   11.43
     50.7254	   11.00	   13.91	 -472.91	   11.42
     50.7588	   20.00	   13.90	 -463.90	   11.42
     50.7922	   17.00	   13.90	 -466.90	   11.41
     50.8256	   21.00	   13.90	 -462.90	   11.41
     50.8591	   12.00	   13.89	 -471.89	   11.40
     50.8925	    8.00	   13.89	 -475.89	   11.40
     50.9259	   17.00	   13.89	 -466.89	   11.39
     50.9593	   23.00	   13.89	 -460.89	   11.39
     50.9927	   18.00	   13.88	 -465.88	   11.38
     51.0262	   31.00	   13.88	 -452.88	   11.38
     51.0596	   23.00	   13.88	 -460.88	   11.37
     51.0930	   24.00	   13.88	 -459.88	   11.37
     51.1264	   23.00	   13.87	 -460.87	   11.36
     51.1599	   11.00	   13.87	 -472.87	   11.36
     51.1933	    6.00	   13.87	 -477.87	   11.35
     51.2267	   25.00	   13.87	 -458.87	   11.35
     51.2601	   11.00	   13.87	 -472.87	   11.34
     51.2935	   12.00	   13.87	 -471.87	   11.34
     51.3270	   17.00	   13.87	 -466.87	   11.33
     51.3604	   21.00	   13.86	 -462.86	   11.33
     51.3938	   16.00	   13.86	 -467.86	   11.32
     51.4272	   23.00	   13.86	 -460.86	   11.32
     51.4607	   17.00	   13.86	 -466.86	   11.31
     51.4941	   15.00	   13.86	 -468.86	   11.31
     51.5275	   11.00	   13.87	 -472.87	   11.30
     51.5609	    8.00	   13.87	 -475.87	   11.30
     51.5943	   17.00	   13.87	 -466.87	   11.29
     51.6278	   10.00	   13.87	 -473.87	   11.29
     51.6612	   18.00	   13.87	 -465.87	   11.28
     51.6946	    7.00	   13.87	 -476.87	   11.28
     51.7280	   12.00	   13.88	 -471.88	   11.28
     51.7615	   16.00	   13.88	 -467.88	   11.27
     51.7949	   15.00	   13.88	 -468.88	   11.27
     51.8283	   15.00	   13.89	 -468.89	   11.26
     51.8617	   17.00	   13.89	 -466.89	   11.26
     51.8952	   11.00	   13.90	 -472.90	   11.25
     51.9286	   12.00	   13.91	 -471.91	   11.25
     51.9620	   19.00	   13.91	 -464.91	   11.25
     51.9954	    8.00	   13.92	 -475.92	   11.24
     52.0288	   18.00	   13.93	 -465.93	   11.24
     52.0623	   16.00	   13.94	 -467.94	   11.23
     52.0957	   12.00	   13.95	 -471.95	   11.23
     52.1291	   10.00	   13.96	 -473.96	   11.23
     52.1625	   12.00	   13.98	 -471.98	   11.22
     52.1960	   11.00	   13.99	 -472.99	   11.22
     52.2294	   17.00	   14.01	 -467.01	   11.21
     52.2628	   17.00	   14.02	 -467.02	   11.21
     52.2962	    8.00	   14.05	 -476.05	   11.21
     52.3296	   14.00	   14.07	 -470.07	   11.20
     52.3631	   12.00	   14.09	 -472.09	   11.20
     52.3965	   16.00	   14.12	 -468.12	   11.19
     52.4299	   21.00	   14.15	 -463.15	   11.19
     52.4633	   10.00	   14.19	 -474.19	   11.19
     52.4968	   16.00	   14.22	 -468.22	   11.18
     52.5302	   17.00	   14.27	 -467.27	   11.18
     52.5636	   22.00	   14.32	 -462.32	   11.18
     52.5970	   20.00	   14.37	 -464.37	   11.17
     52.6304	   12.00	   14.43	 -472.43	   11.17
     52.6639	   18.00	   14.51	 -466.51	   11.17
     52.6973	   16.00	   14.59	 -468.59	   11.16
     52.7307	   14.00	   14.68	 -470.68	   11.16
     52.7641	   20.00	   14.79	 -464.79	   11.15
     52.7976	   10.00	   14.91	 -474.91	   11.15
     52.8310	   14.00	   15.06	 -471.06	   11.15
     52.8644	   22.00	   15.24	 -463.24	   11.14
     52.8978	   17.00	   15.45	 -468.45	   11.14
     52.9313	   18.00	   15.70	 -467.70	   11.14
     52.9647	   15.00	   16.00	 -471.00	   11.13
     52.9981	    9.00	   16.38	 -477.38	   11.13
     53.0315	   22.00	   16.86	 -464.86	   11.13
     53.0649	   25.00	   17.46	 -462.46	   11.12
     53.0984	   18.00	   18.26	 -470.26	   11.12
     53.1318	   25.00	   19.32	 -464.32	   11.12
     53.1652	   23.00	   20.81	 -467.81	   11.11
     53.1986	   18.00	   23.16	 -475.16	   11.11
     53.2321	   32.00	   27.50	 -465.50	   11.11
     53.2655	   39.00	   36.53	 -467.53	   11.11
     53.2989	   63.00	   54.82	 -461.82	   11.10
     53.3323	   78.00	   86.19	 -478.19	   11.10
     53.3657	  162.00	  127.35	 -435.35	   11.10
     53.3992	  166.00	  159.09	 -463.09	   11.09
     53.4326	  127.00	  156.10	 -499.10	   11.09
     53.4660	  109.00	  132.01	 -493.01	   11.09
     53.4994	  122.00	  114.75	 -462.75	   11.08
     53.5329	   96.00	  107.61	 -481.61	   11.08
     53.5663	   88.00	   94.98	 -476.98	   11.08
     53.5997	   66.00	   72.23	 -476.23	   11.08
     53.6331	   55.00	   50.35	 -465.35	   11.07
     53.6665	   34.00	   35.33	 -471.33	   11.07
     53.7000	   49.00	   26.79	 -447.79	   11.07
     53.7334	   28.00	   22.47	 -464.47	   11.06
     53.7668	   23.00	   20.21	 -467.21	   11.06
     53.8002	   21.00	   18.84	 -467.84	   11.06
     53.8337	   21.00	   17.95	 -466.95	   11.06
     53.8671	   21.00	   17.25	 -466.25	   11.05
     53.9005	   18.00	   16.71	 -468.71	   11.05
     53.9339	   19.00	   16.29	 -467.29	   11.05
     53.9674	   25.00	   15.95	 -460.95	   11.05
     54.0008	   20.00	   15.67	 -465.67	   11.04
     54.0342	    9.00	   15.45	 -476.45	   11.04
     54.0676	   14.00	   15.26	 -471.26	   11.04
     54.1010	   25.00	   15.10	 -460.10	   11.04
     54.1345	   22.00	   14.96	 -462.96	   11.03
     54.1679	   14.00	   14.85	 -470.85	   11.03
     54.2013	   21.00	   14.75	 -463.75	   11.03
     54.2347	   14.00	   14.66	 -470.66	   11.03
     54.2682	   29.00	   14.59	 -455.59	   11.02
     54.3016	   42.00	   14.52	 -442.52	   11.02
     54.3350	   41.00	   14.47	 -443.47	   11.02
     54.3684	   41.00	   14.42	 -443.42	   11.02
     54.4018	   35.00	   14.38	 -449.38	   11.01
     54.4353	   35.00	   14.34	 -449.34	   11.01
     54.4687	   23.00	   14.30	 -461.30	   11.01
     54.5021	   19.00	   14.27	 -465.27	   11.01
     54.5355	   18.00	   14.25	 -466.25	   11.00
     54.5690	   16.00	   14.23	 -468.23	   11.00
     54.6024	   14.00	   14.21	 -470.21	   11.00
     54.6358	   22.00	   14.19	 -462.19	   11.00
     54.6692	   28.00	   14.18	 -456.18	   11.00
     54.7026	   18.00	   14.16	 -466.16	   10.99
     54.7361	   22.00	   14.15	 -462.15	   10.99
     54.7695	   21.00	   14.15	 -463.15	   10.99
     54.8029	   16.00	   14.14	 -468.14	   10.99
     54.8363	   20.00	   14.14	 -464.14	   10.99
     54.8698	   16.00	   14.13	 -468.13	   10.98
     54.9032	   12.00	   14.13	 -472.13	   10.98
     54.9366	   14.00	   14.13	 -470.13	   10.98
     54.9700	   23.00	   14.14	 -461.14	   10.98
     55.0034	   17.00	   14.14	 -467.14	   10.98
     55.0369	   24.00	   14.15	 -460.15	   10.97
     55.0703	   11.00	   14.15	 -473.15	   10.97
     55.1037	   19.00	   14.16	 -465.16	   10.97
     55.1371	   10.00	   14.17	 -474.17	   10.97
     55.1706	    9.00	   14.19	 -475.19	   10.97
     55.2040	   14.00	   14.20	 -470.20	   10.96
     55.2374	   19.00	   14.22	 -465.22	   10.96
     55.2708	   21.00	   14.23	 -463.23	   10.96
     55.3042	   16.00	   14.25	 -468.25	   10.96
     55.3377	   11.00	   14.28	 -473.28	   10.96
     55.3711	   20.00	   14.30	 -464.30	   10.95
     55.4045	   15.00	   14.33	 -469.33	   10.95
     55.4379	   15.00	   14.35	 -469.35	   10.95
     55.4714	   10.00	   14.39	 -474.39	   10.95
     55.5048	   14.00	   14.42	 -470.42	   10.95
     55.5382	   12.00	   14.46	 -472.46	   10.95
     55.5716	   14.00	   14.50	 -470.50	   10.94
     55.6051	   21.00	   14.54	 -463.54	   10.94
     55.6385	   15.00	   14.59	 -469.59	   10.94
     55.6719	   19.00	   14.65	 -465.65	   10.94
     55.7053	   12.00	   14.70	 -472.70	   10.94
     55.7387	   14.00	   14.77	 -470.77	   10.94
     55.7722	   12.00	   14.84	 -472.84	   10.93
     55.8056	   21.00	   14.91	 -463.91	   10.93
     55.8390	   15.00	   14.99	 -469.99	   10.93
     55.8724	   23.00	   15.09	 -462.09	   10.93
     55.9059	   21.00	   15.19	 -464.19	   10.93
     55.9393	   15.00	   15.30	 -470.30	   10.93
     55.9727	   21.00	   15.42	 -464.42	   10.92
     56.0061	   17.00	   15.56	 -468.56	   10.92
     56.0395	   16.00	   15.71	 -469.71	   10.92
     56.0730	   21.00	   15.88	 -464.88	   10.92
     56.1064	   10.00	   16.07	 -476.07	   10.92
     56.1398	   24.00	   16.28	 -462.28	   10.92
     56.1732	   19.00	   16.52	 -467.52	   10.91
     56.2067	   11.00	   16.80	 -475.80	   10.91
     56.2401	   16.00	   17.11	 -471.11	   10.91
     56.2735	   15.00	   17.47	 -472.47	   10.91
     56.3069	   25.00	   17.88	 -462.88	   10.91
     56.3403	   21.00	   18.37	 -467.37	   10.91
     56.3738	   11.00	   18.94	 -477.94	   10.91
     56.4072	   21.00	   19.61	 -468.61	   10.90
     56.4406	   20.00	   20.42	 -470.42	   10.90
     56.4740	   28.00	   21.39	 -463.39	   10.90
     56.5075	   16.00	   22.58	 -476.58	   10.90
     56.5409	   19.00	   24.06	 -475.06	   10.90
     56.5743	   24.00	   25.93	 -471.93	   10.90
     56.6077	   30.00	   28.35	 -468.35	   10.90
     56.6412	   38.00	   31.53	 -463.53	   10.89
     56.6746	   45.00	   35.87	 -460.87	   10.89
     56.7080	   49.00	   42.38	 -463.38	   10.89
     56.7414	   55.00	   53.50	 -468.50	   10.89
     56.7748	   84.00	   75.56	 -461.56	   10.89
     56.8083	  136.00	  120.69	 -454.69	   10.89
     56.8417	  206.00	  203.40	 -467.40	   10.89
     56.8751	  369.00	  325.87	 -426.87	   10.89
     56.9085	  604.00	  452.83	 -318.83	   10.88
     56.9420	  608.00	  498.05	 -360.05	   10.88
     56.9754	  445.00	  434.99	 -459.99	   10.88
     57.0088	  392.00	  356.11	 -434.11	   10.88
     57.0422	  361.00	  319.82	 -428.82	   10.88
     57.0756	  372.00	  307.77	 -405.77	   10.88
     57.1091	  292.00	  265.18	 -443.18	   10.88
     57.1425	  205.00	  192.22	 -457.22	   10.88
     57.1759	  141.00	  125.39	 -454.39	   10.87
     57.2093	  105.00	   80.14	 -445.14	   10.87
     57.2428	   69.00	   54.78	 -455.78	   10.87
     57.2762	   56.00	   41.76	 -455.76	   10.87
     57.3096	   37.00	   34.76	 -467.76	   10.87
     57.3430	   30.00	   30.43	 -470.43	   10.87
     57.3764	   39.00	   27.40	 -458.40	   10.87
     57.4099	   36.00	   25.14	 -459.14	   10.87
     57.4433	   22.00	   23.38	 -471.38	   10.87
     57.4767	   30.00	   22.00	 -462.00	   10.86
     57.5101	   21.00	   20.88	 -469.88	   10.86
     57.5436	   24.00	   19.96	 -465.96	   10.86
     57.5770	   21.00	   19.21	 -468.21	   10.86
     57.6104	   16.00	   18.57	 -472.57	   10.86
     57.6438	   21.00	   18.03	 -467.03	   10.86
     57.6772	   24.00	   17.57	 -463.57	   10.86
     57.7107	   27.00	   17.18	 -460.18	   10.86
     57.7441	   18.00	   16.83	 -468.83	   10.86
     57.7775	   11.00	   16.53	 -475.53	   10.85
     57.8109	   18.00	   16.27	 -468.27	   10.85
     57.8444	   16.00	   16.03	 -470.03	   10.85
     57.8778	   21.00	   15.83	 -464.83	   10.85
     57.9112	   19.00	   15.64	 -466.64	   10.85
     57.9446	   10.00	   15.48	 -475.48	   10.85
     57.9781	   17.00	   15.33	 -468.33	   10.85
     58.0115	   15.00	   15.19	 -470.19	   10.85
     58.0449	   22.00	   15.07	 -463.07	   10.85
     58.0783	   10.00	   14.96	 -474.96	   10.85
     58.1117	   20.00	   14.86	 -464.86	   10.84
     58.1452	   18.00	   14.76	 -466.76	   10.84
     58.1786	   22.00	   14.68	 -462.68	   10.84
     58.2120	   11.00	   14.60	 -473.60	   10.84
     58.2454	   16.00	   14.53	 -468.53	   10.84
     58.2789	   14.00	   14.46	 -470.46	   10.84
     58.3123	   11.00	   14.40	 -473.40	   10.84
     58.3457	    8.00	   14.34	 -476.34	   10.84
     58.3791	   17.00	   14.29	 -467.29	   10.84
     58.4125	   12.00	   14.24	 -472.24	   10.84
     58.4460	   12.00	   14.19	 -472.19	   10.84
     58.4794	   14.00	   14.15	 -470.15	   10.83
     58.5128	   19.00	   14.11	 -465.11	   10.83
     58.5462	   19.00	   14.07	 -465.07	   10.83
     58.5797	   12.00	   14.04	 -472.04	   10.83
     58.6131	   20.00	   14.00	 -464.00	   10.83
     58.6465	    8.00	   13.97	 -475.97	   10.83
     58.6799	   24.00	   13.94	 -459.94	   10.83
     58.7133	   10.00	   13.91	 -473.91	   10.83
     58.7468	   20.00	   13.89	 -463.89	   10.83
     58.7802	    8.00	   13.86	 -475.86	   10.83
     58.8136	   19.00	   13.84	 -464.84	   10.83
     58.8470	   17.00	   13.82	 -466.82	   10.82
     58.8805	   15.00	   13.79	 -468.79	   10.82
     58.9139	   20.00	   13.77	 -463.77	   10.82
     58.9473	   23.00	   13.75	 -460.75	   10.82
     58.9807	   16.00	   13.74	 -467.74	   10.82
     59.0142	   11.00	   13.72	 -472.72	   10.82
     59.0476	   20.00	   13.70	 -463.70	   10.82
     59.0810	   14.00	   13.69	 -469.69	   10.82
     59.1144	   17.00	   13.67	 -466.67	   10.82
     59.1478	   22.00	   13.66	 -461.66	   10.82
     59.1813	   12.00	   13.64	 -471.64	   10.82
     59.2147	   15.00	   13.82	 -468.82	   10.81
     59.2481	   15.00	   13.81	 -468.81	   10.81
     59.2815	   17.00	   13.80	 -466.80	   10.81
     59.3150	   18.00	   13.79	 -465.79	   10.81
     59.3484	   17.00	   13.79	 -466.79	   10.81
     59.3818	   16.00	   13.87	 -467.87	   10.81
     59.4152	   18.00	   13.87	 -465.87	   10.81
     59.4486	   29.00	   13.86	 -454.86	   10.81
     59.4821	   22.00	   13.86	 -461.86	   10.81
     59.5155	   28.00	   13.86	 -455.86	   10.81
     59.5489	   24.00	   13.86	 -459.86	   10.81
     59.5823	   36.00	   13.86	 -447.86	   10.81
     59.6158	   32.00	   13.86	 -451.86	   10.80
     59.6492	   46.00	   13.86	 -437.86	   10.80
     59.6826	   43.00	   13.86	 -440.86	   10.80
     59.7160	   36.00	   13.86	 -447.86	   10.80
     59.7494	   23.00	   13.86	 -460.86	   10.80
     59.7829	   19.00	   13.86	 -464.86	   10.80
     59.8163	   24.00	   13.86	 -459.86	   10.80
     59.8497	   18.00	   13.87	 -465.87	   10.80
     59.8831	   20.00	   13.87	 -463.87	   10.80
     59.9166	   17.00	   13.88	 -466.88	   10.80
     59.9500	   17.00	   13.88	 -466.88	   10.80
     59.9834	   15.00	   13.89	 -468.89	   10.79
     60.0168	   11.00	   13.89	 -472.89	   10.79
     60.0503	   20.00	   13.90	 -463.90	   10.79
     60.0837	   19.00	   13.91	 -464.91	   10.79
     60.1171	   20.00	   13.92	 -463.92	   10.79
     60.1505	   19.00	   13.93	 -464.93	   10.79
     60.1839	   28.00	   13.94	 -455.94	   10.79
     60.2174	   10.00	   13.82	 -473.82	   10.79
     60.2508	    9.00	   13.83	 -474.83	   10.79
     60.2842	   20.00	   13.85	 -463.85	   10.79
     60.3176	   14.00	   13.86	 -469.86	   10.79
     60.3511	   22.00	   13.88	 -461.88	   10.79
     60.3845	   18.00	   13.84	 -465.84	   10.78
     60.4179	   14.00	   13.86	 -469.86	   10.78
     60.4513	   14.00	   13.88	 -469.88	   10.78
     60.4847	   14.00	   13.90	 -469.90	   10.78
     60.5182	    9.00	   13.92	 -474.92	   10.78
     60.5516	   21.00	   13.94	 -462.94	   10.78
     60.5850	   18.00	   13.97	 -465.97	   10.78
     60.6184	   19.00	   13.99	 -464.99	   10.78
     60.6519	   15.00	   14.02	 -469.02	   10.78
     60.6853	   25.00	   14.05	 -459.05	   10.78
     60.7187	   11.00	   14.08	 -473.08	   10.78
     60.7521	   19.00	   14.11	 -465.11	   10.78
     60.7855	   15.00	   14.15	 -469.15	   10.77
     60.8190	   20.00	   14.18	 -464.18	   10.77
     60.8524	   22.00	   14.22	 -462.22	   10.77
     60.8858	   21.00	   14.26	 -463.26	   10.77
     60.9192	   14.00	   14.31	 -470.31	   10.77
     60.9527	    9.00	   14.35	 -475.35	   10.77
     60.9861	   16.00	   14.40	 -468.40	   10.77
     61.0195	   18.00	   14.46	 -466.46	   10.77
     61.0529	   12.00	   14.51	 -472.51	   10.77
     61.0863	   11.00	   14.57	 -473.57	   10.77
     61.1198	   19.00	   14.64	 -465.64	   10.77
     61.1532	   16.00	   14.71	 -468.71	   10.76
     61.1866	   11.00	   14.78	 -473.78	   10.76
     61.2200	   19.00	   14.86	 -465.86	   10.76
     61.2535	   24.00	   14.95	 -460.95	   10.76
     61.2869	   16.00	   15.04	 -469.04	   10.76
     61.3203	   17.00	   15.14	 -468.14	   10.76
     61.3537	   17.00	   15.25	 -468.25	   10.76
     61.3872	   24.00	   15.37	 -461.37	   10.76
     61.4206	   19.00	   15.50	 -466.50	   10.76
     61.4540	   17.00	   15.64	 -468.64	   10.76
     61.4874	    9.00	   15.79	 -476.79	   10.75
     61.5208	    8.00	   15.96	 -477.96	   10.75
     61.5543	   18.00	   16.15	 -468.15	   10.75
     61.5877	   17.00	   16.36	 -469.36	   10.75
     61.6211	   15.00	   16.59	 -471.59	   10.75
     61.6545	   12.00	   16.84	 -474.84	   10.75
     61.6880	   17.00	   17.13	 -470.13	   10.75
     61.7214	   25.00	   17.45	 -462.45	   10.75
     61.7548	   19.00	   17.81	 -468.81	   10.75
     61.7882	   22.00	   18.22	 -466.22	   10.75
     61.8216	   19.00	   18.69	 -469.69	   10.74
     61.8551	   15.00	   19.22	 -474.22	   10.74
     61.8885	   20.00	   19.84	 -469.84	   10.74
     61.9219	   25.00	   20.56	 -465.56	   10.74
     61.9553	   25.00	   21.39	 -466.39	   10.74
     61.9888	   22.00	   22.38	 -470.38	   10.74
     62.0222	   22.00	   23.56	 -471.56	   10.74
     62.0556	   22.00	   24.99	 -472.99	   10.74
     62.0890	   32.00	   26.73	 -464.73	   10.74
     62.1224	   32.00	   28.88	 -466.88	   10.74
     62.1559	   35.00	   31.60	 -466.60	   10.73
     62.1893	   44.00	   35.08	 -461.08	   10.73
     62.2227	   46.00	   39.66	 -463.66	   10.73
     62.2561	   43.00	   45.94	 -472.94	   10.73
     62.2896	   49.00	   55.23	 -476.23	   10.73
     62.3230	   69.00	   70.96	 -471.96	   10.73
     62.3564	   96.00	  101.32	 -475.32	   10.73
     62.3898	  142.00	  161.58	 -489.58	   10.73
     62.4233	  225.00	  269.62	 -514.62	   10.73
     62.4567	  387.00	  429.35	 -512.35	   10.72
     62.4901	  597.00	  600.79	 -473.79	   10.72
     62.5235	  785.00	  676.26	 -361.26	   10.72
     62.5569	  629.00	  598.88	 -439.88	   10.72
     62.5904	  475.00	  477.50	 -472.50	   10.72
     62.6238	  366.00	  408.98	 -512.98	   10.72
     62.6572	  418.00	  401.64	 -453.64	   10.72
     62.6906	  422.00	  393.96	 -441.96	   10.72
     62.7241	  368.00	  327.30	 -429.30	   10.72
     62.7575	  280.00	  231.16	 -421.16	   10.71
     62.7909	  177.00	  149.82	 -442.82	   10.71
     62.8243	   99.00	   96.51	 -467.51	   10.71
     62.8577	   83.00	   66.72	 -453.72	   10.71
     62.8912	   69.00	   51.05	 -452.05	   10.71
     62.9246	   52.00	   42.28	 -460.28	   10.71
     62.9580	   41.00	   36.68	 -465.68	   10.71
     62.9914	   29.00	   32.68	 -473.68	   10.71
     63.0249	   47.00	   29.65	 -452.65	   10.70
     63.0583	   39.00	   27.29	 -458.29	   10.70
     63.0917	   31.00	   25.41	 -464.41	   10.70
     63.1251	   32.00	   23.88	 -461.88	   10.70
     63.1585	   25.00	   22.63	 -467.63	   10.70
     63.1920	   28.00	   21.58	 -463.58	   10.70
     63.2254	   23.00	   20.70	 -467.70	   10.70
     63.2588	   38.00	   19.95	 -451.95	   10.70
     63.2922	   21.00	   19.31	 -468.31	   10.69
     63.3257	   20.00	   18.75	 -468.75	   10.69
     63.3591	   23.00	   18.27	 -465.27	   10.69
     63.3925	   20.00	   17.84	 -467.84	   10.69
     63.4259	   27.00	   17.47	 -460.47	   10.69
     63.4594	   21.00	   17.14	 -466.14	   10.69
     63.4928	   22.00	   16.84	 -464.84	   10.69
     63.5262	   16.00	   16.58	 -470.58	   10.69
     63.5596	   19.00	   16.34	 -467.34	   10.68
     63.5930	   16.00	   16.13	 -470.13	   10.68
     63.6265	   25.00	   15.94	 -460.94	   10.68
     63.6599	   15.00	   15.76	 -470.76	   10.68
     63.6933	   12.00	   15.60	 -473.60	   10.68
     63.7267	   22.00	   15.46	 -463.46	   10.68
     63.7602	   14.00	   15.32	 -471.32	   10.68
     63.7936	   21.00	   15.20	 -464.20	   10.67
     63.8270	   11.00	   15.09	 -474.09	   10.67
     63.8604	   25.00	   14.99	 -459.99	   10.67
     63.8938	   16.00	   14.89	 -468.89	   10.67
     63.9273	   15.00	   14.80	 -469.80	   10.67
     63.9607	   15.00	   14.72	 -469.72	   10.67
     63.9941	   14.00	   14.64	 -470.64	   10.67
     64.0275	   14.00	   14.57	 -470.57	   10.66
     64.0610	   18.00	   14.50	 -466.50	   10.66
     64.0944	   10.00	   14.44	 -474.44	   10.66
     64.1278	   12.00	   14.38	 -472.38	   10.66
     64.1612	   18.00	   14.33	 -466.33	   10.66
     64.1946	    8.00	   14.28	 -476.28	   10.66
     64.2281	   16.00	   14.23	 -468.23	   10.66
     64.2615	   16.00	   14.18	 -468.18	   10.65
     64.2949	   17.00	   14.14	 -467.14	   10.65
     64.3283	   22.00	   14.10	 -462.10	   10.65
     64.3618	   17.00	   14.07	 -467.07	   10.65
     64.3952	   21.00	   14.03	 -463.03	   10.65
     64.4286	   17.00	   14.00	 -467.00	   10.65
     64.4620	   11.00	   13.97	 -472.97	   10.64
     64.4954	   12.00	   13.94	 -471.94	   10.64
     64.5289	   15.00	   13.91	 -468.91	   10.64
     64.5623	   16.00	   13.88	 -467.88	   10.64
     64.5957	   18.00	   13.86	 -465.86	   10.64
     64.6291	   24.00	   13.83	 -459.83	   10.64
     64.6626	   17.00	   13.81	 -466.81	   10.63
     64.6960	   18.00	   13.79	 -465.79	   10.63
     64.7294	   15.00	   13.77	 -468.77	   10.63
     64.7628	    8.00	   13.76	 -475.76	   10.63
     64.7962	   11.00	   13.74	 -472.74	   10.63
     64.8297	   14.00	   13.73	 -469.73	   10.63
     64.8631	   16.00	   13.71	 -467.71	   10.62
     64.8965	   14.00	   13.70	 -469.70	   10.62
     64.9299	    6.00	   13.69	 -477.69	   10.62
     64.9634	   17.00	   13.68	 -466.68	   10.62
     64.9968	   18.00	   13.67	 -465.67	   10.62
     65.0302	   16.00	   13.67	 -467.67	   10.61
     65.0636	   12.00	   13.67	 -471.67	   10.61
     65.0971	   17.00	   13.67	 -466.67	   10.61
     65.1305	   12.00	   13.67	 -471.67	   10.61
     65.1639	   21.00	   13.68	 -462.68	   10.61
     65.1973	   19.00	   13.69	 -464.69	   10.61
     65.2307	   18.00	   13.70	 -465.70	   10.60
     65.2642	   15.00	   13.72	 -468.72	   10.60
     65.2976	   15.00	   13.75	 -468.75	   10.60
     65.3310	   21.00	   13.79	 -462.79	   10.60
     65.3644	    6.00	   13.84	 -477.84	   10.60
     65.3979	   11.00	   13.91	 -472.91	   10.59
     65.4313	   17.00	   14.01	 -467.01	   10.59
     65.4647	   11.00	   14.14	 -473.14	   10.59
     65.4981	   12.00	   14.34	 -472.34	   10.59
     65.5315	   15.00	   14.67	 -469.67	   10.59
     65.5650	   12.00	   15.31	 -473.31	   10.58
     65.5984	   20.00	   16.57	 -466.57	   10.58
     65.6318	   12.00	   18.85	 -476.85	   10.58
     65.6652	   24.00	   22.32	 -468.32	   10.58
     65.6987	   17.00	   26.35	 -479.35	   10.58
     65.7321	   22.00	   28.78	 -476.78	   10.57
     65.7655	   31.00	   27.60	 -466.60	   10.57
     65.7989	   16.00	   24.63	 -478.63	   10.57
     65.8323	   17.00	   22.47	 -475.47	   10.57
     65.8658	   22.00	   21.76	 -469.76	   10.57
     65.8992	   22.00	   22.04	 -470.04	   10.56
     65.9326	   30.00	   21.42	 -461.42	   10.56
     65.9660	   20.00	   19.48	 -469.48	   10.56
     65.9995	   12.00	   17.34	 -475.34	   10.56
     66.0329	   17.00	   15.63	 -468.63	   10.56
     66.0663	   14.00	   14.62	 -470.62	   10.55
     66.0997	   14.00	   14.07	 -470.07	   10.55
     66.1331	    8.00	   13.78	 -475.78	   10.55
     66.1666	   14.00	   13.60	 -469.60	   10.55
     66.2000	   21.00	   13.48	 -462.48	   10.55
     66.2334	   14.00	   13.39	 -469.39	   10.54
     66.2668	    9.00	   13.32	 -474.32	   10.54
     66.3003	   21.00	   13.27	 -462.27	   10.54
     66.3337	   19.00	   13.23	 -464.23	   10.54
     66.3671	   11.00	   13.19	 -472.19	   10.53
     66.4005	   15.00	   13.16	 -468.16	   10.53
     66.4340	   12.00	   13.13	 -471.13	   10.53
     66.4674	    7.00	   13.11	 -476.11	   10.53
     66.5008	   10.00	   13.09	 -473.09	   10.52
     66.5342	   11.00	   13.08	 -472.08	   10.52
     66.5676	   14.00	   13.06	 -469.06	   10.52
     66.6011	   15.00	   13.05	 -468.05	   10.52
     66.6345	   11.00	   13.04	 -472.04	   10.52
     66.6679	   12.00	   13.03	 -471.03	   10.51
     66.7013	   11.00	   13.02	 -472.02	   10.51
     66.7348	   15.00	   13.01	 -468.01	   10.51
     66.7682	    5.00	   13.01	 -478.01	   10.51
     66.8016	   14.00	   13.00	 -469.00	   10.50
     66.8350	    6.00	   12.99	 -476.99	   10.50
     66.8684	   19.00	   12.98	 -463.98	   10.50
     66.9019	   16.00	   12.97	 -466.97	   10.50
     66.9353	    7.00	   12.97	 -475.97	   10.49
     66.9687	   12.00	   12.96	 -470.96	   10.49
     67.0021	   12.00	   12.95	 -470.95	   10.49
     67.0356	   15.00	   12.95	 -467.95	   10.49
     67.0690	   17.00	   12.94	 -465.94	   10.48
     67.1024	   16.00	   12.93	 -466.93	   10.48
     67.1358	   14.00	   12.93	 -468.93	   10.48
     67.1693	   15.00	   12.92	 -467.92	   10.48
     67.2027	   17.00	   12.92	 -465.92	   10.47
     67.2361	   10.00	   12.92	 -472.92	   10.47
     67.2695	    8.00	   12.91	 -474.91	   10.47
     67.3029	   12.00	   12.91	 -470.91	   10.47
     67.3364	   11.00	   12.90	 -471.90	   10.46
     67.3698	   17.00	   12.90	 -465.90	   10.46
     67.4032	    6.00	   12.89	 -476.89	   10.46
     67.4366	   14.00	   12.89	 -468.89	   10.46
     67.4701	   17.00	   12.89	 -465.89	   10.45
     67.5035	   18.00	   12.90	 -464.90	   10.45
     67.5369	   23.00	   12.90	 -459.90	   10.45
     67.5703	   17.00	   12.89	 -465.89	   10.44
     67.6037	   10.00	   12.89	 -472.89	   10.44
     67.6372	   12.00	   12.89	 -470.89	   10.44
     67.6706	   11.00	   12.88	 -471.88	   10.44
     67.7040	    5.00	   12.89	 -477.89	   10.43
     67.7374	   11.00	   12.88	 -471.88	   10.43
     67.7709	   16.00	   12.88	 -466.88	   10.43
     67.8043	   17.00	   12.88	 -465.88	   10.43
     67.8377	   16.00	   12.88	 -466.88	   10.42
     67.8711	   18.00	   12.87	 -464.87	   10.42
     67.9045	   12.00	   12.87	 -470.87	   10.42
     67.9380	   15.00	   12.87	 -467.87	   10.41
     67.9714	   11.00	   12.86	 -471.86	   10.41
     68.0048	    7.00	   12.86	 -475.86	   10.41
     68.0382	   12.00	   12.86	 -470.86	   10.40
     68.0717	   15.00	   12.86	 -467.86	   10.40
     68.1051	   12.00	   12.85	 -470.85	   10.40
     68.1385	   16.00	   12.85	 -466.85	   10.40
     68.1719	   17.00	   12.85	 -465.85	   10.39
     68.2053	   12.00	   12.85	 -470.85	   10.39
     68.2388	   16.00	   12.84	 -466.84	   10.39
     68.2722	   17.00	   12.84	 -465.84	   10.38
     68.3056	    8.00	   12.84	 -474.84	   10.38
     68.3390	   22.00	   12.84	 -460.84	   10.38
     68.3725	   11.00	   12.83	 -471.83	   10.38
     68.4059	   10.00	   12.83	 -472.83	   10.37
     68.4393	    7.00	   12.83	 -475.83	   10.37
     68.4727	   15.00	   12.83	 -467.83	   10.37
     68.5061	    9.00	   12.83	 -473.83	   10.36
     68.5396	   19.00	   12.82	 -463.82	   10.36
     68.5730	    8.00	   12.82	 -474.82	   10.36
     68.6064	   17.00	   12.82	 -465.82	   10.35
     68.6398	   14.00	   12.82	 -468.82	   10.35
     68.6733	   10.00	   12.82	 -472.82	   10.35
     68.7067	   10.00	   12.81	 -472.81	   10.34
     68.7401	   16.00	   12.81	 -466.81	   10.34
     68.7735	   12.00	   12.81	 -470.81	   10.34
     68.8070	   11.00	   12.81	 -471.81	   10.33
     68.8404	   15.00	   12.81	 -467.81	   10.33
     68.8738	   18.00	   12.81	 -464.81	   10.33
     68.9072	    9.00	   12.80	 -473.80	   10.32
     68.9406	   15.00	   12.80	 -467.80	   10.32
     68.9741	    9.00	   12.80	 -473.80	   10.32
     69.0075	   15.00	   12.80	 -467.80	   10.31
     69.0409	    6.00	   12.80	 -476.80	   10.31
     69.0743	   19.00	   12.80	 -463.80	   10.31
     69.1078	   15.00	   12.79	 -467.79	   10.30
     69.1412	   11.00	   12.79	 -471.79	   10.30
     69.1746	   15.00	   12.79	 -467.79	   10.30
     69.2080	   11.00	   12.79	 -471.79	   10.29
     69.2414	   12.00	   12.79	 -470.79	   10.29
     69.2749	    7.00	   12.79	 -475.79	   10.29
     69.3083	    6.00	   12.79	 -476.79	   10.28
     69.3417	   14.00	   12.79	 -468.79	   10.28
     69.3751	   12.00	   12.79	 -470.79	   10.28
     69.4086	   20.00	   12.79	 -462.79	   10.27
     69.4420	    7.00	   12.79	 -475.79	   10.27
     69.4754	    7.00	   12.80	 -475.80	   10.27
     69.5088	   17.00	   12.80	 -465.80	   10.26
     69.5423	   12.00	   12.80	 -470.80	   10.26
     69.5757	   12.00	   12.80	 -470.80	   10.26
     69.6091	    9.00	   12.81	 -473.81	   10.25
     69.6425	   19.00	   12.81	 -463.81	   10.25
     69.6759	   15.00	   12.82	 -467.82	   10.25
     69.7094	   10.00	   12.82	 -472.82	   10.24
     69.7428	   15.00	   12.83	 -467.83	   10.24
     69.7762	   11.00	   12.83	 -471.83	   10.23
     69.8096	   14.00	   12.84	 -468.84	   10.23
     69.8430	   15.00	   12.85	 -467.85	   10.23
     69.8765	   19.00	   12.86	 -463.86	   10.22
     69.9099	   19.00	   12.87	 -463.87	   10.22
     69.9433	   15.00	   12.88	 -467.88	   10.22
     69.9767	   17.00	   12.90	 -465.90	   10.21
     70.0102	   20.00	   12.91	 -462.91	   10.21
     70.0436	   12.00	   12.93	 -470.93	   10.21
     70.0770	   17.00	   12.95	 -465.95	   10.20
     70.1104	   15.00	   12.97	 -467.97	   10.20
     70.1439	   15.00	   13.00	 -468.00	   10.19
     70.1773	    9.00	   13.03	 -474.03	   10.19
     70.2107	   17.00	   13.07	 -466.07	   10.19
     70.2441	   17.00	   13.11	 -466.11	   10.18
     70.2775	   17.00	   13.15	 -466.15	   10.18
     70.3110	   15.00	   13.21	 -468.21	   10.17
     70.3444	   12.00	   13.27	 -471.27	   10.17
     70.3778	   20.00	   13.35	 -463.35	   10.17
     70.4112	   23.00	   13.44	 -460.44	   10.16
     70.4447	   23.00	   13.55	 -460.55	   10.16
     70.4781	   15.00	   13.69	 -468.69	   10.16
     70.5115	   10.00	   13.90	 -473.90	   10.15
     70.5449	   19.00	   14.11	 -465.11	   10.15
     70.5783	   19.00	   14.37	 -465.37	   10.14
     70.6118	    8.00	   14.72	 -476.72	   10.14
     70.6452	   14.00	   15.18	 -471.18	   10.14
     70.6786	   15.00	   15.85	 -470.85	   10.13
     70.7120	   14.00	   16.94	 -472.94	   10.13
     70.7455	   25.00	   18.86	 -463.86	   10.12
     70.7789	   22.00	   22.52	 -470.52	   10.12
     70.8123	   31.00	   29.12	 -468.12	   10.12
     70.8457	   52.00	   39.44	 -457.44	   10.11
     70.8792	   65.00	   52.31	 -457.31	   10.11
     70.9126	   72.00	   62.44	 -460.44	   10.10
     70.9460	   82.00	   62.05	 -450.05	   10.10
     70.9794	   64.00	   52.88	 -458.88	   10.09
     71.0128	   56.00	   43.72	 -457.72	   10.09
     71.0463	   45.00	   39.35	 -464.35	   10.09
     71.0797	   36.00	   39.81	 -473.81	   10.08
     71.1131	   54.00	   41.52	 -457.52	   10.08
     71.1465	   46.00	   39.35	 -463.35	   10.07
     71.1800	   33.00	   33.08	 -470.08	   10.07
     71.2134	   32.00	   26.39	 -464.39	   10.07
     71.2468	   18.00	   21.32	 -473.32	   10.06
     71.2802	   22.00	   18.14	 -466.14	   10.06
     71.3136	   24.00	   16.35	 -462.35	   10.05
     71.3471	   12.00	   15.36	 -473.36	   10.05
     71.3805	   18.00	   14.77	 -466.77	   10.04
     71.4139	   20.00	   14.38	 -464.38	   10.04
     71.4473	   12.00	   14.08	 -472.08	   10.04
     71.4808	   24.00	   13.88	 -459.88	   10.03
     71.5142	   15.00	   13.70	 -468.70	   10.03
     71.5476	   11.00	   13.56	 -472.56	   10.02
     71.5810	   16.00	   13.44	 -467.44	   10.02
     71.6144	   10.00	   13.34	 -473.34	   10.01
     71.6479	   19.00	   13.26	 -464.26	   10.01
     71.6813	   17.00	   13.19	 -466.19	   10.00
     71.7147	   15.00	   13.14	 -468.14	   10.00
     71.7481	   10.00	   13.09	 -473.09	   10.00
     71.7816	   16.00	   13.05	 -467.05	    9.99
     71.8150	    6.00	   13.01	 -477.01	    9.99
     71.8484	   14.00	   12.98	 -468.98	    9.98
     71.8818	   17.00	   12.95	 -465.95	    9.98
     71.9153	    6.00	   12.92	 -476.92	    9.97
     71.9487	   20.00	   12.90	 -462.90	    9.97
     71.9821	   17.00	   12.88	 -465.88	    9.96
     72.0155	   23.00	   12.86	 -459.86	    9.96
     72.0489	   10.00	   12.85	 -472.85	    9.95
     72.0824	   12.00	   12.83	 -470.83	    9.95
     72.1158	   15.00	   12.82	 -467.82	    9.95
     72.1492	   11.00	   12.81	 -471.81	    9.94
     72.1826	   10.00	   12.81	 -472.81	    9.94
     72.2160	   14.00	   12.80	 -468.80	    9.93
     72.2495	   15.00	   12.79	 -467.79	    9.93
     72.2829	   12.00	   12.79	 -470.79	    9.92
     72.3163	   10.00	   12.79	 -472.79	    9.92
     72.3497	   14.00	   12.79	 -468.79	    9.91
     72.3832	   10.00	   12.79	 -472.79	    9.91
     72.4166	   14.00	   12.79	 -468.79	    9.90
     72.4500	   19.00	   12.79	 -463.79	    9.90
     72.4834	    5.00	   12.79	 -477.79	    9.89
     72.5169	   15.00	   12.80	 -467.80	    9.89
     72.5503	   19.00	   12.81	 -463.81	    9.88
     72.5837	    5.00	   12.81	 -477.81	    9.88
     72.6171	   11.00	   12.82	 -471.82	    9.88
     72.6505	   12.00	   12.83	 -470.83	    9.87
     72.6840	   12.00	   12.85	 -470.85	    9.87
     72.7174	    9.00	   12.86	 -473.86	    9.86
     72.7508	   16.00	   12.88	 -466.88	    9.86
     72.7842	   11.00	   12.90	 -471.90	    9.85
     72.8177	   18.00	   12.92	 -464.92	    9.85
     72.8511	   11.00	   12.94	 -471.94	    9.84
     72.8845	    9.00	   12.97	 -473.97	    9.84
     72.9179	    9.00	   13.00	 -474.00	    9.83
     72.9513	   17.00	   13.04	 -466.04	    9.83
     72.9848	   10.00	   13.07	 -473.07	    9.82
     73.0182	    6.00	   13.12	 -477.12	    9.82
     73.0516	   16.00	   13.16	 -467.16	    9.81
     73.0850	    9.00	   13.22	 -474.22	    9.81
     73.1185	   12.00	   13.28	 -471.28	    9.80
     73.1519	   10.00	   13.35	 -473.35	    9.80
     73.1853	    7.00	   13.43	 -476.43	    9.79
     73.2187	   16.00	   13.52	 -467.52	    9.79
     73.2522	   15.00	   13.62	 -468.62	    9.78
     73.2856	   12.00	   13.74	 -471.74	    9.78
     73.3190	   15.00	   13.87	 -468.87	    9.77
     73.3524	   12.00	   14.03	 -472.03	    9.77
     73.3858	   17.00	   14.22	 -467.22	    9.76
     73.4193	    8.00	   14.44	 -476.44	    9.76
     73.4527	   15.00	   14.70	 -469.70	    9.75
     73.4861	   18.00	   15.01	 -467.01	    9.75
     73.5195	   20.00	   15.39	 -465.39	    9.74
     73.5530	   18.00	   15.86	 -467.86	    9.74
     73.5864	   14.00	   16.45	 -472.45	    9.73
     73.6198	   19.00	   17.19	 -468.19	    9.73
     73.6532	   20.00	   18.17	 -468.17	    9.72
     73.6866	   25.00	   19.49	 -464.49	    9.71
     73.7201	   22.00	   21.43	 -469.43	    9.71
     73.7535	   21.00	   24.60	 -473.60	    9.70
     73.7869	   18.00	   30.39	 -482.39	    9.70
     73.8203	   28.00	   41.17	 -483.17	    9.69
     73.8538	   46.00	   59.73	 -483.73	    9.69
     73.8872	   91.00	   87.16	 -466.16	    9.68
     73.9206	  109.00	  118.97	 -479.97	    9.68
     73.9540	  135.00	  139.94	 -474.94	    9.67
     73.9874	  111.00	  133.43	 -492.43	    9.67
     74.0209	   96.00	  108.79	 -482.79	    9.66
     74.0543	   61.00	   86.60	 -495.60	    9.66
     74.0877	   61.00	   76.55	 -485.55	    9.65
     74.1211	   63.00	   78.37	 -485.37	    9.65
     74.1546	   88.00	   84.11	 -466.11	    9.64
     74.1880	   76.00	   81.34	 -475.34	    9.64
     74.2214	   74.00	   67.25	 -463.25	    9.63
     74.2548	   47.00	   50.51	 -473.51	    9.62
     74.2882	   36.00	   37.10	 -471.10	    9.62
     74.3217	   33.00	   28.33	 -465.33	    9.61
     74.3551	   21.00	   23.27	 -472.27	    9.61
     74.3885	   16.00	   20.47	 -474.47	    9.60
     74.4219	   18.00	   18.88	 -470.88	    9.60
     74.4554	   24.00	   17.89	 -463.89	    9.59
     74.4888	   18.00	   17.22	 -469.22	    9.59
     74.5222	   16.00	   16.76	 -470.76	    9.58
     74.5556	   17.00	   16.48	 -469.48	    9.58
     74.5891	   11.00	   16.32	 -475.32	    9.57
     74.6225	   18.00	   16.31	 -468.31	    9.56
     74.6559	   11.00	   16.45	 -475.45	    9.56
     74.6893	   21.00	   16.77	 -465.77	    9.55
     74.7227	   17.00	   17.39	 -470.39	    9.55
     74.7562	   17.00	   18.57	 -471.57	    9.54
     74.7896	   16.00	   20.86	 -474.86	    9.54
     74.8230	   23.00	   25.24	 -472.24	    9.53
     74.8564	   34.00	   32.79	 -468.79	    9.53
     74.8899	   50.00	   43.85	 -463.85	    9.52
     74.9233	   65.00	   56.42	 -461.42	    9.51
     74.9567	   64.00	   64.25	 -470.25	    9.51
     74.9901	   70.00	   61.04	 -461.04	    9.50
     75.0235	   47.00	   50.95	 -473.95	    9.50
     75.0570	   36.00	   42.03	 -476.03	    9.49
     75.0904	   32.00	   37.96	 -475.96	    9.49
     75.1238	   46.00	   38.65	 -462.65	    9.48
     75.1572	   48.00	   41.07	 -463.07	    9.48
     75.1907	   49.00	   40.33	 -461.33	    9.47
     75.2241	   31.00	   34.92	 -473.92	    9.46
     75.2575	   24.00	   28.16	 -474.16	    9.46
     75.2909	   16.00	   22.61	 -476.61	    9.45
     75.3243	   22.00	   18.89	 -466.89	    9.45
     75.3578	   14.00	   16.69	 -472.69	    9.44
     75.3912	   15.00	   15.46	 -470.46	    9.44
     75.4246	   18.00	   14.73	 -466.73	    9.43
     75.4580	   22.00	   14.25	 -462.25	    9.42
     75.4915	   19.00	   13.89	 -464.89	    9.42
     75.5249	    7.00	   13.62	 -476.62	    9.41
     75.5583	   15.00	   13.40	 -468.40	    9.41
     75.5917	   15.00	   13.23	 -468.23	    9.40
     75.6252	   10.00	   13.08	 -473.08	    9.39
     75.6586	   14.00	   12.96	 -468.96	    9.39
     75.6920	   24.00	   12.85	 -458.85	    9.38
     75.7254	   15.00	   12.76	 -467.76	    9.38
     75.7588	    9.00	   12.68	 -473.68	    9.37
     75.7923	   14.00	   12.61	 -468.61	    9.37
     75.8257	   12.00	   12.55	 -470.55	    9.36
     75.8591	    8.00	   12.49	 -474.49	    9.35
     75.8925	    8.00	   12.44	 -474.44	    9.35
     75.9259	   16.00	   12.39	 -466.39	    9.34
     75.9594	   16.00	   12.35	 -466.35	    9.34
     75.9928	    6.00	   12.31	 -476.31	    9.33
     76.0262	   17.00	   12.28	 -465.28	    9.32
     76.0596	   17.00	   12.24	 -465.24	    9.32
     76.0931	   14.00	   12.21	 -468.21	    9.31
     76.1265	   10.00	   12.18	 -472.18	    9.31
     76.1599	   11.00	   12.16	 -471.16	    9.30
     76.1933	   10.00	   12.13	 -472.13	    9.29
     76.2268	    9.00	   12.11	 -473.11	    9.29
     76.2602	   16.00	   12.09	 -466.09	    9.28
     76.2936	   10.00	   12.07	 -472.07	    9.28
     76.3270	   17.00	   12.05	 -465.05	    9.27
     76.3604	    8.00	   12.03	 -474.03	    9.26
     76.3939	   17.00	   12.01	 -465.01	    9.26
     76.4273	   15.00	   12.00	 -467.00	    9.25
     76.4607	   14.00	   11.98	 -467.98	    9.25
     76.4941	    4.00	   11.96	 -477.96	    9.24
     76.5276	    9.00	   11.95	 -472.95	    9.23
     76.5610	    9.00	   11.93	 -472.93	    9.23
     76.5944	    8.00	   11.92	 -473.92	    9.22
     76.6278	   11.00	   11.91	 -470.91	    9.22
     76.6612	   12.00	   11.90	 -469.90	    9.21
     76.6947	   12.00	   11.88	 -469.88	    9.20
     76.7281	   16.00	   11.87	 -465.87	    9.20
     76.7615	   11.00	   11.86	 -470.86	    9.19
     76.7949	   17.00	   11.85	 -464.85	    9.19
     76.8284	   12.00	   11.84	 -469.84	    9.18
     76.8618	   17.00	   11.83	 -464.83	    9.17
     76.8952	   10.00	   11.82	 -471.82	    9.17
     76.9286	    8.00	   11.81	 -473.81	    9.16
     76.9621	   14.00	   11.80	 -467.80	    9.15
     76.9955	   14.00	   11.79	 -467.79	    9.15
     77.0289	    8.00	   11.79	 -473.79	    9.14
     77.0623	   11.00	   11.78	 -470.78	    9.14
     77.0957	   11.00	   11.77	 -470.77	    9.13
     77.1292	    9.00	   11.76	 -472.76	    9.12
     77.1626	   12.00	   11.75	 -469.75	    9.12
     77.1960	   14.00	   11.75	 -467.75	    9.11
     77.2294	    9.00	   11.74	 -472.74	    9.11
     77.2629	   11.00	   11.74	 -470.74	    9.10
     77.2963	   11.00	   11.73	 -470.73	    9.09
     77.3297	   18.00	   11.72	 -463.72	    9.09
     77.3631	    5.00	   11.72	 -476.72	    9.08
     77.3965	   14.00	   11.71	 -467.71	    9.07
     77.4300	   20.00	   11.71	 -461.71	    9.07
     77.4634	   10.00	   11.67	 -471.67	    9.06
     77.4968	   12.00	   11.66	 -469.66	    9.06
     77.5302	   12.00	   11.66	 -469.66	    9.05
     77.5637	   10.00	   11.66	 -471.66	    9.04
     77.5971	    6.00	   11.66	 -475.66	    9.04
     77.6305	   10.00	   11.66	 -471.66	    9.03
     77.6639	   19.00	   11.64	 -462.64	    9.02
     77.6973	   12.00	   11.64	 -469.64	    9.02
     77.7308	   11.00	   11.64	 -470.64	    9.01
     77.7642	    9.00	   11.64	 -472.64	    9.01
     77.7976	    7.00	   11.65	 -474.65	    9.00
     77.8310	   19.00	   11.65	 -462.65	    8.99
     77.8645	   19.00	   11.66	 -462.66	    8.99
     77.8979	   15.00	   11.66	 -466.66	    8.98
     77.9313	   16.00	   11.67	 -465.67	    8.97
     77.9647	   10.00	   11.68	 -471.68	    8.97
     77.9981	   10.00	   11.69	 -471.69	    8.96
     78.0316	   16.00	   11.71	 -465.71	    8.96
     78.0650	   12.00	   11.72	 -469.72	    8.95
     78.0984	   20.00	   11.74	 -461.74	    8.94
     78.1318	    7.00	   11.76	 -474.76	    8.94
     78.1653	    8.00	   11.79	 -473.79	    8.93
     78.1987	   11.00	   11.82	 -470.82	    8.92
     78.2321	   14.00	   11.85	 -467.85	    8.92
     78.2655	   20.00	   11.90	 -461.90	    8.91
     78.2990	   10.00	   11.95	 -471.95	    8.90
     78.3324	   10.00	   12.01	 -472.01	    8.90
     78.3658	   12.00	   12.07	 -470.07	    8.89
     78.3992	    9.00	   12.16	 -473.16	    8.89
     78.4326	   23.00	   12.26	 -459.26	    8.88
     78.4661	   16.00	   12.36	 -466.36	    8.87
     78.4995	    8.00	   12.51	 -474.51	    8.87
     78.5329	   14.00	   12.70	 -468.70	    8.86
     78.5663	   12.00	   12.94	 -470.94	    8.85
     78.5998	   19.00	   13.25	 -464.25	    8.85
     78.6332	   15.00	   13.67	 -468.67	    8.84
     78.6666	   14.00	   14.26	 -470.26	    8.83
     78.7000	   14.00	   15.19	 -471.19	    8.83
     78.7334	   27.00	   16.82	 -459.82	    8.82
     78.7669	   22.00	   19.78	 -467.78	    8.82
     78.8003	   18.00	   24.94	 -476.94	    8.81
     78.8337	   43.00	   32.91	 -459.91	    8.80
     78.8671	   55.00	   43.15	 -458.15	    8.80
     78.9006	  115.00	   52.44	 -407.44	    8.79
     78.9340	  115.00	   54.69	 -409.69	    8.78
     78.9674	   75.00	   48.41	 -443.41	    8.78
     79.0008	   51.00	   39.63	 -458.63	    8.77
     79.0342	   48.00	   33.38	 -455.38	    8.76
     79.0677	   31.00	   31.29	 -470.29	    8.76
     79.1011	   45.00	   32.72	 -457.72	    8.75
     79.1345	   65.00	   35.12	 -440.12	    8.74
     79.1679	   68.00	   34.69	 -436.69	    8.74
     79.2014	   41.00	   30.37	 -459.37	    8.73
     79.2348	   27.00	   24.84	 -467.84	    8.73
     79.2682	   39.00	   20.20	 -451.20	    8.72
     79.3016	   18.00	   17.02	 -469.02	    8.71
     79.3351	   14.00	   15.09	 -471.09	    8.71
     79.3685	   14.00	   13.99	 -469.99	    8.70
     79.4019	   17.00	   13.34	 -466.34	    8.69
     79.4353	    8.00	   12.92	 -474.92	    8.69
     79.4687	    9.00	   12.61	 -473.61	    8.68
     79.5022	   16.00	   12.38	 -466.38	    8.67
     79.5356	   16.00	   12.20	 -466.20	    8.67
     79.5690	   15.00	   12.05	 -467.05	    8.66
     79.6024	   20.00	   11.93	 -461.93	    8.65
     79.6359	   10.00	   11.83	 -471.83	    8.65
     79.6693	    4.00	   11.74	 -477.74	    8.64
     79.7027	   11.00	   11.67	 -470.67	    8.64
     79.7361	   14.00	   11.61	 -467.61	    8.63
     79.7695	   16.00	   11.55	 -465.55	    8.62
     79.8030	    8.00	   11.50	 -473.50	    8.62
     79.8364	   11.00	   11.45	 -470.45	    8.61
     79.8698	    3.00	   11.42	 -478.42	    8.60
     79.9032	    6.00	   11.38	 -475.38	    8.60
     79.9367	   10.00	   11.35	 -471.35	    8.59
     79.9701	   12.00	   11.32	 -469.32	    8.58
     80.0035	   14.00	   11.29	 -467.29	    8.58
     80.0369	    9.00	   11.26	 -472.26	    8.57
     80.0703	    9.00	   11.24	 -472.24	    8.56
     80.1038	    8.00	   11.22	 -473.22	    8.56
     80.1372	   20.00	   11.20	 -461.20	    8.55
     80.1706	    8.00	   11.18	 -473.18	    8.54
     80.2040	   20.00	   11.16	 -461.16	    8.54
     80.2375	   14.00	   11.15	 -467.15	    8.53
     80.2709	   10.00	   11.13	 -471.13	    8.53
     80.3043	   15.00	   11.12	 -466.12	    8.52
     80.3377	    9.00	   11.10	 -472.10	    8.51
     80.3711	    9.00	   11.09	 -472.09	    8.51
     80.4046	   12.00	   11.08	 -469.08	    8.50
     80.4380	   10.00	   11.06	 -471.06	    8.49
     80.4714	   18.00	   11.05	 -463.05	    8.49
     80.5048	   15.00	   11.04	 -466.04	    8.48
     80.5383	   11.00	   11.03	 -470.03	    8.47
     80.5717	   10.00	   11.02	 -471.02	    8.47
     80.6051	   12.00	   11.01	 -469.01	    8.46
     80.6385	   12.00	   11.00	 -469.00	    8.46
     80.6720	    5.00	   10.99	 -475.99	    8.45
     80.7054	   17.00	   10.98	 -463.98	    8.44
     80.7388	   11.00	   10.98	 -469.98	    8.44
     80.7722	   17.00	   10.97	 -463.97	    8.43
     80.8056	   14.00	   10.96	 -466.96	    8.42
     80.8391	   10.00	   10.95	 -470.95	    8.42
     80.8725	    7.00	   10.95	 -473.95	    8.41
     80.9059	   14.00	   10.94	 -466.94	    8.40
     80.9393	   14.00	   10.93	 -466.93	    8.40
     80.9728	   11.00	   10.93	 -469.93	    8.39
     81.0062	    7.00	   10.93	 -473.93	    8.38
     81.0396	   15.00	   10.92	 -465.92	    8.38
     81.0730	   14.00	   10.92	 -466.92	    8.37
     81.1064	    8.00	   10.92	 -472.92	    8.37
     81.1399	   15.00	   10.91	 -465.91	    8.36
     81.1733	   16.00	   10.91	 -464.91	    8.35
     81.2067	    8.00	   10.92	 -472.92	    8.35
     81.2401	    7.00	   10.92	 -473.92	    8.34
     81.2736	    8.00	   10.92	 -472.92	    8.33
     81.3070	    7.00	   10.93	 -473.93	    8.33
     81.3404	    6.00	   10.94	 -474.94	    8.32
     81.3738	    6.00	   10.95	 -474.95	    8.31
     81.4072	   10.00	   10.97	 -470.97	    8.31
     81.4407	   11.00	   10.99	 -469.99	    8.30
     81.4741	    9.00	   11.02	 -472.02	    8.30
     81.5075	    9.00	   11.06	 -472.06	    8.29
     81.5409	    8.00	   11.11	 -473.11	    8.28
     81.5744	   11.00	   11.19	 -470.19	    8.28
     81.6078	    9.00	   11.30	 -472.30	    8.27
     81.6412	    9.00	   11.49	 -472.49	    8.26
     81.6746	    9.00	   11.82	 -472.82	    8.26
     81.7081	   24.00	   12.42	 -458.42	    8.25
     81.7415	   17.00	   13.42	 -466.42	    8.25
     81.7749	   21.00	   14.90	 -463.90	    8.24
     81.8083	   28.00	   16.69	 -458.69	    8.23
     81.8417	   21.00	   18.12	 -467.12	    8.23
     81.8752	   22.00	   18.19	 -466.19	    8.22
     81.9086	   16.00	   16.93	 -470.93	    8.21
     81.9420	    6.00	   15.41	 -479.41	    8.21
     81.9754	   11.00	   14.36	 -473.36	    8.20
     82.0089	   14.00	   14.02	 -470.02	    8.20
     82.0423	   24.00	   14.27	 -460.27	    8.19
     82.0757	   18.00	   14.74	 -466.74	    8.18
     82.1091	   17.00	   14.81	 -467.81	    8.18
     82.1425	   18.00	   14.17	 -466.17	    8.17
     82.1760	   20.00	   13.23	 -463.23	    8.16
     82.2094	   14.00	   12.37	 -468.37	    8.16
     82.2428	   17.00	   11.75	 -464.75	    8.15
     82.2762	   14.00	   11.36	 -467.36	    8.15
     82.3097	   14.00	   11.13	 -467.13	    8.14
     82.3431	   15.00	   10.99	 -465.99	    8.13
     82.3765	   12.00	   10.90	 -468.90	    8.13
     82.4099	    7.00	   10.84	 -473.84	    8.12
     82.4433	    7.00	   10.79	 -473.79	    8.12
     82.4768	   10.00	   10.75	 -470.75	    8.11
     82.5102	   15.00	   10.70	 -465.70	    8.10
     82.5436	   16.00	   10.67	 -464.67	    8.10
     82.5770	    7.00	   10.65	 -473.65	    8.09
     82.6105	    8.00	   10.63	 -472.63	    8.09
     82.6439	   20.00	   10.61	 -460.61	    8.08
     82.6773	   14.00	   10.59	 -466.59	    8.07
     82.7107	   11.00	   10.58	 -469.58	    8.07
     82.7441	    8.00	   10.55	 -472.55	    8.06
     82.7776	    7.00	   10.54	 -473.54	    8.06
     82.8110	   14.00	   10.53	 -466.53	    8.05
     82.8444	   12.00	   10.52	 -468.52	    8.04
     82.8778	   11.00	   10.51	 -469.51	    8.04
     82.9113	   16.00	   10.50	 -464.50	    8.03
     82.9447	    8.00	   10.49	 -472.49	    8.03
     82.9781	   10.00	   10.48	 -470.48	    8.02
     83.0115	   11.00	   10.49	 -469.49	    8.01
     83.0450	   11.00	   10.48	 -469.48	    8.01
     83.0784	    8.00	   10.47	 -472.47	    8.00
     83.1118	   14.00	   10.46	 -466.46	    8.00
     83.1452	   17.00	   10.45	 -463.45	    7.99
     83.1786	   16.00	   10.45	 -464.45	    7.98
     83.2121	   16.00	   10.44	 -464.44	    7.98
     83.2455	   10.00	   10.43	 -470.43	    7.97
     83.2789	   11.00	   10.44	 -469.44	    7.97
     83.3123	   12.00	   10.43	 -468.43	    7.96
     83.3458	   16.00	   10.42	 -464.42	    7.95
     83.3792	   10.00	   10.42	 -470.42	    7.95
     83.4126	   12.00	   10.41	 -468.41	    7.94
     83.4460	   12.00	   10.40	 -468.40	    7.94
     83.4794	    7.00	   10.40	 -473.40	    7.93
     83.5129	    8.00	   10.39	 -472.39	    7.93
     83.5463	   17.00	   10.39	 -463.39	    7.92
     83.5797	   16.00	   10.38	 -464.38	    7.91
     83.6131	   10.00	   10.37	 -470.37	    7.91
     83.6466	   12.00	   10.37	 -468.37	    7.90
     83.6800	    9.00	   10.36	 -471.36	    7.90
     83.7134	    8.00	   10.36	 -472.36	    7.89
     83.7468	   16.00	   10.35	 -464.35	    7.89
     83.7803	    6.00	   10.35	 -474.35	    7.88
     83.8137	    8.00	   10.34	 -472.34	    7.87
     83.8471	   16.00	   10.34	 -464.34	    7.87
     83.8805	   19.00	   10.33	 -461.33	    7.86
     83.9139	    9.00	   10.33	 -471.33	    7.86
     83.9474	   10.00	   10.32	 -470.32	    7.85
     83.9808	    7.00	   10.32	 -473.32	    7.85
     84.0142	   12.00	   10.31	 -468.31	    7.84
     84.0476	    9.00	   10.31	 -471.31	    7.83
     84.0810	   12.00	   10.30	 -468.30	    7.83
     84.1145	    6.00	   10.30	 -474.30	    7.82
     84.1479	   17.00	   10.29	 -463.29	    7.82
     84.1813	   11.00	   10.29	 -469.29	    7.81
     84.2147	   16.00	   10.29	 -464.29	    7.81
     84.2482	    9.00	   10.28	 -471.28	    7.80
     84.2816	    7.00	   10.28	 -473.28	    7.80
     84.3150	   15.00	   10.27	 -465.27	    7.79
     84.3484	   15.00	   10.27	 -465.27	    7.79
     84.3819	   11.00	   10.27	 -469.27	    7.78
     84.4153	   10.00	   10.26	 -470.26	    7.77
     84.4487	   11.00	   10.26	 -469.26	    7.77
     84.4821	    4.00	   10.26	 -476.26	    7.76
     84.5155	   15.00	   10.25	 -465.25	    7.76
     84.5490	   11.00	   10.25	 -469.25	    7.75
     84.5824	   10.00	   10.25	 -470.25	    7.75
     84.6158	   11.00	   10.24	 -469.24	    7.74
     84.6492	    9.00	   10.24	 -471.24	    7.74
     84.6827	   16.00	   10.24	 -464.24	    7.73
     84.7161	   16.00	   10.24	 -464.24	    7.73
     84.7495	   10.00	   10.23	 -470.23	    7.72
     84.7829	   16.00	   10.23	 -464.23	    7.72
     84.8163	   16.00	   10.23	 -464.23	    7.71
     84.8498	   20.00	   10.23	 -460.23	    7.71
     84.8832	   20.00	   10.23	 -460.23	    7.70
     84.9166	   17.00	   10.23	 -463.23	    7.70
     84.9500	   17.00	   10.23	 -463.23	    7.69
     84.9835	   20.00	   10.22	 -460.22	    7.69
     85.0169	   10.00	   10.22	 -470.22	    7.68
     85.0503	   11.00	   10.22	 -469.22	    7.68
     85.0837	   10.00	   10.22	 -470.22	    7.67
     85.1171	   15.00	   10.22	 -465.22	    7.67
     85.1506	   11.00	   10.23	 -469.23	    7.66
     85.1840	   11.00	   10.23	 -469.23	    7.66
     85.2174	   11.00	   10.23	 -469.23	    7.65
     85.2508	   16.00	   10.23	 -464.23	    7.65
     85.2843	   11.00	   10.23	 -469.23	    7.64
     85.3177	   18.00	   10.24	 -462.24	    7.64
     85.3511	   12.00	   10.24	 -468.24	    7.63
     85.3845	   11.00	   10.25	 -469.25	    7.63
     85.4180	   10.00	   10.25	 -470.25	    7.62
     85.4514	   10.00	   10.26	 -470.26	    7.62
     85.4848	    8.00	   10.26	 -472.26	    7.61
     85.5182	   18.00	   10.27	 -462.27	    7.61
     85.5516	   11.00	   10.28	 -469.28	    7.60
     85.5851	   18.00	   10.29	 -462.29	    7.60
     85.6185	   15.00	   10.30	 -465.30	    7.59
     85.6519	   15.00	   10.32	 -465.32	    7.59
     85.6853	   14.00	   10.33	 -466.33	    7.58
     85.7188	   15.00	   10.35	 -465.35	    7.58
     85.7522	   16.00	   10.37	 -464.37	    7.57
     85.7856	    8.00	   10.39	 -472.39	    7.57
     85.8190	   16.00	   10.42	 -464.42	    7.56
     85.8524	   14.00	   10.52	 -466.52	    7.56
     85.8859	   12.00	   10.56	 -468.56	    7.56
     85.9193	   17.00	   10.60	 -463.60	    7.55
     85.9527	   10.00	   10.64	 -470.64	    7.55
     85.9861	   16.00	   10.69	 -464.69	    7.54
     86.0196	   18.00	   10.75	 -462.75	    7.54
     86.0530	   15.00	   10.81	 -465.81	    7.53
     86.0864	   18.00	   10.89	 -462.89	    7.53
     86.1198	   11.00	   11.02	 -470.02	    7.52
     86.1533	   16.00	   11.13	 -465.13	    7.52
     86.1867	   11.00	   11.25	 -470.25	    7.52
     86.2201	   10.00	   11.41	 -471.41	    7.51
     86.2535	   16.00	   11.59	 -465.59	    7.51
     86.2869	    9.00	   11.82	 -472.82	    7.50
     86.3204	    9.00	   12.10	 -473.10	    7.50
     86.3538	   12.00	   12.45	 -470.45	    7.49
     86.3872	   19.00	   12.91	 -463.91	    7.49
     86.4206	   14.00	   13.54	 -469.54	    7.49
     86.4540	   17.00	   14.45	 -467.45	    7.48
     86.4875	   21.00	   15.92	 -464.92	    7.48
     86.5209	   21.00	   18.44	 -467.44	    7.47
     86.5543	   19.00	   22.79	 -473.79	    7.47
     86.5877	   41.00	   29.81	 -458.81	    7.47
     86.6212	   42.00	   39.87	 -467.87	    7.46
     86.6546	   74.00	   51.87	 -447.87	    7.46
     86.6880	   82.00	   61.60	 -449.60	    7.45
     86.7214	   66.00	   62.67	 -466.67	    7.45
     86.7549	   51.00	   54.67	 -473.67	    7.45
     86.7883	   42.00	   44.11	 -472.11	    7.44
     86.8217	   33.00	   36.02	 -473.02	    7.44
     86.8551	   42.00	   32.25	 -460.25	    7.43
     86.8885	   28.00	   32.69	 -474.69	    7.43
     86.9220	   31.00	   35.93	 -474.93	    7.43
     86.9554	   47.00	   39.04	 -462.04	    7.42
     86.9888	   45.00	   38.31	 -463.31	    7.42
     87.0222	   35.00	   33.31	 -468.31	    7.42
     87.0557	   32.00	   27.02	 -465.02	    7.41
     87.0891	   29.00	   21.64	 -462.64	    7.41
     87.1225	   22.00	   17.82	 -465.82	    7.41
     87.1559	   19.00	   15.39	 -466.39	    7.40
     87.1893	    9.00	   13.94	 -474.94	    7.40
     87.2228	   16.00	   13.07	 -467.07	    7.39
     87.2562	   17.00	   12.52	 -465.52	    7.39
     87.2896	   18.00	   12.12	 -464.12	    7.39
     87.3230	   16.00	   11.83	 -465.83	    7.38
     87.3565	    7.00	   11.60	 -474.60	    7.38
     87.3899	   12.00	   11.42	 -469.42	    7.38
     87.4233	   10.00	   11.27	 -471.27	    7.37
     87.4567	    9.00	   11.15	 -472.15	    7.37
     87.4902	   14.00	   11.05	 -467.05	    7.37
     87.5236	   10.00	   10.96	 -470.96	    7.36
     87.5570	   16.00	   10.89	 -464.89	    7.36
     87.5904	   19.00	   10.83	 -461.83	    7.36
     87.6238	   18.00	   10.78	 -462.78	    7.35
     87.6573	    8.00	   10.74	 -472.74	    7.35
     87.6907	    9.00	   10.71	 -471.71	    7.35
     87.7241	   29.00	   10.68	 -451.68	    7.35
     87.7575	   18.00	   10.65	 -462.65	    7.34
     87.7910	   12.00	   10.63	 -468.63	    7.34
     87.8244	   10.00	   10.62	 -470.62	    7.34
     87.8578	   10.00	   10.61	 -470.61	    7.33
     87.8912	   17.00	   10.60	 -463.60	    7.33
     87.9246	   15.00	   10.59	 -465.59	    7.33
     87.9581	   17.00	   10.59	 -463.59	    7.33
     87.9915	   16.00	   10.59	 -464.59	    7.32
     88.0249	    7.00	   10.60	 -473.60	    7.32
     88.0583	   19.00	   10.60	 -461.60	    7.32
     88.0918	   18.00	   10.61	 -462.61	    7.31
     88.1252	   15.00	   10.62	 -465.62	    7.31
     88.1586	   18.00	   10.64	 -462.64	    7.31
     88.1920	   15.00	   10.66	 -465.66	    7.31
     88.2254	    7.00	   10.68	 -473.68	    7.30
     88.2589	   15.00	   10.70	 -465.70	    7.30
     88.2923	   10.00	   10.73	 -470.73	    7.30
     88.3257	   11.00	   10.76	 -469.76	    7.30
     88.3591	   12.00	   10.80	 -468.80	    7.29
     88.3926	   10.00	   10.84	 -470.84	    7.29
     88.4260	   11.00	   10.88	 -469.88	    7.29
     88.4594	    8.00	   10.93	 -472.93	    7.29
     88.4928	   14.00	   10.99	 -466.99	    7.28
     88.5262	   12.00	   11.05	 -469.05	    7.28
     88.5597	    9.00	   11.12	 -472.12	    7.28
     88.5931	   16.00	   11.19	 -465.19	    7.28
     88.6265	   14.00	   11.27	 -467.27	    7.28
     88.6599	    9.00	   11.37	 -472.37	    7.27
     88.6934	   12.00	   11.47	 -469.47	    7.27
     88.7268	   20.00	   11.58	 -461.58	    7.27
     88.7602	    9.00	   11.71	 -472.71	    7.27
     88.7936	   16.00	   11.86	 -465.86	    7.27
     88.8270	   10.00	   12.03	 -472.03	    7.26
     88.8605	   16.00	   12.21	 -466.21	    7.26
     88.8939	   18.00	   12.43	 -464.43	    7.26
     88.9273	   16.00	   12.67	 -466.67	    7.26
     88.9607	   14.00	   12.95	 -468.95	    7.26
     88.9942	   16.00	   13.28	 -467.28	    7.25
     89.0276	    9.00	   13.66	 -474.66	    7.25
     89.0610	   19.00	   14.11	 -465.11	    7.25
     89.0944	   18.00	   14.64	 -466.64	    7.25
     89.1279	   14.00	   15.28	 -471.28	    7.25
     89.1613	   17.00	   16.06	 -469.06	    7.25
     89.1947	   17.00	   17.01	 -470.01	    7.25
     89.2281	   17.00	   18.21	 -471.21	    7.24
     89.2615	   20.00	   19.73	 -469.73	    7.24
     89.2950	   34.00	   21.74	 -457.74	    7.24
     89.3284	   30.00	   24.55	 -464.55	    7.24
     89.3618	   35.00	   28.83	 -463.83	    7.24
     89.3952	   36.00	   35.87	 -469.87	    7.24
     89.4287	   39.00	   47.91	 -478.91	    7.24
     89.4621	   69.00	   67.87	 -468.87	    7.23
     89.4955	  105.00	   98.19	 -463.19	    7.23
     89.5289	  164.00	  138.45	 -444.45	    7.23
     89.5623	  212.00	  181.00	 -439.00	    7.23
     89.5958	  265.00	  206.43	 -411.43	    7.23
     89.6292	  199.00	  196.51	 -467.51	    7.23
     89.6626	  146.00	  161.29	 -485.29	    7.23
     89.6960	   85.00	  124.11	 -509.11	    7.23
     89.7295	   81.00	   98.28	 -487.28	    7.23
     89.7629	   81.00	   87.79	 -476.79	    7.23
     89.7963	   81.00	   91.44	 -480.44	    7.23
     89.8297	  117.00	  104.20	 -457.20	    7.22
     89.8632	  144.00	  116.14	 -442.14	    7.22
     89.8966	  117.00	  114.55	 -467.55	    7.22
     89.9300	   92.00	   97.33	 -475.33	    7.22
     89.9634	   52.00	   74.69	 -492.69	    7.22
     89.9968	   54.00	   54.77	 -470.77	    7.22
     90.0303	   51.00	   40.22	 -459.22	    7.22
     90.0637	   35.00	   30.74	 -465.74	    7.22
     90.0971	   29.00	   24.96	 -465.96	    7.22
     90.1305	   29.00	   21.46	 -462.46	    7.22
     90.1640	   25.00	   19.21	 -464.21	    7.22
     90.1974	   28.00	   17.65	 -459.65	    7.22
     90.2308	   32.00	   16.48	 -454.48	    7.22
     90.2642	   19.00	   15.57	 -466.57	    7.22
     90.2976	   11.00	   14.83	 -473.83	    7.22
     90.3311	   19.00	   14.23	 -465.23	    7.22
     90.3645	   17.00	   13.73	 -466.73	    7.22
     90.3979	   22.00	   13.31	 -461.31	    7.22
     90.4313	   18.00	   12.93	 -464.93	    7.22
     90.4648	   17.00	   12.63	 -465.63	    7.22
     90.4982	    9.00	   12.36	 -473.36	    7.22
     90.5316	   16.00	   12.13	 -466.13	    7.22
     90.5650	   12.00	   11.96	 -469.96	    7.22
     90.5984	   19.00	   11.79	 -462.79	    7.22
     90.6319	   20.00	   11.63	 -461.63	    7.22
     90.6653	   17.00	   11.49	 -464.49	    7.22
     90.6987	   14.00	   11.36	 -467.36	    7.22
     90.7321	   16.00	   11.24	 -465.24	    7.22
     90.7656	   12.00	   11.14	 -469.14	    7.22
     90.7990	   20.00	   11.05	 -461.05	    7.22
     90.8324	   11.00	   10.97	 -469.97	    7.22
     90.8658	   14.00	   10.91	 -466.91	    7.22
     90.8992	   18.00	   10.84	 -462.84	    7.23
     90.9327	   15.00	   10.78	 -465.78	    7.23
     90.9661	   11.00	   10.73	 -469.73	    7.23
     90.9995	   17.00	   10.67	 -463.67	    7.23
     91.0329	    6.00	   10.63	 -474.63	    7.23
     91.0664	   11.00	   10.58	 -469.58	    7.23
     91.0998	   18.00	   10.54	 -462.54	    7.23
     91.1332	   15.00	   10.50	 -465.50	    7.23
     91.1666	   16.00	   10.47	 -464.47	    7.23
     91.2001	    7.00	   10.44	 -473.44	    7.23
     91.2335	   15.00	   10.41	 -465.41	    7.24
     91.2669	    8.00	   10.38	 -472.38	    7.24
     91.3003	   14.00	   10.36	 -466.36	    7.24
     91.3337	   18.00	   10.33	 -462.33	    7.24
     91.3672	   12.00	   10.31	 -468.31	    7.24
     91.4006	   10.00	   10.29	 -470.29	    7.24
     91.4340	   11.00	   10.27	 -469.27	    7.24
     91.4674	    7.00	   10.25	 -473.25	    7.25
     91.5009	   15.00	   10.24	 -465.24	    7.25
     91.5343	   15.00	   10.22	 -465.22	    7.25
     91.5677	   12.00	   10.21	 -468.21	    7.25
     91.6011	   11.00	   10.20	 -469.20	    7.25
     91.6345	   15.00	   10.18	 -465.18	    7.25
     91.6680	    9.00	   10.17	 -471.17	    7.26
     91.7014	   18.00	   10.16	 -462.16	    7.26
     91.7348	    9.00	   10.15	 -471.15	    7.26
     91.7682	    6.00	   10.15	 -474.15	    7.26
     91.8017	   16.00	   10.14	 -464.14	    7.26
     91.8351	   11.00	   10.13	 -469.13	    7.27
     91.8685	    7.00	   10.12	 -473.12	    7.27
     91.9019	   21.00	   10.12	 -459.12	    7.27
     91.9353	    6.00	   10.11	 -474.11	    7.27
     91.9688	   15.00	   10.11	 -465.11	    7.28
     92.0022	   24.00	   10.11	 -456.11	    7.28
     92.0356	    9.00	   10.10	 -471.10	    7.28
     92.0690	   11.00	   10.10	 -469.10	    7.28
     92.1025	    5.00	   10.10	 -475.10	    7.29
     92.1359	    7.00	   10.10	 -473.10	    7.29
     92.1693	    8.00	   10.10	 -472.10	    7.29
     92.2027	   14.00	   10.09	 -466.09	    7.30
     92.2362	   14.00	   10.09	 -466.09	    7.30
     92.2696	   16.00	   10.10	 -464.10	    7.30
     92.3030	   10.00	   10.10	 -470.10	    7.30
     92.3364	    8.00	   10.10	 -472.10	    7.31
     92.3698	    6.00	   10.10	 -474.10	    7.31
     92.4033	   12.00	   10.10	 -468.10	    7.31
     92.4367	   11.00	   10.10	 -469.10	    7.32
     92.4701	   12.00	   10.11	 -468.11	    7.32
     92.5035	   12.00	   10.11	 -468.11	    7.32
     92.5369	   12.00	   10.12	 -468.12	    7.33
     92.5704	   11.00	   10.12	 -469.12	    7.33
     92.6038	   11.00	   10.13	 -469.13	    7.33
     92.6372	    9.00	   10.13	 -471.13	    7.34
     92.6706	   11.00	   10.14	 -469.14	    7.34
     92.7041	   15.00	   10.15	 -465.15	    7.34
     92.7375	   10.00	   10.16	 -470.16	    7.35
     92.7709	   14.00	   10.17	 -466.17	    7.35
     92.8043	   14.00	   10.17	 -466.17	    7.36
     92.8378	   11.00	   10.18	 -469.18	    7.36
     92.8712	   12.00	   10.20	 -468.20	    7.36
     92.9046	    9.00	   10.21	 -471.21	    7.37
     92.9380	    6.00	   10.22	 -474.22	    7.37
     92.9714	   18.00	   10.23	 -462.23	    7.38
     93.0049	    9.00	   10.25	 -471.25	    7.38
     93.0383	   14.00	   10.26	 -466.26	    7.38
     93.0717	    6.00	   10.28	 -474.28	    7.39
     93.1051	   10.00	   10.30	 -470.30	    7.39
     93.1386	   14.00	   10.32	 -466.32	    7.40
     93.1720	   15.00	   10.34	 -465.34	    7.40
     93.2054	   14.00	   10.36	 -466.36	    7.41
     93.2388	   29.00	   10.39	 -451.39	    7.41
     93.2722	   11.00	   10.41	 -469.41	    7.42
     93.3057	    8.00	   10.44	 -472.44	    7.42
     93.3391	   12.00	   10.47	 -468.47	    7.43
     93.3725	   11.00	   10.43	 -469.43	    7.43
     93.4059	   14.00	   10.47	 -466.47	    7.44
     93.4394	   18.00	   10.51	 -462.51	    7.44
     93.4728	   18.00	   10.56	 -462.56	    7.45
     93.5062	   16.00	   10.61	 -464.61	    7.45
     93.5396	   15.00	   10.66	 -465.66	    7.46
     93.5731	   14.00	   10.72	 -466.72	    7.46
     93.6065	   12.00	   10.79	 -468.79	    7.47
     93.6399	    8.00	   10.87	 -472.87	    7.47
     93.6733	   18.00	   10.91	 -462.91	    7.48
     93.7067	   14.00	   11.01	 -467.01	    7.48
     93.7402	   11.00	   11.12	 -470.12	    7.49
     93.7736	   15.00	   11.24	 -466.24	    7.50
     93.8070	   18.00	   11.38	 -463.38	    7.50
     93.8404	   17.00	   11.54	 -464.54	    7.51
     93.8739	   14.00	   11.73	 -467.73	    7.51
     93.9073	   10.00	   11.95	 -471.95	    7.52
     93.9407	   12.00	   12.22	 -470.22	    7.53
     93.9741	   12.00	   12.53	 -470.53	    7.53
     94.0075	   16.00	   12.92	 -466.92	    7.54
     94.0410	   18.00	   13.39	 -465.39	    7.54
     94.0744	   11.00	   13.99	 -472.99	    7.55
     94.1078	   23.00	   14.77	 -461.77	    7.56
     94.1412	   21.00	   15.84	 -464.84	    7.56
     94.1747	   25.00	   17.42	 -462.42	    7.57
     94.2081	   23.00	   19.92	 -466.92	    7.58
     94.2415	   22.00	   24.08	 -472.08	    7.58
     94.2749	   31.00	   30.86	 -469.86	    7.59
     94.3083	   34.00	   41.20	 -477.20	    7.60
     94.3418	   50.00	   55.33	 -475.33	    7.60
     94.3752	   42.00	   71.64	 -499.64	    7.61
     94.4086	   52.00	   84.79	 -502.79	    7.62
     94.4420	   42.00	   86.93	 -514.93	    7.63
     94.4755	   70.00	   76.84	 -476.84	    7.63
     94.5089	   47.00	   62.06	 -485.06	    7.64
     94.5423	   54.00	   49.27	 -465.27	    7.65
     94.5757	   33.00	   41.31	 -478.31	    7.65
     94.6091	   31.00	   38.74	 -477.74	    7.66
     94.6426	   45.00	   40.89	 -465.89	    7.67
     94.6760	   41.00	   46.11	 -475.11	    7.68
     94.7094	   41.00	   51.22	 -480.22	    7.69
     94.7428	   42.00	   51.82	 -479.82	    7.69
     94.7763	   27.00	   46.34	 -489.34	    7.70
     94.8097	   29.00	   37.97	 -478.97	    7.71
     94.8431	   31.00	   30.06	 -469.06	    7.72
     94.8765	   16.00	   23.94	 -477.94	    7.73
     94.9100	   20.00	   19.74	 -469.74	    7.73
     94.9434	   17.00	   17.07	 -470.07	    7.74
     94.9768	   14.00	   15.43	 -471.43	    7.75
     95.0102	   21.00	   14.38	 -463.38	    7.76
     95.0436	   17.00	   13.68	 -466.68	    7.77
     95.0771	   22.00	   13.16	 -461.16	    7.78
     95.1105	    9.00	   12.77	 -473.77	    7.78
     95.1439	   19.00	   12.45	 -463.45	    7.79
     95.1773	    7.00	   12.20	 -475.20	    7.80
     95.2108	   15.00	   11.99	 -466.99	    7.81
     95.2442	   10.00	   11.82	 -471.82	    7.82
     95.2776	   14.00	   11.67	 -467.67	    7.83
     95.3110	   18.00	   11.55	 -463.55	    7.84
     95.3444	   12.00	   11.44	 -469.44	    7.85
     95.3779	   10.00	   11.35	 -471.35	    7.86
     95.4113	   18.00	   11.27	 -463.27	    7.87
     95.4447	    9.00	   11.20	 -472.20	    7.87
     95.4781	   16.00	   11.14	 -465.14	    7.88
     95.5116	    8.00	   11.09	 -473.09	    7.89
     95.5450	   17.00	   11.05	 -464.05	    7.90
     95.5784	   15.00	   11.01	 -466.01	    7.91
     95.6118	   12.00	   10.97	 -468.97	    7.92
     95.6452	   12.00	   10.94	 -468.94	    7.93
     95.6787	   22.00	   10.92	 -458.92	    7.94
     95.7121	   11.00	   10.89	 -469.89	    7.95
     95.7455	   16.00	   10.87	 -464.87	    7.96
     95.7789	    6.00	   10.86	 -474.86	    7.97
     95.8124	   16.00	   10.84	 -464.84	    7.98
     95.8458	    9.00	   10.83	 -471.83	    7.99
     95.8792	    8.00	   10.82	 -472.82	    8.00
     95.9126	   16.00	   10.81	 -464.81	    8.01
     95.9461	   10.00	   10.80	 -470.80	    8.03
     95.9795	   12.00	   10.79	 -468.79	    8.04
     96.0129	   14.00	   10.79	 -466.79	    8.05
     96.0463	   11.00	   10.79	 -469.79	    8.06
     96.0797	   17.00	   10.78	 -463.78	    8.07
     96.1132	    8.00	   10.78	 -472.78	    8.08
     96.1466	   11.00	   10.78	 -469.78	    8.09
     96.1800	   18.00	   10.78	 -462.78	    8.10
     96.2134	   19.00	   10.78	 -461.78	    8.11
     96.2469	    5.00	   10.78	 -475.78	    8.12
     96.2803	    6.00	   10.78	 -474.78	    8.14
     96.3137	   10.00	   10.79	 -470.79	    8.15
     96.3471	   15.00	   10.79	 -465.79	    8.16
     96.3805	   12.00	   10.79	 -468.79	    8.17
     96.4140	   15.00	   10.80	 -465.80	    8.18
     96.4474	   12.00	   10.80	 -468.80	    8.19
     96.4808	   12.00	   10.81	 -468.81	    8.21
     96.5142	   16.00	   10.81	 -464.81	    8.22
     96.5477	   12.00	   10.82	 -468.82	    8.23
     96.5811	   10.00	   10.83	 -470.83	    8.24
     96.6145	    8.00	   10.83	 -472.83	    8.26
     96.6479	    6.00	   10.84	 -474.84	    8.27
     96.6814	   15.00	   10.85	 -465.85	    8.28
     96.7148	   18.00	   10.86	 -462.86	    8.29
     96.7482	   11.00	   10.87	 -469.87	    8.31
     96.7816	   11.00	   10.88	 -469.88	    8.32
     96.8150	   11.00	   10.89	 -469.89	    8.33
     96.8485	    8.00	   10.90	 -472.90	    8.34
     96.8819	   16.00	   10.91	 -464.91	    8.36
     96.9153	   17.00	   10.92	 -463.92	    8.37
     96.9487	   12.00	   10.93	 -468.93	    8.38
     96.9821	    7.00	   10.94	 -473.94	    8.40
     97.0156	    9.00	   10.96	 -471.96	    8.41
     97.0490	   18.00	   10.97	 -462.97	    8.42
     97.0824	   12.00	   10.99	 -468.99	    8.44
     97.1158	    9.00	   11.01	 -472.01	    8.45
     97.1493	    9.00	   11.04	 -472.04	    8.47
     97.1827	   12.00	   11.09	 -469.09	    8.48
     97.2161	    5.00	   11.15	 -476.15	    8.49
     97.2495	   18.00	   11.22	 -463.22	    8.51
     97.2830	    8.00	   11.31	 -473.31	    8.52
     97.3164	    6.00	   11.38	 -475.38	    8.54
     97.3498	   10.00	   11.40	 -471.40	    8.55
     97.3832	   12.00	   11.37	 -469.37	    8.56
     97.4166	   14.00	   11.32	 -467.32	    8.58
     97.4501	   15.00	   11.27	 -466.27	    8.59
     97.4835	   16.00	   11.24	 -465.24	    8.61
     97.5169	   10.00	   11.24	 -471.24	    8.62
     97.5503	   16.00	   11.25	 -465.25	    8.64
     97.5838	   20.00	   11.29	 -461.29	    8.65
     97.6172	   11.00	   11.33	 -470.33	    8.67
     97.6506	    8.00	   11.36	 -473.36	    8.68
     97.6840	   15.00	   11.36	 -466.36	    8.70
     97.7174	   12.00	   11.34	 -469.34	    8.71
     97.7509	    8.00	   11.32	 -473.32	    8.73
     97.7843	   22.00	   11.30	 -459.30	    8.74
     97.8177	    9.00	   11.29	 -472.29	    8.76
     97.8511	   16.00	   11.29	 -465.29	    8.78
     97.8846	   10.00	   11.29	 -471.29	    8.79
     97.9180	    5.00	   11.30	 -476.30	    8.81
     97.9514	   11.00	   11.31	 -470.31	    8.82
     97.9848	    6.00	   11.32	 -475.32	    8.84
     98.0182	   12.00	   11.34	 -469.34	    8.86
     98.0517	    7.00	   11.35	 -474.35	    8.87
     98.0851	    8.00	   11.36	 -473.36	    8.89
     98.1185	    9.00	   11.38	 -472.38	    8.91
     98.1519	    9.00	   11.40	 -472.40	    8.92
     98.1854	   11.00	   11.42	 -470.42	    8.94
     98.2188	   19.00	   11.44	 -462.44	    8.96
     98.2522	    3.00	   11.45	 -478.45	    8.97
     98.2856	   10.00	   11.47	 -471.47	    8.99
     98.3191	   11.00	   11.45	 -470.45	    9.01
     98.3525	   10.00	   11.47	 -471.47	    9.02
     98.3859	    5.00	   11.49	 -476.49	    9.04
     98.4193	   10.00	   11.50	 -471.50	    9.06
     98.4527	   14.00	   11.52	 -467.52	    9.08
     98.4862	   14.00	   11.54	 -467.54	    9.09
     98.5196	   11.00	   11.56	 -470.56	    9.11
     98.5530	   10.00	   11.58	 -471.58	    9.13
     98.5864	   14.00	   11.60	 -467.60	    9.15
     98.6199	   20.00	   11.61	 -461.61	    9.17
     98.6533	   16.00	   11.62	 -465.62	    9.18
     98.6867	   17.00	   11.64	 -464.64	    9.20
     98.7201	    8.00	   11.65	 -473.65	    9.22
     98.7535	   14.00	   11.67	 -467.67	    9.24
     98.7870	    7.00	   11.69	 -474.69	    9.26
     98.8204	   12.00	   11.71	 -469.71	    9.28
     98.8538	   15.00	   11.73	 -466.73	    9.30
     98.8872	   10.00	   11.75	 -471.75	    9.31
     98.9207	   22.00	   11.77	 -459.77	    9.33
     98.9541	    7.00	   11.79	 -474.79	    9.35
     98.9875	   15.00	   11.81	 -466.81	    9.37
     99.0209	   18.00	   11.83	 -463.83	    9.39
     99.0543	   12.00	   11.85	 -469.85	    9.41
     99.0878	   16.00	   11.87	 -465.87	    9.43
     99.1212	   30.00	   11.89	 -451.89	    9.45
     99.1546	   19.00	   11.91	 -462.91	    9.47
     99.1880	   12.00	   11.93	 -469.93	    9.49
     99.2215	   16.00	   11.95	 -465.95	    9.51
     99.2549	    8.00	   11.97	 -473.97	    9.53
     99.2883	   11.00	   11.99	 -470.99	    9.55
     99.3217	   15.00	   12.01	 -467.01	    9.57
     99.3551	   11.00	   12.03	 -471.03	    9.59
     99.3886	   17.00	   12.05	 -465.05	    9.61
     99.4220	    8.00	   12.07	 -474.07	    9.63
     99.4554	   11.00	   12.10	 -471.10	    9.65
     99.4888	   14.00	   12.12	 -468.12	    9.67
     99.5223	   17.00	   12.14	 -465.14	    9.69
     99.5557	   10.00	   12.16	 -472.16	    9.72
     99.5891	   11.00	   12.18	 -471.18	    9.74
     99.6225	   14.00	   12.21	 -468.21	    9.76
     99.6560	   21.00	   12.23	 -461.23	    9.78
     99.6894	   12.00	   12.25	 -470.25	    9.80
     99.7228	   17.00	   12.27	 -465.27	    9.82
     99.7562	    7.00	   12.30	 -475.30	    9.84
     99.7896	   10.00	   12.32	 -472.32	    9.87
     99.8231	    8.00	   12.34	 -474.34	    9.89
     99.8565	   12.00	   12.37	 -470.37	    9.91
     99.8899	   12.00	   12.39	 -470.39	    9.93
     99.9233	   18.00	   12.41	 -464.41	    9.96
     99.9568	   15.00	   12.44	 -467.44	    9.98
     99.9902	   15.00	   12.51	 -467.51	   10.00
     18.2768	        	        	        	        	       0	(  1  1  1)	  0  1
     18.3222	        	        	        	        	       0	(  1  1  1)	  0  2
     30.0699	        	        	        	        	       0	(  2  2  0)	  0  1
     30.1457	        	        	        	        	       0	(  2  2  0)	  0  2
     35.4200	        	        	        	        	       0	(  3  1  1)	  0  1
     35.5100	        	        	        	        	       0	(  3  1  1)	  0  2
     37.0514	        	        	        	        	       0	(  2  2  2)	  0  1
     37.1459	        	        	        	        	       0	(  2  2  2)	  0  2
     43.0488	        	        	        	        	       0	(  4  0  0)	  0  1
     43.1600	        	        	        	        	       0	(  4  0  0)	  0  2
     47.1346	        	        	        	        	       0	(  3  3  1)	  0  1
     47.2576	        	        	        	        	       0	(  3  3  1)	  0  2
     53.4076	        	        	        	        	       0	(  4  2  2)	  0  1
     53.5495	        	        	        	        	       0	(  4  2  2)	  0  2
     56.9329	        	        	        	        	       0	(  3  3  3)	  0  1
     56.9329	        	        	        	        	       0	(  5  1  1)	  0  1
     57.0858	        	        	        	        	       0	(  3  3  3)	  0  2
     57.0858	        	        	        	        	       0	(  5  1  1)	  0  2
     62.5188	        	        	        	        	       0	(  4  4  0)	  0  1
     62.6901	        	        	        	        	       0	(  4  4  0)	  0  2
     65.7350	        	        	        	        	       0	(  5  3  1)	  0  1
     65.9172	        	        	        	        	       0	(  5  3  1)	  0  2
     66.7886	        	        	        	        	       0	(  4  4  2)	  0  1
     66.9746	        	        	        	        	       0	(  4  4  2)	  0  2
     70.9259	        	        	        	        	       0	(  6  2  0)	  0  1
     71.1268	        	        	        	        	       0	(  6  2  0)	  0  2
     73.9611	        	        	        	        	       0	(  5  3  3)	  0  1
     74.1735	        	        	        	        	       0	(  5  3  3)	  0  2
     74.9622	        	        	        	        	       0	(  6  2  2)	  0  1
     75.1785	        	        	        	        	       0	(  6  2  2)	  0  2
     78.9234	        	        	        	        	       0	(  4  4  4)	  0  1
     79.1557	        	        	        	        	       0	(  4  4  4)	  0  2
     81.8585	        	        	        	        	       0	(  5  5  1)	  0  1
     81.8585	        	        	        	        	       0	(  7  1  1)	  0  1
     82.1032	        	        	        	        	       0	(  5  5  1)	  0  2
     82.1032	        	        	        	        	       0	(  7  1  1)	  0  2
     86.7067	        	        	        	        	       0	(  6  4  2)	  0  1
     86.9732	        	        	        	        	       0	(  6  4  2)	  0  2
     89.6021	        	        	        	        	       0	(  5  5  3)	  0  1
     89.6021	        	        	        	        	       0	(  7  3  1)	  0  1
     89.8825	        	        	        	        	       0	(  5  5  3)	  0  2
     89.8825	        	        	        	        	       0	(  7  3  1)	  0  2
     94.4293	        	        	        	        	       0	(  8  0  0)	  0  1
     94.7344	        	        	        	        	       0	(  8  0  0)	  0  2
     97.3386	        	        	        	        	       0	(  7  3  3)	  0  1
     97.6597	        	        	        	        	       0	(  7  3  3)	  0  2
     98.3123	        	        	        	        	       0	(  6  4  4)	  0  1
     98.6389	        	        	        	        	       0	(  6  4  4)	  0  2
    102.2342	        	        	        	        	       0	(  6  6  0)	  0  1
    102.2342	        	        	        	        	       0	(  8  2  2)	  0  1
    102.5845	        	        	        	        	       0	(  6  6  0)	  0  2
    102.5845	        	        	        	        	       0	(  8  2  2)	  0  2
    105.2133	        	        	        	        	       0	(  5  5  5)	  0  1
    105.2133	        	        	        	        	       0	(  7  5  1)	  0  1
    105.5829	        	        	        	        	       0	(  5  5  5)	  0  2
    105.5829	        	        	        	        	       0	(  7  5  1)	  0  2
    106.2153	        	        	        	        	       0	(  6  6  2)	  0  1
    106.5918	        	        	        	        	       0	(  6  6  2)	  0  2
    110.2788	        	        	        	        	       0	(  8  4  0)	  0  1
    110.6846	        	        	        	        	       0	(  8  4  0)	  0  2
