 Fe3O4   Chi2:  1.3997  CELL:    8.39922   8.39922   8.39922   90.0000   90.0000   90.0000   SPGR: 227:1                  TEMP:      0.00
  1   2693     1.54060     1.54439     0.00000     0.01122     0.00000    0
    60     0     1
       0.00000      28.00000
 2Theta	Yobs	Ycal	Yobs-Ycal	Backg	Posr	(hkl)	K
     10.0167	 1286.00	  662.00	-1078.25	  630.52
     10.0501	 1279.00	  662.00	-1078.25	  630.52
     10.0836	 1291.00	  662.00	-1078.25	  630.52
     10.1170	 1281.00	  662.00	-1078.25	  630.52
     10.1504	 1345.00	  662.00	-1078.25	  630.52
     10.1838	 1305.00	  662.00	-1078.25	  630.52
     10.2172	 1293.00	  662.00	-1078.25	  630.52
     10.2507	 1307.00	  662.00	-1078.25	  630.52
     10.2841	 1282.00	  662.00	-1078.25	  630.52
     10.3175	 1325.00	  662.00	-1078.25	  630.52
     10.3509	 1371.00	  662.00	-1078.25	  630.52
     10.3844	 1316.00	  662.00	-1078.25	  630.52
     10.4178	 1379.00	  662.00	-1078.25	  630.52
     10.4512	 1428.00	  662.00	-1078.25	  630.52
     10.4846	 1366.00	  662.00	-1078.25	  630.52
     10.5180	 1411.00	  662.00	-1078.25	  630.52
     10.5515	 1317.00	  662.00	-1078.25	  630.52
     10.5849	 1401.00	  662.00	-1078.25	  630.52
     10.6183	 1314.00	  662.00	-1078.25	  630.52
     10.6517	 1267.00	  662.00	-1078.25	  630.52
     10.6852	 1385.00	  662.00	-1078.25	  630.52
     10.7186	 1264.00	  662.00	-1078.25	  630.52
     10.7520	 1340.00	  662.00	-1078.25	  630.52
     10.7854	 1316.00	  662.00	-1078.25	  630.52
     10.8189	 1395.00	  662.00	-1078.25	  630.52
     10.8523	 1334.00	  662.00	-1078.25	  630.52
     10.8857	 1362.00	  662.00	-1078.25	  630.52
     10.9191	 1376.00	  662.00	-1078.25	  630.52
     10.9525	 1389.00	  662.00	-1078.25	  630.52
     10.9860	 1361.00	  662.00	-1078.25	  630.52
     11.0194	 1408.00	  662.00	-1078.25	  630.52
     11.0528	 1474.00	  662.00	-1078.25	  630.52
     11.0862	 1384.00	  662.00	-1078.25	  630.52
     11.1197	 1409.00	  662.00	-1078.25	  630.52
     11.1531	 1447.00	  662.00	-1078.25	  630.52
     11.1865	 1387.00	  662.00	-1078.25	  630.52
     11.2199	 1495.00	  662.00	-1078.25	  630.52
     11.2533	 1426.00	  662.00	-1078.25	  630.52
     11.2868	 1417.00	  662.00	-1078.25	  630.52
     11.3202	 1419.00	  662.00	-1078.25	  630.52
     11.3536	 1403.00	  662.00	-1078.25	  630.52
     11.3870	 1521.00	  662.00	-1078.25	  630.52
     11.4205	 1510.00	  662.00	-1078.25	  630.52
     11.4539	 1512.00	  662.00	-1078.25	  630.52
     11.4873	 1412.00	  662.00	-1078.25	  630.52
     11.5207	 1472.00	  662.00	-1078.25	  630.52
     11.5541	 1509.00	  662.00	-1078.25	  630.52
     11.5876	 1562.00	  662.00	-1078.25	  630.52
     11.6210	 1482.00	  662.00	-1078.25	  630.52
     11.6544	 1515.00	  662.00	-1078.25	  630.52
     11.6878	 1489.00	  662.00	-1078.25	  630.52
     11.7213	 1459.00	  662.00	-1078.25	  630.52
     11.7547	 1549.00	  662.00	-1078.25	  630.52
     11.7881	 1563.00	  662.00	-1078.25	  630.52
     11.8215	 1479.00	  662.00	-1078.25	  630.52
     11.8550	 1524.00	  662.00	-1078.25	  630.52
     11.8884	 1547.00	  662.00	-1078.25	  630.52
     11.9218	 1526.00	  662.00	-1078.25	  630.52
     11.9552	 1522.00	  662.00	-1078.25	  630.52
     11.9886	 1558.00	  662.00	-1078.25	  630.52
     12.0221	 1562.00	  662.00	-1078.25	  630.52
     12.0555	 1526.00	  662.00	-1078.25	  630.52
     12.0889	 1584.00	  662.00	-1078.25	  630.52
     12.1223	 1606.00	  662.00	-1078.25	  630.52
     12.1558	 1559.00	  662.00	-1078.25	  630.52
     12.1892	 1581.00	  662.00	-1078.25	  630.52
     12.2226	 1611.00	  662.00	-1078.25	  630.52
     12.2560	 1671.00	  662.00	-1078.25	  630.52
     12.2894	 1681.00	  662.00	-1078.25	  630.52
     12.3229	 1735.00	  662.00	-1078.25	  630.52
     12.3563	 1648.00	  662.00	-1078.25	  630.52
     12.3897	 1732.00	  662.00	-1078.25	  630.52
     12.4231	 1702.00	  662.00	-1078.25	  630.52
     12.4566	 1650.00	  662.00	-1078.25	  630.52
     12.4900	 1639.00	  662.00	-1078.25	  630.52
     12.5234	 1646.00	  662.00	-1078.25	  630.52
     12.5568	 1691.00	  662.00	-1078.25	  630.52
     12.5902	 1711.00	  662.00	-1078.25	  630.52
     12.6237	 1681.00	  662.00	-1078.25	  630.52
     12.6571	 1638.00	  662.00	-1078.25	  630.52
     12.6905	 1726.00	  662.00	-1078.25	  630.52
     12.7239	 1849.00	  662.00	-1078.25	  630.52
     12.7574	 1772.00	  662.00	-1078.25	  630.52
     12.7908	 1774.00	  662.00	-1078.25	  630.52
     12.8242	 1784.00	  662.00	-1078.25	  630.52
     12.8576	 1750.00	  662.00	-1078.25	  630.52
     12.8910	 1816.00	  662.00	-1078.25	  630.52
     12.9245	 1839.00	  662.00	-1078.25	  630.52
     12.9579	 1759.00	  662.00	-1078.25	  630.52
     12.9913	 1781.00	  662.00	-1078.25	  630.52
     13.0247	 1785.00	  662.00	-1078.25	  630.52
     13.0582	 1837.00	  662.00	-1078.25	  630.52
     13.0916	 1739.00	  662.00	-1078.25	  630.52
     13.1250	 1883.00	  662.00	-1078.25	  630.52
     13.1584	 1854.00	  662.00	-1078.25	  630.52
     13.1919	 1856.00	  662.00	-1078.25	  630.52
     13.2253	 1909.00	  662.00	-1078.25	  630.52
     13.2587	 1905.00	  662.00	-1078.25	  630.52
     13.2921	 1919.00	  662.00	-1078.25	  630.52
     13.3255	 1888.00	  662.00	-1078.25	  630.52
     13.3590	 1952.00	  662.00	-1078.25	  630.52
     13.3924	 1991.00	  662.00	-1078.25	  630.52
     13.4258	 1953.00	  662.00	-1078.25	  630.52
     13.4592	 1990.00	  662.00	-1078.25	  630.52
     13.4927	 1990.00	  662.00	-1078.25	  630.52
     13.5261	 1915.00	  662.00	-1078.25	  630.52
     13.5595	 2095.00	  662.00	-1078.25	  630.52
     13.5929	 1951.00	  662.00	-1078.25	  630.52
     13.6263	 1880.00	  662.00	-1078.25	  630.52
     13.6598	 2023.00	  662.00	-1078.25	  630.52
     13.6932	 1959.00	  662.00	-1078.25	  630.52
     13.7266	 2030.00	  662.00	-1078.25	  630.52
     13.7600	 2088.00	  662.00	-1078.25	  630.52
     13.7935	 2027.00	  662.00	-1078.25	  630.52
     13.8269	 2105.00	  662.00	-1078.25	  630.52
     13.8603	 2176.00	  662.00	-1078.25	  630.52
     13.8937	 2050.00	  662.00	-1078.25	  630.52
     13.9271	 2132.00	  662.00	-1078.25	  630.52
     13.9606	 2128.00	  662.00	-1078.25	  630.52
     13.9940	 2159.00	  662.00	-1078.25	  630.52
     14.0274	 2241.00	  662.00	-1078.25	  630.52
     14.0608	 2255.00	  662.00	-1078.25	  630.52
     14.0943	 2166.00	  662.00	-1078.25	  630.52
     14.1277	 2130.00	  662.00	-1078.25	  630.52
     14.1611	 2114.00	  662.00	-1078.25	  630.52
     14.1945	 2286.00	  662.00	-1078.25	  630.52
     14.2280	 2216.00	  662.00	-1078.25	  630.52
     14.2614	 2285.00	  662.00	-1078.25	  630.52
     14.2948	 2290.00	  662.00	-1078.25	  630.52
     14.3282	 2234.00	  662.00	-1078.25	  630.52
     14.3616	 2339.00	  662.00	-1078.25	  630.52
     14.3951	 2344.00	  662.00	-1078.25	  630.52
     14.4285	 2349.00	  662.00	-1078.25	  630.52
     14.4619	 2418.00	  662.00	-1078.25	  630.52
     14.4953	 2415.00	  662.00	-1078.25	  630.52
     14.5288	 2471.00	  662.00	-1078.25	  630.52
     14.5622	 2388.00	  662.00	-1078.25	  630.52
     14.5956	 2516.00	  662.00	-1078.25	  630.52
     14.6290	 2418.00	  662.00	-1078.25	  630.52
     14.6624	 2376.00	  662.00	-1078.25	  630.52
     14.6959	 2445.00	  662.00	-1078.25	  630.52
     14.7293	 2465.00	  662.00	-1078.25	  630.52
     14.7627	 2516.00	  662.00	-1078.25	  630.52
     14.7961	 2445.00	  662.00	-1078.25	  630.52
     14.8296	 2411.00	  662.00	-1078.25	  630.52
     14.8630	 2609.00	  662.00	-1078.25	  630.52
     14.8964	 2572.00	  662.00	-1078.25	  630.52
     14.9298	 2556.00	  662.00	-1078.25	  630.52
     14.9632	 2544.00	  662.00	-1078.25	  630.52
     14.9967	 2577.00	  662.00	-1078.25	  630.52
     15.0301	 2607.00	  662.00	-1078.25	  630.52
     15.0635	 2677.00	  662.00	-1078.25	  630.52
     15.0969	 2711.00	  662.00	-1078.25	  630.52
     15.1304	 2655.00	  662.00	-1078.25	  630.52
     15.1638	 2696.00	  662.00	-1078.25	  630.52
     15.1972	 2684.00	  662.00	-1078.25	  630.52
     15.2306	 2662.00	  662.00	-1078.25	  630.52
     15.2640	 2756.00	  662.00	-1078.25	  630.52
     15.2975	 2709.00	  662.00	-1078.25	  630.52
     15.3309	 2787.00	  662.00	-1078.25	  630.52
     15.3643	 2823.00	  662.00	-1078.25	  630.52
     15.3977	 2803.00	  662.00	-1078.25	  630.52
     15.4312	 2852.00	  662.00	-1078.25	  630.52
     15.4646	 2838.00	  662.00	-1078.25	  630.52
     15.4980	 2916.00	  662.00	-1078.25	  630.52
     15.5314	 2980.00	  662.00	-1078.25	  630.52
     15.5649	 2831.00	  662.00	-1078.25	  630.52
     15.5983	 2884.00	  662.00	-1078.25	  630.52
     15.6317	 2920.00	  662.00	-1078.25	  630.52
     15.6651	 2963.00	  662.00	-1078.25	  630.52
     15.6985	 2970.00	  662.00	-1078.25	  630.52
     15.7320	 3028.00	  662.00	-1078.25	  630.52
     15.7654	 2961.00	  662.00	-1078.25	  630.52
     15.7988	 3003.00	  662.00	-1078.25	  630.52
     15.8322	 3045.00	  662.00	-1078.25	  630.52
     15.8657	 3098.00	  662.00	-1078.25	  630.52
     15.8991	 3037.00	  662.00	-1078.25	  630.52
     15.9325	 3129.00	  662.00	-1078.25	  630.52
     15.9659	 3179.00	  662.00	-1078.25	  630.52
     15.9993	 3062.00	  662.00	-1078.25	  630.52
     16.0328	 3032.00	  662.00	-1078.25	  630.52
     16.0662	 3232.00	  662.00	-1078.25	  630.52
     16.0996	 3182.00	  662.00	-1078.25	  630.52
     16.1330	 3405.00	  662.00	-1078.25	  630.52
     16.1665	 3371.00	  662.00	-1078.25	  630.52
     16.1999	 3319.00	  662.00	-1078.25	  630.52
     16.2333	 3277.00	  662.00	-1078.25	  630.52
     16.2667	 3292.00	  662.00	-1078.25	  630.52
     16.3001	 3233.00	  662.00	-1078.25	  630.52
     16.3336	 3335.00	  662.00	-1078.25	  630.52
     16.3670	 3390.00	  662.00	-1078.25	  630.52
     16.4004	 3382.00	  662.00	-1078.25	  630.52
     16.4338	 3543.00	  662.00	-1078.25	  630.52
     16.4673	 3355.00	  662.00	-1078.25	  630.52
     16.5007	 3482.00	  662.00	-1078.25	  630.52
     16.5341	 3533.00	  662.00	-1078.25	  630.52
     16.5675	 3440.00	  662.00	-1078.25	  630.52
     16.6010	 3554.00	  662.00	-1078.25	  630.52
     16.6344	 3510.00	  662.00	-1078.25	  630.52
     16.6678	 3580.00	  662.00	-1078.25	  630.52
     16.7012	 3500.00	  662.00	-1078.25	  630.52
     16.7346	 3653.00	  662.00	-1078.25	  630.52
     16.7681	 3405.00	  662.00	-1078.25	  630.52
     16.8015	 3516.00	  662.00	-1078.25	  630.52
     16.8349	 3571.00	  662.00	-1078.25	  630.52
     16.8683	 3618.00	  662.00	-1078.25	  630.52
     16.9018	 3748.00	  662.00	-1078.25	  630.52
     16.9352	 3641.00	  662.00	-1078.25	  630.52
     16.9686	 3753.00	  662.00	-1078.25	  630.52
     17.0020	 3662.00	  662.00	-1078.25	  630.52
     17.0354	 3595.00	  662.00	-1078.25	  630.52
     17.0689	 3696.00	  662.00	-1078.25	  630.52
     17.1023	 3679.00	  662.00	-1078.25	  630.52
     17.1357	 3677.00	  662.00	-1078.25	  630.52
     17.1691	 3677.00	  662.00	-1078.25	  630.52
     17.2026	 3756.00	  662.00	-1078.25	  630.52
     17.2360	 3690.00	  662.00	-1078.25	  630.52
     17.2694	 3804.00	  662.00	-1078.25	  630.52
     17.3028	 3794.00	  662.00	-1078.25	  630.52
     17.3362	 3725.00	  662.00	-1078.25	  630.52
     17.3697	 3759.00	  662.00	-1078.25	  630.52
     17.4031	 3819.00	  662.00	-1078.25	  630.52
     17.4365	 3894.00	  662.00	-1078.25	  630.52
     17.4699	 3781.00	  662.00	-1078.25	  630.52
     17.5034	 3839.00	  662.00	-1078.25	  630.52
     17.5368	 3824.00	  662.00	-1078.25	  630.52
     17.5702	 3873.00	  662.00	-1078.25	  630.52
     17.6036	 3901.00	  662.00	-1078.25	  630.52
     17.6371	 3830.00	  662.00	-1078.25	  630.52
     17.6705	 3847.00	  662.00	-1078.25	  630.52
     17.7039	 3856.00	  662.00	-1078.25	  630.52
     17.7373	 3858.00	  662.00	-1078.25	  630.52
     17.7707	 3786.00	  662.00	-1078.25	  630.52
     17.8042	 3909.00	  662.00	-1078.25	  630.52
     17.8376	 3922.00	  662.00	-1078.25	  630.52
     17.8710	 3937.00	  662.00	-1078.25	  630.52
     17.9044	 3908.00	  662.00	-1078.25	  630.52
     17.9379	 4001.00	  662.00	-1078.25	  630.52
     17.9713	 4049.00	  662.00	-1078.25	  630.52
     18.0047	 3922.00	  662.00	-1078.25	  630.52
     18.0381	 3911.00	  662.00	-1078.25	  630.52
     18.0715	 4053.00	  662.00	-1078.25	  630.52
     18.1050	 4010.00	  662.00	-1078.25	  630.52
     18.1384	 4071.00	  662.00	-1078.25	  630.52
     18.1718	 4154.00	  662.00	-1078.25	  630.52
     18.2052	 4014.00	  662.00	-1078.25	  630.52
     18.2387	 4138.00	  662.00	-1078.25	  630.52
     18.2721	 4183.00	  662.00	-1078.25	  630.52
     18.3055	 4110.00	  662.00	-1078.25	  630.52
     18.3389	 4313.00	  662.00	-1078.25	  630.52
     18.3723	 4080.00	  662.00	-1078.25	  630.52
     18.4058	 4067.00	  662.00	-1078.25	  630.52
     18.4392	 3996.00	  662.00	-1078.25	  630.52
     18.4726	 3989.00	  662.00	-1078.25	  630.52
     18.5060	 3960.00	  662.00	-1078.25	  630.52
     18.5395	 3966.00	  662.00	-1078.25	  630.52
     18.5729	 3868.00	  662.00	-1078.25	  630.52
     18.6063	 3803.00	  662.00	-1078.25	  630.52
     18.6397	 3884.00	  662.00	-1078.25	  630.52
     18.6731	 3674.00	  662.00	-1078.25	  630.52
     18.7066	 3740.00	  662.00	-1078.25	  630.52
     18.7400	 3739.00	  662.00	-1078.25	  630.52
     18.7734	 3797.00	  662.00	-1078.25	  630.52
     18.8068	 3769.00	  662.00	-1078.25	  630.52
     18.8403	 3803.00	  662.00	-1078.25	  630.52
     18.8737	 3780.00	  662.00	-1078.25	  630.52
     18.9071	 3711.00	  662.00	-1078.25	  630.52
     18.9405	 3668.00	  662.00	-1078.25	  630.52
     18.9740	 3682.00	  662.00	-1078.25	  630.52
     19.0074	 3643.00	  662.00	-1078.25	  630.52
     19.0408	 3589.00	  662.00	-1078.25	  630.52
     19.0742	 3627.00	  662.00	-1078.25	  630.52
     19.1076	 3534.00	  662.00	-1078.25	  630.52
     19.1411	 3608.00	  662.00	-1078.25	  630.52
     19.1745	 3492.00	  662.00	-1078.25	  630.52
     19.2079	 3443.00	  662.00	-1078.25	  630.52
     19.2413	 3359.00	  662.00	-1078.25	  630.52
     19.2748	 3426.00	  662.00	-1078.25	  630.52
     19.3082	 3489.00	  662.00	-1078.25	  630.52
     19.3416	 3359.00	  662.00	-1078.25	  630.52
     19.3750	 3338.00	  662.00	-1078.25	  630.52
     19.4084	 3427.00	  662.00	-1078.25	  630.52
     19.4419	 3324.00	  662.00	-1078.25	  630.52
     19.4753	 3383.00	  662.00	-1078.25	  630.52
     19.5087	 3337.00	  662.00	-1078.25	  630.52
     19.5421	 3177.00	  662.00	-1078.25	  630.52
     19.5756	 3250.00	  662.00	-1078.25	  630.52
     19.6090	 3247.00	  662.00	-1078.25	  630.52
     19.6424	 3132.00	  662.00	-1078.25	  630.52
     19.6758	 3143.00	  662.00	-1078.25	  630.52
     19.7092	 3238.00	  662.00	-1078.25	  630.52
     19.7427	 3182.00	  662.00	-1078.25	  630.52
     19.7761	 3092.00	  662.00	-1078.25	  630.52
     19.8095	 3083.00	  662.00	-1078.25	  630.52
     19.8429	 2953.00	  662.00	-1078.25	  630.52
     19.8764	 3035.00	  662.00	-1078.25	  630.52
     19.9098	 3079.00	  662.00	-1078.25	  630.52
     19.9432	 3011.00	  662.00	-1078.25	  630.52
     19.9766	 3038.00	  662.00	-1078.25	  630.52
     20.0100	 2959.00	  662.00	-1078.25	  630.52
     20.0435	 2972.00	  662.00	-1078.25	  630.52
     20.0769	 2877.00	  662.00	-1078.25	  630.52
     20.1103	 2883.00	  662.00	-1078.25	  630.52
     20.1437	 2855.00	  662.00	-1078.25	  630.52
     20.1772	 2856.00	  662.00	-1078.25	  630.52
     20.2106	 2760.00	  662.00	-1078.25	  630.52
     20.2440	 2734.00	  662.00	-1078.25	  630.52
     20.2774	 2722.00	  662.00	-1078.25	  630.52
     20.3109	 2772.00	  662.00	-1078.25	  630.52
     20.3443	 2762.00	  662.00	-1078.25	  630.52
     20.3777	 2694.00	  662.00	-1078.25	  630.52
     20.4111	 2612.00	  662.00	-1078.25	  630.52
     20.4445	 2605.00	  662.00	-1078.25	  630.52
     20.4780	 2505.00	  662.00	-1078.25	  630.52
     20.5114	 2657.00	  662.00	-1078.25	  630.52
     20.5448	 2638.00	  662.00	-1078.25	  630.52
     20.5782	 2489.00	  662.00	-1078.25	  630.52
     20.6117	 2646.00	  662.00	-1078.25	  630.52
     20.6451	 2510.00	  662.00	-1078.25	  630.52
     20.6785	 2431.00	  662.00	-1078.25	  630.52
     20.7119	 2496.00	  662.00	-1078.25	  630.52
     20.7453	 2466.00	  662.00	-1078.25	  630.52
     20.7788	 2381.00	  662.00	-1078.25	  630.52
     20.8122	 2448.00	  662.00	-1078.25	  630.52
     20.8456	 2378.00	  662.00	-1078.25	  630.52
     20.8790	 2455.00	  662.00	-1078.25	  630.52
     20.9125	 2320.00	  662.00	-1078.25	  630.52
     20.9459	 2276.00	  662.00	-1078.25	  630.52
     20.9793	 2233.00	  662.00	-1078.25	  630.52
     21.0127	 2228.00	  662.00	-1078.25	  630.52
     21.0461	 2267.00	  662.00	-1078.25	  630.52
     21.0796	 2242.00	  662.00	-1078.25	  630.52
     21.1130	 2240.00	  662.00	-1078.25	  630.52
     21.1464	 2191.00	  662.00	-1078.25	  630.52
     21.1798	 2200.00	  662.00	-1078.25	  630.52
     21.2133	 2112.00	  662.00	-1078.25	  630.52
     21.2467	 2120.00	  662.00	-1078.25	  630.52
     21.2801	 2087.00	  662.00	-1078.25	  630.52
     21.3135	 2012.00	  662.00	-1078.25	  630.52
     21.3470	 2049.00	  662.00	-1078.25	  630.52
     21.3804	 2030.00	  662.00	-1078.25	  630.52
     21.4138	 2083.00	  662.00	-1078.25	  630.52
     21.4472	 1894.00	  662.00	-1078.25	  630.52
     21.4806	 2028.00	  662.00	-1078.25	  630.52
     21.5141	 1946.00	  662.00	-1078.25	  630.52
     21.5475	 1944.00	  662.00	-1078.25	  630.52
     21.5809	 1896.00	  662.00	-1078.25	  630.52
     21.6143	 1875.00	  662.00	-1078.25	  630.52
     21.6478	 1830.00	  662.00	-1078.25	  630.52
     21.6812	 1818.00	  662.00	-1078.25	  630.52
     21.7146	 1916.00	  662.00	-1078.25	  630.52
     21.7480	 1805.00	  662.00	-1078.25	  630.52
     21.7814	 1918.00	  662.00	-1078.25	  630.52
     21.8149	 1907.00	  662.00	-1078.25	  630.52
     21.8483	 1792.00	  662.00	-1078.25	  630.52
     21.8817	 1789.00	  662.00	-1078.25	  630.52
     21.9151	 1762.00	  662.00	-1078.25	  630.52
     21.9486	 1747.00	  662.00	-1078.25	  630.52
     21.9820	 1789.00	  662.00	-1078.25	  630.52
     22.0154	 1708.00	  662.00	-1078.25	  630.52
     22.0488	 1712.00	  662.00	-1078.25	  630.52
     22.0822	 1718.00	  662.00	-1078.25	  630.52
     22.1157	 1752.00	  662.00	-1078.25	  630.52
     22.1491	 1667.00	  662.00	-1078.25	  630.52
     22.1825	 1673.00	  662.00	-1078.25	  630.52
     22.2159	 1651.00	  662.00	-1078.25	  630.52
     22.2494	 1573.00	  662.00	-1078.25	  630.52
     22.2828	 1564.00	  662.00	-1078.25	  630.52
     22.3162	 1558.00	  662.00	-1078.25	  630.52
     22.3496	 1558.00	  662.00	-1078.25	  630.52
     22.3830	 1599.00	  662.00	-1078.25	  630.52
     22.4165	 1634.00	  662.00	-1078.25	  630.52
     22.4499	 1551.00	  662.00	-1078.25	  630.52
     22.4833	 1485.00	  662.00	-1078.25	  630.52
     22.5167	 1534.00	  662.00	-1078.25	  630.52
     22.5502	 1495.00	  662.00	-1078.25	  630.52
     22.5836	 1470.00	  662.00	-1078.25	  630.52
     22.6170	 1501.00	  662.00	-1078.25	  630.52
     22.6504	 1489.00	  662.00	-1078.25	  630.52
     22.6839	 1529.00	  662.00	-1078.25	  630.52
     22.7173	 1438.00	  662.00	-1078.25	  630.52
     22.7507	 1412.00	  662.00	-1078.25	  630.52
     22.7841	 1365.00	  662.00	-1078.25	  630.52
     22.8175	 1434.00	  662.00	-1078.25	  630.52
     22.8510	 1422.00	  662.00	-1078.25	  630.52
     22.8844	 1417.00	  662.00	-1078.25	  630.52
     22.9178	 1436.00	  662.00	-1078.25	  630.52
     22.9512	 1386.00	  662.00	-1078.25	  630.52
     22.9847	 1389.00	  662.00	-1078.25	  630.52
     23.0181	 1322.00	  662.00	-1078.25	  630.52
     23.0515	 1383.00	  662.00	-1078.25	  630.52
     23.0849	 1357.00	  662.00	-1078.25	  630.52
     23.1183	 1311.00	  662.00	-1078.25	  630.52
     23.1518	 1263.00	  662.00	-1078.25	  630.52
     23.1852	 1281.00	  662.00	-1078.25	  630.52
     23.2186	 1292.00	  662.00	-1078.25	  630.52
     23.2520	 1340.00	  662.00	-1078.25	  630.52
     23.2855	 1201.00	  662.00	-1078.25	  630.52
     23.3189	 1327.00	  662.00	-1078.25	  630.52
     23.3523	 1251.00	  662.00	-1078.25	  630.52
     23.3857	 1225.00	  662.00	-1078.25	  630.52
     23.4191	 1269.00	  662.00	-1078.25	  630.52
     23.4526	 1214.00	  662.00	-1078.25	  630.52
     23.4860	 1238.00	  662.00	-1078.25	  630.52
     23.5194	 1207.00	  662.00	-1078.25	  630.52
     23.5528	 1203.00	  662.00	-1078.25	  630.52
     23.5863	 1146.00	  662.00	-1078.25	  630.52
     23.6197	 1248.00	  662.00	-1078.25	  630.52
     23.6531	 1198.00	  662.00	-1078.25	  630.52
     23.6865	 1208.00	  662.00	-1078.25	  630.52
     23.7200	 1178.00	  662.00	-1078.25	  630.52
     23.7534	 1172.00	  662.00	-1078.25	  630.52
     23.7868	 1097.00	  662.00	-1078.25	  630.52
     23.8202	 1126.00	  662.00	-1078.25	  630.52
     23.8536	 1147.00	  662.00	-1078.25	  630.52
     23.8871	 1102.00	  662.00	-1078.25	  630.52
     23.9205	 1074.00	  662.00	-1078.25	  630.52
     23.9539	 1109.00	  662.00	-1078.25	  630.52
     23.9873	 1110.00	  662.00	-1078.25	  630.52
     24.0208	 1076.00	  662.00	-1078.25	  630.52
     24.0542	 1086.00	  662.00	-1078.25	  630.52
     24.0876	 1045.00	  662.00	-1078.25	  630.52
     24.1210	 1038.00	  662.00	-1078.25	  630.52
     24.1544	 1092.00	  662.00	-1078.25	  630.52
     24.1879	 1118.00	  662.00	-1078.25	  630.52
     24.2213	 1066.00	  662.00	-1078.25	  630.52
     24.2547	 1088.00	  662.00	-1078.25	  630.52
     24.2881	 1044.00	  662.00	-1078.25	  630.52
     24.3216	 1007.00	  662.00	-1078.25	  630.52
     24.3550	  971.00	  662.00	-1078.25	  630.52
     24.3884	  991.00	  662.00	-1078.25	  630.52
     24.4218	  993.00	  662.00	-1078.25	  630.52
     24.4552	  998.00	  662.00	-1078.25	  630.52
     24.4887	 1080.00	  662.00	-1078.25	  630.52
     24.5221	 1024.00	  662.00	-1078.25	  630.52
     24.5555	  988.00	  662.00	-1078.25	  630.52
     24.5889	  989.00	  662.00	-1078.25	  630.52
     24.6224	 1008.00	  662.00	-1078.25	  630.52
     24.6558	  956.00	  662.00	-1078.25	  630.52
     24.6892	  983.00	  662.00	-1078.25	  630.52
     24.7226	 1014.00	  662.00	-1078.25	  630.52
     24.7561	 1028.00	  662.00	-1078.25	  630.52
     24.7895	  997.00	  662.00	-1078.25	  630.52
     24.8229	  955.00	  662.00	-1078.25	  630.52
     24.8563	  946.00	  662.00	-1078.25	  630.52
     24.8897	  991.00	  662.00	-1078.25	  630.52
     24.9232	  956.00	  662.00	-1078.25	  630.52
     24.9566	  901.00	  662.00	-1078.25	  630.52
     24.9900	  898.00	  662.00	-1078.25	  630.52
     25.0234	  907.00	  662.00	-1078.25	  630.52
     25.0569	 1009.00	  662.00	-1078.25	  630.52
     25.0903	  952.00	  662.00	-1078.25	  630.52
     25.1237	  935.00	  662.00	-1078.25	  630.52
     25.1571	  895.00	  662.00	-1078.25	  630.52
     25.1905	  900.00	  662.00	-1078.25	  630.52
     25.2240	  872.00	  662.00	-1078.25	  630.52
     25.2574	  888.00	  662.00	-1078.25	  630.52
     25.2908	  833.00	  662.00	-1078.25	  630.52
     25.3242	  925.00	  662.00	-1078.25	  630.52
     25.3577	  897.00	  662.00	-1078.25	  630.52
     25.3911	  840.00	  662.00	-1078.25	  630.52
     25.4245	  849.00	  662.00	-1078.25	  630.52
     25.4579	  874.00	  662.00	-1078.25	  630.52
     25.4913	  856.00	  662.00	-1078.25	  630.52
     25.5248	  819.00	  662.00	-1078.25	  630.52
     25.5582	  880.00	  662.00	-1078.25	  630.52
     25.5916	  812.00	  662.00	-1078.25	  630.52
     25.6250	  860.00	  662.00	-1078.25	  630.52
     25.6585	  787.00	  662.00	-1078.25	  630.52
     25.6919	  813.00	  662.00	-1078.25	  630.52
     25.7253	  807.00	  662.00	-1078.25	  630.52
     25.7587	  811.00	  662.00	-1078.25	  630.52
     25.7921	  865.00	  662.00	-1078.25	  630.52
     25.8256	  831.00	  662.00	-1078.25	  630.52
     25.8590	  768.00	  662.00	-1078.25	  630.52
     25.8924	  775.00	  662.00	-1078.25	  630.52
     25.9258	  851.00	  662.00	-1078.25	  630.52
     25.9593	  835.00	  662.00	-1078.25	  630.52
     25.9927	  770.00	  662.00	-1078.25	  630.52
     26.0261	  795.00	  662.00	-1078.25	  630.52
     26.0595	  784.00	  662.00	-1078.25	  630.52
     26.0930	  790.00	  662.00	-1078.25	  630.52
     26.1264	  769.00	  662.00	-1078.25	  630.52
     26.1598	  774.00	  662.00	-1078.25	  630.52
     26.1932	  741.00	  662.00	-1078.25	  630.52
     26.2266	  790.00	  662.00	-1078.25	  630.52
     26.2601	  709.00	  662.00	-1078.25	  630.52
     26.2935	  740.00	  662.00	-1078.25	  630.52
     26.3269	  747.00	  662.00	-1078.25	  630.52
     26.3603	  736.00	  662.00	-1078.25	  630.52
     26.3938	  757.00	  662.00	-1078.25	  630.52
     26.4272	  716.00	  662.00	-1078.25	  630.52
     26.4606	  750.00	  662.00	-1078.25	  630.52
     26.4940	  761.00	  662.00	-1078.25	  630.52
     26.5274	  830.00	  662.00	-1078.25	  630.52
     26.5609	  730.00	  662.00	-1078.25	  630.52
     26.5943	  717.00	  662.00	-1078.25	  630.52
     26.6277	  788.00	  662.00	-1078.25	  630.52
     26.6611	  732.00	  662.00	-1078.25	  630.52
     26.6946	  693.00	  662.00	-1078.25	  630.52
     26.7280	  729.00	  662.00	-1078.25	  630.52
     26.7614	  740.00	  662.00	-1078.25	  630.52
     26.7948	  697.00	  662.00	-1078.25	  630.52
     26.8282	  718.00	  662.00	-1078.25	  630.52
     26.8617	  724.00	  662.00	-1078.25	  630.52
     26.8951	  687.00	  662.00	-1078.25	  630.52
     26.9285	  746.00	  662.00	-1078.25	  630.52
     26.9619	  720.00	  662.00	-1078.25	  630.52
     26.9954	  728.00	  662.00	-1078.25	  630.52
     27.0288	  684.00	  662.00	-1078.25	  630.52
     27.0622	  699.00	  662.00	-1078.25	  630.52
     27.0956	  683.00	  662.00	-1078.25	  630.52
     27.1291	  723.00	  661.99	-1078.25	  630.51
     27.1625	  666.00	  660.36	-1078.25	  628.88
     27.1959	  660.00	  658.74	-1078.25	  627.26
     27.2293	  683.00	  657.11	-1078.25	  625.63
     27.2627	  717.00	  655.49	-1078.25	  624.01
     27.2962	  699.00	  653.87	-1078.25	  622.39
     27.3296	  646.00	  652.24	-1078.25	  620.76
     27.3630	  656.00	  650.62	-1078.25	  619.14
     27.3964	  678.00	  648.99	-1078.25	  617.51
     27.4299	  658.00	  647.37	-1078.25	  615.89
     27.4633	  675.00	  645.75	-1078.25	  614.27
     27.4967	  657.00	  644.12	-1078.25	  612.64
     27.5301	  684.00	  642.50	-1078.25	  611.02
     27.5635	  656.00	  640.87	-1078.25	  609.39
     27.5970	  712.00	  639.25	-1078.25	  607.77
     27.6304	  682.00	  637.63	-1078.25	  606.15
     27.6638	  678.00	  636.00	-1078.25	  604.52
     27.6972	  658.00	  634.38	-1078.25	  602.90
     27.7307	  715.00	  632.75	-1078.25	  601.27
     27.7641	  655.00	  631.13	-1078.25	  599.65
     27.7975	  683.00	  629.51	-1078.25	  598.03
     27.8309	  609.00	  627.88	-1078.25	  596.40
     27.8643	  654.00	  626.26	-1078.25	  594.78
     27.8978	  629.00	  624.63	-1078.25	  593.15
     27.9312	  575.00	  623.01	-1078.25	  591.53
     27.9646	  596.00	  621.39	-1078.25	  589.91
     27.9980	  643.00	  620.00	-1078.25	  588.52
     28.0315	  656.00	  631.29	-1053.54	  587.28
     28.0649	  646.00	  630.34	-1062.59	  586.05
     28.0983	  635.00	  629.53	-1072.78	  584.81
     28.1317	  603.00	  628.73	-1103.98	  583.57
     28.1651	  601.00	  627.96	-1105.21	  582.33
     28.1986	  620.00	  627.22	-1085.47	  581.10
     28.2320	  672.00	  626.50	-1032.75	  579.86
     28.2654	  608.00	  625.80	-1096.05	  578.62
     28.2988	  603.00	  625.14	-1100.39	  577.38
     28.3323	  589.00	  624.51	-1113.76	  576.15
     28.3657	  616.00	  623.91	-1086.16	  574.91
     28.3991	  658.00	  623.35	-1043.60	  573.67
     28.4325	  632.00	  622.83	-1069.08	  572.43
     28.4660	  603.00	  622.35	-1097.60	  571.20
     28.4994	  657.00	  621.92	-1043.17	  569.96
     28.5328	  658.00	  621.54	-1041.79	  568.72
     28.5662	  606.00	  621.22	-1093.47	  567.49
     28.5996	  600.00	  620.95	-1099.20	  566.25
     28.6331	  602.00	  620.74	-1096.99	  565.01
     28.6665	  629.00	  620.61	-1069.86	  563.77
     28.6999	  644.00	  620.55	-1054.80	  562.54
     28.7333	  601.00	  620.58	-1097.83	  561.30
     28.7668	  593.00	  620.69	-1105.94	  560.06
     28.8002	  601.00	  620.91	-1098.16	  558.82
     28.8336	  579.00	  621.24	-1120.49	  557.59
     28.8670	  596.00	  621.68	-1103.93	  556.35
     28.9004	  633.00	  622.26	-1067.51	  555.11
     28.9339	  627.00	  622.99	-1074.24	  553.87
     28.9673	  597.00	  623.85	-1105.10	  552.61
     29.0007	  693.00	  624.90	-1010.15	  551.34
     29.0341	  623.00	  626.15	-1081.40	  550.08
     29.0676	  661.00	  627.63	-1044.88	  548.81
     29.1010	  617.00	  629.36	-1090.61	  547.55
     29.1344	  589.00	  631.38	-1120.63	  546.28
     29.1678	  644.00	  633.73	-1067.98	  545.01
     29.2012	  610.00	  636.44	-1104.69	  543.75
     29.2347	  665.00	  639.57	-1052.82	  542.48
     29.2681	  669.00	  643.19	-1052.44	  541.22
     29.3015	  635.00	  647.35	-1090.60	  539.95
     29.3349	  658.00	  652.15	-1072.40	  538.69
     29.3684	  723.00	  657.68	-1012.93	  537.42
     29.4018	  700.00	  664.08	-1042.33	  536.16
     29.4352	  690.00	  671.47	-1059.72	  534.89
     29.4686	  697.00	  680.05	-1061.30	  533.63
     29.5020	  665.00	  690.02	-1103.27	  532.36
     29.5355	  734.00	  701.62	-1045.87	  531.09
     29.5689	  681.00	  715.16	-1112.41	  529.83
     29.6023	  730.00	  730.96	-1079.21	  528.56
     29.6357	  726.00	  749.44	-1101.69	  527.30
     29.6692	  774.00	  771.05	-1075.30	  526.03
     29.7026	  807.00	  796.30	-1067.55	  524.77
     29.7360	  821.00	  825.72	-1082.97	  523.50
     29.7694	  842.00	  859.89	-1096.14	  522.24
     29.8029	  930.00	  899.28	-1047.53	  520.97
     29.8363	  887.00	  944.22	-1135.47	  519.71
     29.8697	 1010.00	  994.65	-1062.90	  518.44
     29.9031	 1043.00	 1049.90	-1085.15	  517.17
     29.9365	 1112.00	 1108.29	-1074.54	  515.91
     29.9700	 1206.00	 1166.79	-1039.04	  514.64
     30.0034	 1211.00	 1220.93	-1088.18	  513.38
     30.0368	 1206.00	 1265.20	-1137.45	  512.11
     30.0702	 1349.00	 1294.02	-1023.27	  510.85
     30.1037	 1307.00	 1303.40	-1074.65	  509.70
     30.1371	 1300.00	 1292.55	-1070.80	  509.29
     30.1705	 1318.00	 1262.39	-1022.64	  508.89
     30.2039	 1289.00	 1217.07	-1006.32	  508.48
     30.2373	 1175.00	 1161.98	-1065.23	  508.08
     30.2708	 1161.00	 1102.43	-1019.68	  507.67
     30.3042	  989.00	 1042.74	-1131.99	  507.26
     30.3376	  972.00	  985.94	-1092.19	  506.86
     30.3710	  934.00	  933.77	-1078.02	  506.45
     30.4045	  843.00	  886.99	-1122.24	  506.05
     30.4379	  802.00	  845.68	-1121.93	  505.64
     30.4713	  771.00	  809.58	-1116.83	  505.23
     30.5047	  803.00	  778.23	-1053.48	  504.83
     30.5382	  771.00	  751.07	-1058.32	  504.42
     30.5716	  750.00	  727.58	-1055.83	  504.02
     30.6050	  750.00	  707.24	-1035.49	  503.61
     30.6384	  693.00	  689.60	-1074.85	  503.20
     30.6718	  633.00	  674.25	-1119.50	  502.80
     30.7053	  720.00	  660.86	-1019.11	  502.39
     30.7387	  650.00	  649.12	-1077.37	  501.99
     30.7721	  643.00	  638.78	-1074.03	  501.58
     30.8055	  617.00	  629.64	-1090.89	  501.17
     30.8390	  656.00	  621.51	-1043.76	  500.77
     30.8724	  610.00	  614.25	-1082.50	  500.36
     30.9058	  590.00	  607.73	-1095.98	  499.96
     30.9392	  562.00	  601.85	-1118.10	  499.55
     30.9726	  636.00	  596.54	-1038.79	  499.14
     31.0061	  619.00	  591.70	-1050.95	  498.74
     31.0395	  545.00	  587.29	-1120.54	  498.33
     31.0729	  587.00	  583.25	-1074.50	  497.93
     31.1063	  593.00	  579.54	-1064.79	  497.52
     31.1398	  543.00	  576.12	-1111.37	  497.11
     31.1732	  556.00	  572.95	-1095.20	  496.71
     31.2066	  605.00	  570.02	-1043.27	  496.30
     31.2400	  573.00	  567.29	-1072.54	  495.90
     31.2734	  589.00	  564.74	-1053.99	  495.49
     31.3069	  583.00	  562.36	-1057.61	  495.08
     31.3403	  578.00	  560.12	-1060.37	  494.68
     31.3737	  518.00	  558.02	-1118.27	  494.27
     31.4071	  585.00	  556.05	-1049.30	  493.87
     31.4406	  519.00	  554.18	-1113.43	  493.46
     31.4740	  626.00	  552.41	-1004.66	  493.05
     31.5074	  557.00	  550.74	-1071.99	  492.65
     31.5408	  578.00	  549.15	-1049.40	  492.24
     31.5742	  576.00	  547.64	-1049.89	  491.84
     31.6077	  556.00	  546.19	-1068.44	  491.43
     31.6411	  523.00	  544.81	-1100.06	  491.02
     31.6745	  543.00	  543.49	-1078.74	  490.62
     31.7079	  541.00	  542.23	-1079.48	  490.21
     31.7414	  572.00	  541.01	-1047.26	  489.81
     31.7748	  503.00	  539.84	-1115.09	  489.40
     31.8082	  537.00	  538.82	-1080.07	  489.09
     31.8416	  538.00	  538.00	-1078.25	  488.96
     31.8750	  530.00	  537.23	-1085.48	  488.83
     31.9085	  507.00	  536.49	-1107.74	  488.69
     31.9419	  551.00	  535.78	-1063.03	  488.56
     31.9753	  489.00	  535.10	-1124.35	  488.43
     32.0087	  505.00	  534.45	-1107.70	  488.30
     32.0422	  552.00	  533.82	-1060.07	  488.16
     32.0756	  559.00	  533.22	-1052.47	  488.03
     32.1090	  500.00	  532.64	-1110.89	  487.90
     32.1424	  569.00	  532.09	-1041.34	  487.77
     32.1759	  558.00	  531.55	-1051.80	  487.63
     32.2093	  527.00	  531.03	-1082.28	  487.50
     32.2427	  515.00	  530.53	-1093.78	  487.37
     32.2761	  540.00	  530.04	-1068.29	  487.24
     32.3095	  560.00	  544.09	-1062.34	  487.10
     32.3430	  486.00	  543.95	-1136.20	  486.97
     32.3764	  525.00	  543.83	-1097.08	  486.84
     32.4098	  561.00	  551.02	-1068.27	  486.70
     32.4432	  548.00	  551.10	-1081.35	  486.57
     32.4767	  532.00	  551.22	-1097.47	  486.44
     32.5101	  553.00	  551.37	-1076.62	  486.31
     32.5435	  545.00	  551.54	-1084.79	  486.17
     32.5769	  576.00	  551.74	-1053.99	  486.04
     32.6103	  542.00	  551.98	-1088.23	  485.91
     32.6438	  470.00	  552.24	-1160.49	  485.78
     32.6772	  552.00	  552.53	-1078.78	  485.64
     32.7106	  576.00	  552.85	-1055.10	  485.51
     32.7440	  543.00	  553.21	-1088.46	  485.38
     32.7775	  498.00	  553.60	-1133.85	  485.25
     32.8109	  512.00	  554.02	-1120.27	  485.11
     32.8443	  513.00	  554.48	-1119.73	  484.98
     32.8777	  591.00	  554.97	-1042.22	  484.85
     32.9111	  568.00	  555.50	-1065.75	  484.72
     32.9446	  542.00	  556.07	-1092.32	  484.58
     32.9780	  553.00	  556.68	-1081.93	  484.45
     33.0114	  520.00	  557.32	-1115.57	  484.32
     33.0448	  509.00	  558.02	-1127.27	  484.19
     33.0783	  560.00	  558.75	-1077.00	  484.05
     33.1117	  552.00	  559.54	-1085.79	  483.92
     33.1451	  550.00	  560.37	-1088.62	  483.79
     33.1785	  600.00	  561.26	-1039.51	  483.66
     33.2120	  576.00	  558.53	-1060.78	  483.52
     33.2454	  548.00	  559.61	-1089.86	  483.39
     33.2788	  558.00	  558.90	-1079.15	  483.26
     33.3122	  548.00	  560.26	-1090.51	  483.25
     33.3456	  543.00	  561.68	-1096.93	  483.25
     33.3791	  536.00	  563.18	-1105.43	  483.25
     33.4125	  542.00	  564.74	-1100.99	  483.25
     33.4459	  576.00	  566.38	-1068.63	  483.25
     33.4793	  557.00	  568.11	-1089.36	  483.25
     33.5128	  556.00	  569.92	-1092.17	  483.25
     33.5462	  556.00	  571.82	-1094.07	  483.25
     33.5796	  569.00	  573.82	-1083.07	  483.25
     33.6130	  528.00	  575.93	-1126.18	  483.25
     33.6464	  561.00	  578.16	-1095.41	  483.25
     33.6799	  555.00	  580.50	-1103.75	  483.25
     33.7133	  564.00	  582.98	-1097.23	  483.25
     33.7467	  557.00	  585.60	-1106.85	  483.25
     33.7801	  576.00	  588.37	-1090.62	  483.25
     33.8136	  591.00	  591.31	-1078.56	  483.25
     33.8470	  578.00	  594.42	-1094.67	  483.25
     33.8804	  592.00	  597.72	-1083.97	  483.25
     33.9138	  554.00	  602.22	-1126.47	  483.25
     33.9472	  600.00	  605.97	-1084.22	  483.25
     33.9807	  596.00	  609.97	-1092.22	  483.25
     34.0141	  599.00	  614.73	-1093.98	  483.25
     34.0475	  579.00	  619.30	-1118.55	  483.25
     34.0809	  650.00	  624.18	-1052.43	  483.25
     34.1144	  576.00	  629.41	-1131.66	  483.25
     34.1478	  604.00	  635.02	-1109.27	  483.25
     34.1812	  631.00	  641.04	-1088.29	  483.25
     34.2146	  660.00	  647.53	-1065.78	  483.25
     34.2481	  664.00	  654.51	-1068.76	  483.25
     34.2815	  671.00	  662.06	-1069.31	  483.25
     34.3149	  638.00	  670.22	-1110.47	  483.25
     34.3483	  714.00	  679.07	-1043.32	  483.25
     34.3817	  676.00	  688.67	-1090.92	  483.25
     34.4152	  691.00	  699.13	-1086.38	  483.25
     34.4486	  683.00	  710.54	-1105.79	  483.25
     34.4820	  693.00	  723.02	-1108.27	  483.25
     34.5154	  795.00	  736.71	-1019.96	  483.25
     34.5489	  756.00	  751.75	-1074.00	  483.25
     34.5823	  795.00	  768.35	-1051.60	  483.25
     34.6157	  763.00	  786.71	-1101.96	  483.25
     34.6491	  816.00	  807.08	-1069.33	  483.25
     34.6825	  840.00	  829.77	-1068.02	  483.25
     34.7160	  900.00	  855.12	-1033.37	  483.25
     34.7494	  902.00	  883.55	-1059.80	  483.25
     34.7828	  897.00	  915.54	-1096.79	  483.25
     34.8162	  943.00	  951.66	-1086.91	  483.25
     34.8497	 1001.00	  992.57	-1069.82	  483.25
     34.8831	 1039.00	 1039.05	-1078.30	  483.25
     34.9165	 1141.00	 1091.95	-1029.20	  483.25
     34.9499	 1173.00	 1152.34	-1057.59	  483.25
     34.9833	 1284.00	 1221.29	-1015.54	  483.25
     35.0168	 1375.00	 1300.09	-1003.34	  483.25
     35.0502	 1458.00	 1390.04	-1010.29	  483.25
     35.0836	 1469.00	 1492.47	-1101.72	  483.25
     35.1170	 1630.00	 1608.62	-1056.87	  483.25
     35.1505	 1761.00	 1739.35	-1056.60	  483.25
     35.1839	 1875.00	 1884.77	-1088.02	  483.25
     35.2173	 2061.00	 2043.95	-1061.20	  483.25
     35.2507	 2120.00	 2213.82	-1172.07	  483.25
     35.2841	 2298.00	 2388.92	-1169.17	  483.25
     35.3176	 2414.00	 2560.60	-1224.85	  483.25
     35.3510	 2659.00	 2717.12	-1136.37	  483.25
     35.3844	 2777.00	 2845.06	-1146.31	  483.25
     35.4178	 2811.00	 2931.38	-1198.63	  483.25
     35.4513	 2989.00	 2966.53	-1055.78	  483.25
     35.4847	 2914.00	 2946.74	-1110.99	  483.25
     35.5181	 2884.00	 2874.85	-1069.10	  483.25
     35.5515	 2738.00	 2759.34	-1099.59	  483.25
     35.5850	 2625.00	 2612.18	-1065.43	  483.25
     35.6184	 2372.00	 2446.38	-1152.63	  483.25
     35.6518	 2315.00	 2273.61	-1036.86	  483.25
     35.6852	 2014.00	 2103.25	-1167.50	  483.25
     35.7186	 1984.00	 1941.65	-1035.90	  483.25
     35.7521	 1845.00	 1792.58	-1025.83	  483.28
     35.7855	 1674.00	 1657.75	-1062.00	  483.32
     35.8189	 1559.00	 1537.43	-1056.68	  483.35
     35.8523	 1436.00	 1431.02	-1073.27	  483.39
     35.8858	 1365.00	 1337.51	-1050.76	  483.42
     35.9192	 1250.00	 1255.58	-1083.83	  483.46
     35.9526	 1197.00	 1183.97	-1065.22	  483.49
     35.9860	 1115.00	 1121.40	-1084.65	  483.53
     36.0194	 1121.00	 1066.70	-1023.95	  483.57
     36.0529	 1015.00	 1018.86	-1082.11	  483.60
     36.0863	  993.00	  976.93	-1062.18	  483.64
     36.1197	  952.00	  940.13	-1066.38	  483.67
     36.1531	  884.00	  907.77	-1102.02	  483.71
     36.1866	  922.00	  879.25	-1035.50	  483.74
     36.2200	  879.00	  854.08	-1053.33	  483.78
     36.2534	  765.00	  831.84	-1145.09	  483.82
     36.2868	  830.00	  812.17	-1060.42	  483.85
     36.3202	  789.00	  794.78	-1084.03	  483.89
     36.3537	  738.00	  779.42	-1119.67	  483.92
     36.3871	  802.00	  765.89	-1042.14	  483.96
     36.4205	  704.00	  754.04	-1128.29	  483.99
     36.4539	  703.00	  743.72	-1118.97	  484.03
     36.4874	  710.00	  734.84	-1103.09	  484.07
     36.5208	  673.00	  727.34	-1132.59	  484.10
     36.5542	  673.00	  721.15	-1126.40	  484.14
     36.5876	  718.00	  716.25	-1076.50	  484.17
     36.6211	  686.00	  712.63	-1104.88	  484.21
     36.6545	  769.00	  710.30	-1019.55	  484.24
     36.6879	  694.00	  709.28	-1093.53	  484.28
     36.7213	  669.00	  709.58	-1118.83	  484.32
     36.7547	  708.00	  711.23	-1081.48	  484.35
     36.7882	  686.00	  714.22	-1106.47	  484.39
     36.8216	  715.00	  718.48	-1081.73	  484.42
     36.8550	  753.00	  723.88	-1049.13	  484.46
     36.8884	  728.00	  730.17	-1080.42	  484.49
     36.9219	  750.00	  736.91	-1065.16	  484.53
     36.9553	  704.00	  743.51	-1117.76	  484.57
     36.9887	  794.00	  749.20	-1033.45	  484.60
     37.0221	  771.00	  753.15	-1060.40	  484.64
     37.0555	  768.00	  754.60	-1064.85	  484.67
     37.0890	  814.00	  753.03	-1017.28	  484.71
     37.1224	  781.00	  748.28	-1045.53	  484.74
     37.1558	  712.00	  740.56	-1106.81	  484.78
     37.1892	  699.00	  730.39	-1109.64	  484.82
     37.2227	  707.00	  718.49	-1089.74	  484.85
     37.2561	  678.00	  705.63	-1105.88	  484.89
     37.2895	  633.00	  692.47	-1137.72	  484.92
     37.3229	  681.00	  679.57	-1076.82	  484.96
     37.3563	  655.00	  667.30	-1090.55	  484.99
     37.3898	  601.00	  655.88	-1133.13	  485.03
     37.4232	  574.00	  645.43	-1149.68	  485.06
     37.4566	  600.00	  635.96	-1114.21	  485.10
     37.4900	  590.00	  627.43	-1115.68	  485.14
     37.5235	  596.00	  619.79	-1102.04	  485.17
     37.5569	  597.00	  612.94	-1094.19	  485.21
     37.5903	  594.00	  606.81	-1091.06	  485.24
     37.6237	  573.00	  601.31	-1106.56	  485.28
     37.6572	  589.00	  596.38	-1085.63	  485.31
     37.6906	  561.00	  591.94	-1109.19	  485.35
     37.7240	  508.00	  587.93	-1158.18	  485.39
     37.7574	  565.00	  584.30	-1097.55	  485.42
     37.7908	  539.00	  581.01	-1120.26	  485.46
     37.8243	  555.00	  578.00	-1101.25	  485.49
     37.8577	  551.00	  575.26	-1102.51	  485.53
     37.8911	  574.00	  572.73	-1076.98	  485.56
     37.9245	  550.00	  570.41	-1098.66	  485.60
     37.9580	  524.00	  568.26	-1122.51	  485.64
     37.9914	  541.00	  566.28	-1103.53	  485.67
     38.0248	  530.00	  564.43	-1112.68	  485.71
     38.0582	  547.00	  562.71	-1093.96	  485.74
     38.0916	  527.00	  561.10	-1112.35	  485.78
     38.1251	  556.00	  559.60	-1081.85	  485.81
     38.1585	  521.00	  558.19	-1115.44	  485.85
     38.1919	  527.00	  556.86	-1108.11	  485.89
     38.2253	  531.00	  555.62	-1102.87	  485.92
     38.2588	  524.00	  554.44	-1108.69	  485.96
     38.2922	  560.00	  553.33	-1071.58	  485.99
     38.3256	  491.00	  552.28	-1139.53	  486.03
     38.3590	  555.00	  551.29	-1074.54	  486.06
     38.3924	  536.00	  550.34	-1092.59	  486.10
     38.4259	  511.00	  549.45	-1116.70	  486.14
     38.4593	  530.00	  548.59	-1096.84	  486.17
     38.4927	  519.00	  547.69	-1106.94	  486.11
     38.5261	  493.00	  546.67	-1131.92	  485.91
     38.5596	  524.00	  531.31	-1085.56	  485.70
     38.5930	  532.00	  530.67	-1076.92	  485.49
     38.6264	  502.00	  530.04	-1106.29	  485.29
     38.6598	  532.00	  522.33	-1068.58	  485.08
     38.6932	  525.00	  521.89	-1075.14	  484.87
     38.7267	  505.00	  521.47	-1094.72	  484.67
     38.7601	  569.00	  521.06	-1030.31	  484.46
     38.7935	  521.00	  520.66	-1077.91	  484.26
     38.8269	  541.00	  520.27	-1057.52	  484.05
     38.8604	  516.00	  519.89	-1082.14	  483.84
     38.8938	  531.00	  519.52	-1066.77	  483.64
     38.9272	  550.00	  519.16	-1047.41	  483.43
     38.9606	  518.00	  518.81	-1079.06	  483.22
     38.9940	  544.00	  518.46	-1052.71	  483.02
     39.0275	  486.00	  518.12	-1110.37	  482.81
     39.0609	  518.00	  517.79	-1078.04	  482.61
     39.0943	  471.00	  517.46	-1124.71	  482.40
     39.1277	  472.00	  517.14	-1123.39	  482.19
     39.1612	  524.00	  516.83	-1071.08	  481.99
     39.1946	  554.00	  516.52	-1040.77	  481.78
     39.2280	  539.00	  516.21	-1055.46	  481.57
     39.2614	  510.00	  515.91	-1084.16	  481.37
     39.2949	  503.00	  515.62	-1090.87	  481.16
     39.3283	  506.00	  515.32	-1087.57	  480.96
     39.3617	  478.00	  515.03	-1115.28	  480.75
     39.3951	  478.00	  514.75	-1115.00	  480.54
     39.4285	  550.00	  514.47	-1042.72	  480.34
     39.4620	  570.00	  514.19	-1022.44	  480.13
     39.4954	  550.00	  513.91	-1042.16	  479.92
     39.5288	  509.00	  513.64	-1082.89	  479.72
     39.5622	  540.00	  513.37	-1051.62	  479.51
     39.5957	  514.00	  513.10	-1077.35	  479.31
     39.6291	  495.00	  512.83	-1096.08	  479.10
     39.6625	  489.00	  512.57	-1101.82	  478.89
     39.6959	  504.00	  512.31	-1086.56	  478.69
     39.7293	  526.00	  512.05	-1064.30	  478.48
     39.7628	  499.00	  511.79	-1091.04	  478.27
     39.7962	  513.00	  511.53	-1076.78	  478.07
     39.8296	  498.00	  511.28	-1091.53	  477.86
     39.8630	  504.00	  511.03	-1085.28	  477.66
     39.8965	  500.00	  514.37	-1092.62	  477.45
     39.9299	  513.00	  514.20	-1079.45	  477.24
     39.9633	  508.00	  514.03	-1084.28	  477.04
     39.9967	  534.00	  515.64	-1059.89	  476.83
     40.0302	  535.00	  515.52	-1058.77	  476.62
     40.0636	  511.00	  515.40	-1082.65	  476.42
     40.0970	  510.00	  515.29	-1083.54	  476.21
     40.1304	  555.00	  515.18	-1038.43	  476.01
     40.1638	  555.00	  515.08	-1038.33	  475.80
     40.1973	  527.00	  513.99	-1065.24	  475.59
     40.2307	  524.00	  513.92	-1068.17	  475.39
     40.2641	  558.00	  513.86	-1034.11	  475.18
     40.2975	  488.00	  513.31	-1103.56	  474.98
     40.3310	  530.00	  513.27	-1061.52	  474.77
     40.3644	  523.00	  513.24	-1068.49	  474.56
     40.3978	  539.00	  513.11	-1052.36	  474.26
     40.4312	  509.00	  512.74	-1081.99	  473.71
     40.4646	  493.00	  512.38	-1097.63	  473.15
     40.4981	  497.00	  512.02	-1093.27	  472.59
     40.5315	  503.00	  511.67	-1086.92	  472.04
     40.5649	  523.00	  511.32	-1066.57	  471.48
     40.5983	  495.00	  510.99	-1094.24	  470.92
     40.6318	  518.00	  510.66	-1070.91	  470.37
     40.6652	  518.00	  510.35	-1070.60	  469.81
     40.6986	  493.00	  510.04	-1095.29	  469.25
     40.7320	  538.00	  509.74	-1049.99	  468.70
     40.7654	  475.00	  509.46	-1112.71	  468.14
     40.7989	  514.00	  509.18	-1073.43	  467.58
     40.8323	  489.00	  508.92	-1098.17	  467.03
     40.8657	  510.00	  508.67	-1076.92	  466.47
     40.8991	  523.00	  508.44	-1063.69	  465.91
     40.9326	  513.00	  508.22	-1073.47	  465.35
     40.9660	  542.00	  508.02	-1044.27	  464.80
     40.9994	  504.00	  507.83	-1082.08	  464.24
     41.0328	  510.00	  507.66	-1075.91	  463.68
     41.0662	  486.00	  507.51	-1099.76	  463.13
     41.0997	  548.00	  507.38	-1037.63	  462.57
     41.1331	  471.00	  507.27	-1114.52	  462.01
     41.1665	  536.00	  507.18	-1049.43	  461.46
     41.1999	  496.00	  507.12	-1089.37	  460.90
     41.2334	  470.00	  507.08	-1115.33	  460.34
     41.2668	  514.00	  507.07	-1071.32	  459.79
     41.3002	  496.00	  507.09	-1089.34	  459.23
     41.3336	  513.00	  507.14	-1072.39	  458.67
     41.3671	  513.00	  507.23	-1072.48	  458.12
     41.4005	  486.00	  507.35	-1099.60	  457.56
     41.4339	  502.00	  507.51	-1083.76	  457.00
     41.4673	  518.00	  507.71	-1067.96	  456.45
     41.5007	  505.00	  507.96	-1081.21	  455.89
     41.5342	  503.00	  508.26	-1083.51	  455.33
     41.5676	  529.00	  508.62	-1057.87	  454.78
     41.6010	  514.00	  509.03	-1073.28	  454.22
     41.6344	  561.00	  509.50	-1026.75	  453.66
     41.6679	  513.00	  510.05	-1075.30	  453.11
     41.7013	  522.00	  510.66	-1066.91	  452.55
     41.7347	  489.00	  511.36	-1100.61	  451.99
     41.7681	  524.00	  512.15	-1066.40	  451.43
     41.8015	  500.00	  513.04	-1091.29	  450.88
     41.8350	  492.00	  514.03	-1100.28	  450.32
     41.8684	  490.00	  515.14	-1103.39	  449.76
     41.9018	  540.00	  516.38	-1054.63	  449.21
     41.9352	  523.00	  517.77	-1073.02	  448.65
     41.9687	  527.00	  519.31	-1070.56	  448.09
     42.0021	  565.00	  520.86	-1034.11	  447.37
     42.0355	  500.00	  522.51	-1100.76	  446.55
     42.0689	  537.00	  524.38	-1065.63	  445.73
     42.1023	  515.00	  526.49	-1089.74	  444.91
     42.1358	  562.00	  528.88	-1045.13	  444.09
     42.1692	  541.00	  531.57	-1068.82	  443.27
     42.2026	  561.00	  534.62	-1051.87	  442.45
     42.2360	  535.00	  538.05	-1081.30	  441.63
     42.2695	  575.00	  541.93	-1045.18	  440.81
     42.3029	  551.00	  546.31	-1073.56	  440.00
     42.3363	  570.00	  551.27	-1059.52	  439.18
     42.3697	  621.00	  556.88	-1014.13	  438.36
     42.4032	  593.00	  563.23	-1048.48	  437.54
     42.4366	  583.00	  570.43	-1065.68	  436.72
     42.4700	  607.00	  578.59	-1049.84	  435.90
     42.5034	  554.00	  587.85	-1112.10	  435.08
     42.5368	  653.00	  598.35	-1023.60	  434.26
     42.5703	  694.00	  610.25	 -994.50	  433.45
     42.6037	  645.00	  623.72	-1056.97	  432.63
     42.6371	  701.00	  638.93	-1016.18	  431.81
     42.6705	  751.00	  656.07	 -983.32	  430.99
     42.7040	  712.00	  675.29	-1041.54	  430.17
     42.7374	  795.00	  696.68	 -979.93	  429.35
     42.7708	  748.00	  720.28	-1050.53	  428.53
     42.8042	  774.00	  745.97	-1050.22	  427.71
     42.8376	  797.00	  773.42	-1054.67	  426.89
     42.8711	  875.00	  802.04	-1005.29	  426.08
     42.9045	  885.00	  830.89	-1024.14	  425.26
     42.9379	  861.00	  858.66	-1075.91	  424.44
     42.9713	  982.00	  883.73	 -979.98	  423.62
     43.0048	 1011.00	  904.34	 -971.59	  422.80
     43.0382	  983.00	  918.82	-1014.07	  421.98
     43.0716	  958.00	  925.88	-1046.13	  421.16
     43.1050	  992.00	  924.88	-1011.13	  420.34
     43.1384	  875.00	  915.92	-1119.17	  419.52
     43.1719	  937.00	  899.78	-1041.03	  418.71
     43.2053	  863.00	  877.77	-1093.02	  417.89
     43.2387	  853.00	  851.47	-1076.72	  417.07
     43.2721	  840.00	  822.53	-1060.78	  416.25
     43.3056	  823.00	  792.48	-1047.73	  415.43
     43.3390	  788.00	  762.54	-1052.79	  414.61
     43.3724	  778.00	  733.66	-1033.91	  413.79
     43.4058	  749.00	  706.42	-1035.67	  412.97
     43.4393	  722.00	  681.19	-1037.44	  412.15
     43.4727	  701.00	  658.10	-1035.35	  411.34
     43.5061	  670.00	  637.14	-1045.39	  410.52
     43.5395	  682.00	  618.25	-1014.50	  409.70
     43.5729	  635.00	  601.27	-1044.52	  408.88
     43.6064	  629.00	  586.03	-1035.28	  408.06
     43.6398	  626.00	  572.38	-1024.63	  407.24
     43.6732	  578.00	  560.14	-1060.39	  406.42
     43.7066	  573.00	  549.14	-1054.39	  405.60
     43.7401	  547.00	  539.25	-1070.50	  404.79
     43.7735	  572.00	  530.34	-1036.59	  403.97
     43.8069	  547.00	  522.34	-1053.59	  403.21
     43.8403	  536.00	  515.12	-1057.37	  402.48
     43.8737	  511.00	  508.56	-1075.81	  401.75
     43.9072	  530.00	  502.58	-1050.83	  401.02
     43.9406	  481.00	  497.25	-1094.50	  400.29
     43.9740	  538.00	  492.23	-1032.48	  399.56
     44.0074	  477.00	  487.61	-1088.86	  398.84
     44.0409	  461.00	  483.34	-1100.59	  398.11
     44.0743	  487.00	  479.46	-1070.71	  397.38
     44.1077	  478.00	  475.78	-1076.03	  396.65
     44.1411	  461.00	  472.34	-1089.59	  395.92
     44.1745	  473.00	  469.13	-1074.38	  395.19
     44.2080	  471.00	  466.12	-1073.37	  394.46
     44.2414	  497.00	  463.28	-1044.53	  393.73
     44.2748	  468.00	  460.60	-1070.85	  393.00
     44.3082	  495.00	  458.07	-1041.32	  392.27
     44.3417	  444.00	  455.67	-1089.92	  391.54
     44.3751	  440.00	  453.38	-1091.63	  390.81
     44.4085	  438.00	  451.21	-1091.46	  390.09
     44.4419	  459.00	  449.13	-1068.38	  389.36
     44.4753	  432.00	  447.15	-1093.40	  388.63
     44.5088	  444.00	  445.25	-1079.50	  387.90
     44.5422	  412.00	  443.42	-1109.67	  387.17
     44.5756	  442.00	  441.66	-1077.91	  386.44
     44.6090	  455.00	  439.97	-1063.22	  385.71
     44.6425	  462.00	  438.33	-1054.58	  384.98
     44.6759	  396.00	  436.75	-1119.00	  384.25
     44.7093	  456.00	  435.22	-1057.47	  383.52
     44.7427	  426.00	  433.74	-1085.99	  382.79
     44.7761	  430.00	  432.30	-1080.55	  382.06
     44.8096	  454.00	  430.89	-1055.14	  381.34
     44.8430	  427.00	  429.53	-1080.78	  380.61
     44.8764	  412.00	  428.20	-1094.45	  379.88
     44.9098	  421.00	  426.91	-1084.16	  379.15
     44.9433	  381.00	  425.64	-1122.89	  378.42
     44.9767	  460.00	  424.40	-1042.65	  377.69
     45.0101	  428.00	  423.19	-1073.44	  376.96
     45.0435	  434.00	  422.01	-1066.26	  376.23
     45.0770	  381.00	  420.84	-1118.09	  375.50
     45.1104	  412.00	  419.70	-1085.95	  374.77
     45.1438	  414.00	  418.58	-1082.83	  374.04
     45.1772	  455.00	  417.48	-1040.73	  373.31
     45.2106	  377.00	  416.40	-1117.65	  372.59
     45.2441	  391.00	  415.34	-1102.59	  371.86
     45.2775	  428.00	  414.29	-1064.54	  371.12
     45.3109	  393.00	  413.24	-1098.49	  370.38
     45.3443	  389.00	  412.21	-1101.46	  369.64
     45.3778	  402.00	  411.20	-1087.45	  368.90
     45.4112	  431.00	  410.20	-1057.45	  368.15
     45.4446	  387.00	  409.21	-1100.46	  367.41
     45.4780	  400.00	  408.23	-1086.48	  366.67
     45.5114	  433.00	  407.27	-1052.52	  365.93
     45.5449	  407.00	  406.31	-1077.56	  365.18
     45.5783	  387.00	  405.37	-1096.62	  364.44
     45.6117	  400.00	  404.44	-1082.69	  363.70
     45.6451	  401.00	  403.52	-1080.77	  362.96
     45.6786	  370.00	  402.61	-1110.86	  362.21
     45.7120	  396.00	  401.71	-1083.96	  361.47
     45.7454	  378.00	  400.83	-1101.08	  360.73
     45.7788	  421.00	  399.95	-1057.20	  359.99
     45.8122	  387.00	  399.08	-1090.33	  359.25
     45.8457	  363.00	  398.22	-1113.47	  358.50
     45.8791	  375.00	  397.37	-1100.62	  357.76
     45.9125	  387.00	  396.53	-1087.78	  357.02
     45.9459	  376.00	  395.70	-1097.95	  356.28
     45.9794	  416.00	  394.88	-1057.13	  355.53
     46.0128	  369.00	  394.07	-1103.32	  354.79
     46.0462	  366.00	  393.27	-1105.52	  354.05
     46.0796	  347.00	  392.49	-1123.74	  353.31
     46.1131	  400.00	  391.71	-1069.96	  352.56
     46.1465	  366.00	  390.95	-1103.20	  351.82
     46.1799	  364.00	  390.21	-1104.46	  351.08
     46.2133	  393.00	  389.47	-1074.72	  350.34
     46.2467	  403.00	  385.25	-1060.50	  349.59
     46.2802	  387.00	  384.62	-1075.87	  348.85
     46.3136	  367.00	  384.01	-1095.26	  348.11
     46.3470	  368.00	  381.65	-1091.90	  347.37
     46.3804	  402.00	  381.11	-1057.36	  346.62
     46.4139	  393.00	  380.60	-1065.85	  345.88
     46.4473	  401.00	  380.10	-1057.35	  345.14
     46.4807	  403.00	  379.64	-1054.89	  344.40
     46.5141	  378.00	  379.20	-1079.45	  343.65
     46.5475	  367.00	  378.80	-1090.05	  342.91
     46.5810	  383.00	  378.44	-1073.69	  342.17
     46.6144	  392.00	  378.12	-1064.37	  341.43
     46.6478	  354.00	  377.86	-1102.11	  340.68
     46.6812	  377.00	  377.64	-1078.89	  339.94
     46.7147	  387.00	  377.49	-1068.74	  339.20
     46.7481	  364.00	  377.40	-1091.65	  338.46
     46.7815	  407.00	  377.38	-1048.63	  337.72
     46.8149	  371.00	  377.43	-1084.68	  336.97
     46.8483	  375.00	  377.54	-1080.79	  336.23
     46.8818	  373.00	  377.89	-1083.14	  335.65
     46.9152	  383.00	  378.36	-1073.61	  335.15
     46.9486	  376.00	  378.87	-1081.12	  334.65
     46.9820	  390.00	  379.38	-1067.63	  334.15
     47.0155	  382.00	  379.85	-1076.10	  333.65
     47.0489	  373.00	  380.24	-1085.49	  333.15
     47.0823	  344.00	  380.48	-1114.73	  332.65
     47.1157	  362.00	  380.54	-1096.79	  332.15
     47.1492	  368.00	  380.36	-1090.61	  331.65
     47.1826	  344.00	  379.93	-1114.18	  331.15
     47.2160	  359.00	  379.25	-1098.50	  330.65
     47.2494	  371.00	  378.32	-1085.57	  330.15
     47.2828	  365.00	  377.19	-1090.44	  329.65
     47.3163	  383.00	  375.89	-1071.14	  329.15
     47.3497	  371.00	  374.49	-1081.74	  328.65
     47.3831	  370.00	  373.01	-1081.26	  328.15
     47.4165	  369.00	  371.51	-1080.76	  327.65
     47.4500	  369.00	  370.03	-1079.28	  327.15
     47.4834	  352.00	  368.58	-1094.83	  326.65
     47.5168	  348.00	  367.18	-1097.43	  326.15
     47.5502	  340.00	  365.85	-1104.10	  325.65
     47.5836	  378.00	  364.58	-1064.83	  325.15
     47.6171	  382.00	  363.39	-1059.64	  324.65
     47.6505	  353.00	  362.26	-1087.51	  324.15
     47.6839	  363.00	  361.19	-1076.44	  323.65
     47.7173	  393.00	  360.18	-1045.43	  323.15
     47.7508	  350.00	  359.22	-1087.47	  322.65
     47.7842	  371.00	  358.31	-1065.56	  322.15
     47.8176	  333.00	  357.44	-1102.69	  321.65
     47.8510	  354.00	  356.61	-1080.86	  321.15
     47.8844	  327.00	  355.81	-1107.06	  320.66
     47.9179	  369.00	  355.04	-1064.29	  320.16
     47.9513	  365.00	  354.30	-1067.55	  319.66
     47.9847	  328.00	  353.58	-1103.83	  319.16
     48.0181	  382.00	  352.88	-1049.13	  318.66
     48.0516	  327.00	  352.21	-1103.46	  318.16
     48.0850	  335.00	  351.54	-1094.79	  317.66
     48.1184	  354.00	  350.89	-1075.15	  317.16
     48.1518	  345.00	  350.26	-1083.51	  316.66
     48.1852	  353.00	  349.64	-1074.89	  316.16
     48.2187	  330.00	  349.02	-1097.27	  315.66
     48.2521	  363.00	  348.45	-1063.70	  315.19
     48.2855	  346.00	  347.92	-1080.17	  314.76
     48.3189	  336.00	  347.40	-1089.65	  314.33
     48.3524	  325.00	  346.89	-1100.14	  313.90
     48.3858	  320.00	  346.39	-1104.64	  313.47
     48.4192	  366.00	  345.89	-1058.14	  313.04
     48.4526	  334.00	  345.40	-1089.65	  312.62
     48.4861	  346.00	  344.91	-1077.16	  312.19
     48.5195	  334.00	  344.42	-1088.67	  311.76
     48.5529	  342.00	  343.94	-1080.19	  311.33
     48.5863	  341.00	  343.46	-1080.71	  310.90
     48.6197	  356.00	  342.99	-1065.24	  310.47
     48.6532	  316.00	  342.51	-1104.76	  310.05
     48.6866	  325.00	  342.04	-1095.29	  309.62
     48.7200	  331.00	  341.58	-1088.83	  309.19
     48.7534	  332.00	  341.11	-1087.36	  308.76
     48.7869	  317.00	  340.65	-1101.90	  308.33
     48.8203	  321.00	  340.19	-1097.44	  307.90
     48.8537	  326.00	  339.73	-1091.98	  307.48
     48.8871	  343.00	  339.27	-1074.52	  307.05
     48.9205	  329.00	  338.82	-1088.07	  306.62
     48.9540	  317.00	  338.36	-1099.61	  306.19
     48.9874	  358.00	  337.91	-1058.16	  305.76
     49.0208	  326.00	  337.46	-1089.71	  305.33
     49.0542	  338.00	  337.01	-1077.26	  304.91
     49.0877	  343.00	  336.56	-1071.81	  304.48
     49.1211	  315.00	  336.11	-1099.36	  304.05
     49.1545	  320.00	  335.67	-1093.92	  303.62
     49.1879	  347.00	  335.22	-1066.47	  303.19
     49.2213	  300.00	  334.77	-1113.02	  302.77
     49.2548	  330.00	  334.33	-1082.58	  302.34
     49.2882	  303.00	  333.88	-1109.13	  301.91
     49.3216	  346.00	  333.44	-1065.69	  301.48
     49.3550	  313.00	  333.00	-1098.25	  301.05
     49.3885	  303.00	  332.56	-1107.81	  300.62
     49.4219	  350.00	  332.12	-1060.37	  300.20
     49.4553	  300.00	  331.67	-1109.92	  299.77
     49.4887	  347.00	  331.23	-1062.48	  299.34
     49.5222	  361.00	  330.79	-1048.04	  298.91
     49.5556	  303.00	  330.36	-1105.61	  298.48
     49.5890	  318.00	  329.92	-1090.17	  298.05
     49.6224	  316.00	  329.44	-1091.69	  297.59
     49.6558	  324.00	  328.74	-1082.99	  296.89
     49.6893	  320.00	  328.03	-1086.28	  296.20
     49.7227	  336.00	  327.33	-1069.58	  295.50
     49.7561	  314.00	  326.62	-1090.87	  294.81
     49.7895	  333.00	  325.92	-1071.17	  294.11
     49.8230	  335.00	  325.21	-1068.46	  293.41
     49.8564	  324.00	  324.51	-1078.76	  292.72
     49.8898	  330.00	  323.81	-1072.06	  292.02
     49.9232	  305.00	  323.10	-1096.35	  291.33
     49.9566	  299.00	  322.40	-1101.65	  290.63
     49.9901	  311.00	  321.70	-1088.95	  289.93
     50.0235	  320.00	  320.99	-1079.24	  289.24
     50.0569	  313.00	  320.29	-1085.54	  288.54
     50.0903	  318.00	  319.59	-1079.84	  287.85
     50.1238	  311.00	  318.89	-1086.14	  287.15
     50.1572	  305.00	  318.19	-1091.44	  286.45
     50.1906	  308.00	  319.09	-1089.34	  285.76
     50.2240	  326.00	  318.42	-1070.67	  285.06
     50.2574	  324.00	  317.75	-1072.00	  284.37
     50.2909	  310.00	  317.09	-1085.34	  283.67
     50.3243	  341.00	  317.22	-1054.47	  282.97
     50.3577	  340.00	  316.43	-1054.68	  282.28
     50.3911	  319.00	  315.79	-1075.04	  281.58
     50.4246	  321.00	  315.15	-1072.40	  280.89
     50.4580	  302.00	  314.51	-1090.76	  280.19
     50.4914	  302.00	  313.80	-1090.05	  279.49
     50.5248	  309.00	  313.17	-1082.42	  278.80
     50.5583	  311.00	  312.54	-1079.79	  278.10
     50.5917	  309.00	  311.91	-1081.16	  277.41
     50.6251	  332.00	  311.29	-1057.54	  276.71
     50.6585	  316.00	  310.66	-1072.91	  276.01
     50.6919	  308.00	  310.04	-1080.29	  275.32
     50.7254	  290.00	  309.43	-1097.68	  274.62
     50.7588	  292.00	  308.81	-1095.06	  273.93
     50.7922	  297.00	  308.20	-1089.45	  273.23
     50.8256	  353.00	  307.59	-1032.84	  272.53
     50.8591	  313.00	  306.99	-1072.24	  271.84
     50.8925	  330.00	  306.39	-1054.64	  271.14
     50.9259	  280.00	  305.81	-1104.06	  270.47
     50.9593	  318.00	  305.23	-1065.48	  269.79
     50.9927	  314.00	  304.67	-1068.92	  269.12
     51.0262	  317.00	  304.10	-1065.35	  268.44
     51.0596	  280.00	  303.54	-1101.79	  267.77
     51.0930	  320.00	  302.98	-1061.23	  267.09
     51.1264	  308.00	  302.43	-1072.68	  266.42
     51.1599	  278.00	  301.89	-1102.14	  265.74
     51.1933	  301.00	  301.35	-1078.60	  265.07
     51.2267	  272.00	  300.81	-1107.06	  264.39
     51.2601	  298.00	  300.29	-1080.54	  263.72
     51.2935	  328.00	  299.77	-1050.02	  263.04
     51.3270	  279.00	  299.25	-1098.50	  262.37
     51.3604	  305.00	  298.75	-1072.00	  261.69
     51.3938	  314.00	  298.25	-1062.50	  261.02
     51.4272	  285.00	  297.76	-1091.01	  260.34
     51.4607	  265.00	  297.27	-1110.52	  259.67
     51.4941	  303.00	  296.80	-1072.05	  258.99
     51.5275	  262.00	  296.34	-1112.59	  258.32
     51.5609	  298.00	  295.89	-1076.14	  257.64
     51.5943	  302.00	  295.45	-1071.70	  256.97
     51.6278	  297.00	  295.02	-1076.27	  256.29
     51.6612	  292.00	  294.61	-1080.86	  255.62
     51.6946	  320.00	  294.21	-1052.46	  254.94
     51.7280	  296.00	  293.82	-1076.07	  254.27
     51.7615	  275.00	  293.45	-1096.70	  253.59
     51.7949	  316.00	  293.10	-1055.35	  252.92
     51.8283	  268.00	  292.77	-1103.02	  252.25
     51.8617	  280.00	  292.46	-1090.71	  251.57
     51.8952	  270.00	  292.17	-1100.42	  250.90
     51.9286	  294.00	  291.90	-1076.15	  250.22
     51.9620	  294.00	  291.66	-1075.91	  249.55
     51.9954	  251.00	  291.45	-1118.70	  248.87
     52.0288	  276.00	  291.26	-1093.51	  248.20
     52.0623	  310.00	  291.17	-1059.42	  247.58
     52.0957	  304.00	  291.49	-1065.74	  247.35
     52.1291	  319.00	  291.86	-1051.11	  247.11
     52.1625	  288.00	  292.26	-1082.51	  246.88
     52.1960	  295.00	  292.72	-1075.97	  246.65
     52.2294	  304.00	  293.22	-1067.47	  246.42
     52.2628	  314.00	  293.78	-1058.03	  246.19
     52.2962	  299.00	  294.40	-1073.65	  245.95
     52.3296	  324.00	  295.08	-1049.33	  245.72
     52.3631	  318.00	  295.85	-1056.10	  245.49
     52.3965	  306.00	  296.69	-1068.94	  245.26
     52.4299	  314.00	  297.62	-1061.87	  245.03
     52.4633	  292.00	  298.65	-1084.90	  244.79
     52.4968	  305.00	  299.80	-1073.05	  244.56
     52.5302	  302.00	  301.07	-1077.32	  244.33
     52.5636	  313.00	  302.48	-1067.73	  244.10
     52.5970	  301.00	  304.04	-1081.29	  243.87
     52.6304	  343.00	  305.77	-1041.02	  243.63
     52.6639	  331.00	  307.70	-1054.95	  243.40
     52.6973	  318.00	  309.84	-1070.09	  243.17
     52.7307	  302.00	  312.23	-1088.48	  242.94
     52.7641	  327.00	  314.88	-1066.13	  242.71
     52.7976	  309.00	  317.82	-1087.07	  242.47
     52.8310	  322.00	  321.09	-1077.34	  242.24
     52.8644	  341.00	  324.73	-1061.98	  242.01
     52.8978	  320.00	  328.76	-1087.01	  241.78
     52.9313	  335.00	  333.23	-1076.48	  241.54
     52.9647	  348.00	  338.17	-1068.42	  241.31
     52.9981	  371.00	  343.61	-1050.86	  241.08
     53.0315	  363.00	  349.56	-1064.81	  240.85
     53.0649	  390.00	  356.03	-1044.28	  240.62
     53.0984	  407.00	  363.01	-1034.26	  240.38
     53.1318	  394.00	  370.45	-1054.70	  240.15
     53.1652	  387.00	  378.26	-1069.51	  239.92
     53.1986	  399.00	  386.29	-1065.54	  239.69
     53.2321	  381.00	  394.34	-1091.59	  239.46
     53.2655	  422.00	  402.14	-1058.39	  239.22
     53.2989	  425.00	  409.38	-1062.63	  238.99
     53.3323	  421.00	  415.71	-1072.96	  238.76
     53.3657	  386.00	  420.77	-1113.02	  238.53
     53.3992	  451.00	  424.27	-1051.52	  238.30
     53.4326	  455.00	  425.99	-1049.24	  238.06
     53.4660	  425.00	  425.82	-1079.07	  237.83
     53.4994	  402.00	  423.78	-1100.03	  237.60
     53.5329	  445.00	  420.00	-1053.25	  237.37
     53.5663	  419.00	  414.70	-1073.95	  237.14
     53.5997	  413.00	  408.17	-1073.42	  236.90
     53.6331	  408.00	  400.72	-1070.97	  236.67
     53.6665	  366.00	  397.86	-1110.11	  236.44
     53.7000	  406.00	  389.63	-1061.88	  236.21
     53.7334	  398.00	  381.36	-1061.61	  235.98
     53.7668	  353.00	  373.25	-1098.50	  235.74
     53.8002	  380.00	  365.46	-1063.71	  235.51
     53.8337	  340.00	  360.70	-1098.95	  235.28
     53.8671	  343.00	  353.87	-1089.12	  235.05
     53.9005	  347.00	  347.54	-1078.79	  234.82
     53.9339	  361.00	  341.73	-1058.98	  234.58
     53.9674	  352.00	  336.42	-1062.67	  234.35
     54.0008	  327.00	  331.59	-1082.84	  234.12
     54.0342	  322.00	  327.20	-1083.45	  233.89
     54.0676	  304.00	  323.22	-1097.47	  233.66
     54.1010	  328.00	  319.61	-1069.86	  233.42
     54.1345	  318.00	  316.35	-1076.60	  233.19
     54.1679	  315.00	  313.40	-1076.65	  232.96
     54.2013	  329.00	  310.85	-1060.10	  232.85
     54.2347	  332.00	  308.62	-1054.87	  232.79
     54.2682	  312.00	  306.62	-1072.87	  232.74
     54.3016	  303.00	  304.83	-1080.08	  232.69
     54.3350	  285.00	  303.22	-1096.47	  232.64
     54.3684	  292.00	  301.79	-1088.04	  232.59
     54.4018	  289.00	  300.50	-1089.75	  232.54
     54.4353	  261.00	  299.36	-1116.61	  232.48
     54.4687	  305.00	  298.34	-1071.59	  232.43
     54.5021	  320.00	  297.45	-1055.70	  232.38
     54.5355	  285.00	  296.65	-1089.90	  232.33
     54.5690	  318.00	  295.96	-1056.21	  232.28
     54.6024	  282.00	  295.36	-1091.61	  232.23
     54.6358	  302.00	  294.84	-1071.09	  232.18
     54.6692	  318.00	  294.40	-1054.65	  232.12
     54.7026	  303.00	  294.04	-1069.29	  232.07
     54.7361	  315.00	  293.74	-1056.99	  232.02
     54.7695	  285.00	  293.52	-1086.77	  231.97
     54.8029	  270.00	  293.36	-1101.61	  231.92
     54.8363	  282.00	  293.26	-1089.51	  231.87
     54.8698	  279.00	  293.22	-1092.47	  231.81
     54.9032	  248.00	  293.24	-1123.49	  231.76
     54.9366	  294.00	  293.31	-1077.56	  231.71
     54.9700	  246.00	  293.44	-1125.69	  231.66
     55.0034	  284.00	  293.63	-1087.88	  231.61
     55.0369	  269.00	  293.87	-1103.12	  231.56
     55.0703	  297.00	  294.18	-1075.43	  231.51
     55.1037	  250.00	  294.53	-1122.78	  231.45
     55.1371	  282.00	  294.95	-1091.20	  231.40
     55.1706	  248.00	  295.42	-1125.67	  231.35
     55.2040	  287.00	  295.96	-1087.21	  231.30
     55.2374	  247.00	  296.56	-1127.81	  231.25
     55.2708	  284.00	  297.23	-1091.48	  231.20
     55.3042	  313.00	  297.96	-1063.21	  231.14
     55.3377	  286.00	  298.76	-1091.01	  231.09
     55.3711	  273.00	  299.64	-1104.89	  231.04
     55.4045	  331.00	  300.60	-1047.85	  230.99
     55.4379	  289.00	  301.65	-1090.90	  230.94
     55.4714	  309.00	  302.78	-1072.03	  230.89
     55.5048	  315.00	  304.01	-1067.26	  230.84
     55.5382	  282.00	  305.34	-1101.59	  230.78
     55.5716	  302.00	  306.77	-1083.02	  230.73
     55.6051	  338.00	  308.33	-1048.58	  230.68
     55.6385	  263.00	  310.01	-1125.26	  230.63
     55.6719	  303.00	  311.83	-1087.08	  230.58
     55.7053	  318.00	  313.80	-1074.05	  230.53
     55.7387	  350.00	  315.93	-1044.18	  230.47
     55.7722	  294.00	  318.23	-1102.48	  230.42
     55.8056	  301.00	  320.73	-1097.98	  230.37
     55.8390	  325.00	  323.43	-1076.68	  230.32
     55.8724	  366.00	  326.37	-1038.62	  230.27
     55.9059	  346.00	  329.56	-1061.81	  230.22
     55.9393	  345.00	  333.03	-1066.28	  230.16
     55.9727	  370.00	  336.80	-1045.05	  230.11
     56.0061	  337.00	  340.91	-1082.16	  230.06
     56.0395	  343.00	  345.40	-1080.65	  230.01
     56.0730	  361.00	  350.31	-1067.56	  229.96
     56.1064	  383.00	  355.64	-1050.89	  229.88
     56.1398	  382.00	  361.46	-1057.71	  229.77
     56.1732	  385.00	  367.84	-1061.09	  229.66
     56.2067	  407.00	  374.84	-1046.09	  229.55
     56.2401	  396.00	  382.54	-1064.79	  229.44
     56.2735	  394.00	  391.00	-1075.25	  229.33
     56.3069	  402.00	  400.32	-1076.57	  229.22
     56.3403	  444.00	  410.56	-1044.81	  229.11
     56.3738	  407.00	  421.81	-1093.06	  229.00
     56.4072	  443.00	  434.18	-1069.43	  228.89
     56.4406	  444.00	  447.75	-1082.00	  228.79
     56.4740	  521.00	  462.59	-1019.84	  228.68
     56.5075	  464.00	  478.79	-1093.04	  228.57
     56.5409	  445.00	  496.38	-1129.63	  228.46
     56.5743	  505.00	  515.37	-1088.62	  228.35
     56.6077	  535.00	  535.70	-1078.95	  228.24
     56.6412	  575.00	  557.24	-1060.49	  228.13
     56.6746	  581.00	  578.21	-1075.46	  228.02
     56.7080	  581.00	  601.36	-1098.61	  227.91
     56.7414	  625.00	  624.63	-1077.88	  227.80
     56.7748	  690.00	  647.34	-1035.59	  227.69
     56.8083	  624.00	  667.94	-1122.19	  227.58
     56.8417	  698.00	  687.11	-1067.36	  227.48
     56.8751	  683.00	  703.18	-1098.43	  227.37
     56.9085	  669.00	  715.34	-1124.59	  227.26
     56.9420	  761.00	  722.96	-1040.21	  227.15
     56.9754	  702.00	  725.64	-1101.89	  227.04
     57.0088	  731.00	  723.28	-1070.53	  226.93
     57.0422	  687.00	  716.05	-1107.30	  226.82
     57.0756	  681.00	  704.39	-1101.64	  226.71
     57.1091	  666.00	  688.91	-1101.16	  226.60
     57.1425	  692.00	  670.38	-1056.63	  226.49
     57.1759	  689.00	  649.58	-1038.83	  226.38
     57.2093	  577.00	  627.32	-1128.57	  226.27
     57.2428	  612.00	  604.35	-1070.60	  226.17
     57.2762	  537.00	  581.27	-1122.52	  226.06
     57.3096	  574.00	  558.63	-1062.88	  225.95
     57.3430	  559.00	  536.80	-1056.05	  225.84
     57.3764	  478.00	  516.05	-1116.30	  225.73
     57.4099	  481.00	  496.55	-1093.80	  225.62
     57.4433	  455.00	  478.38	-1101.63	  225.51
     57.4767	  511.00	  461.57	-1028.82	  225.40
     57.5101	  403.00	  446.09	-1121.34	  225.29
     57.5436	  440.00	  431.89	-1070.14	  225.18
     57.5770	  430.00	  418.90	-1067.15	  225.07
     57.6104	  428.00	  407.03	-1057.28	  224.96
     57.6438	  377.00	  396.20	-1097.45	  224.86
     57.6772	  390.00	  386.32	-1074.57	  224.75
     57.7107	  408.00	  377.30	-1047.55	  224.64
     57.7441	  366.00	  369.07	-1081.32	  224.53
     57.7775	  350.00	  361.54	-1089.79	  224.42
     57.8109	  397.00	  354.67	-1035.92	  224.31
     57.8444	  344.00	  348.37	-1082.62	  224.20
     57.8778	  340.00	  342.60	-1080.85	  224.09
     57.9112	  356.00	  337.24	-1059.49	  223.92
     57.9446	  367.00	  332.26	-1043.51	  223.71
     57.9781	  350.00	  327.66	-1055.91	  223.50
     58.0115	  275.00	  323.42	-1126.67	  223.29
     58.0449	  315.00	  319.48	-1082.73	  223.08
     58.0783	  309.00	  315.83	-1085.08	  222.87
     58.1117	  294.00	  312.44	-1096.69	  222.66
     58.1452	  302.00	  309.28	-1085.53	  222.45
     58.1786	  286.00	  306.33	-1098.58	  222.24
     58.2120	  285.00	  303.57	-1096.82	  222.03
     58.2454	  298.00	  300.99	-1081.24	  221.82
     58.2789	  276.00	  298.56	-1100.81	  221.60
     58.3123	  259.00	  296.29	-1115.54	  221.39
     58.3457	  295.00	  294.15	-1077.40	  221.18
     58.3791	  314.00	  292.13	-1056.38	  220.97
     58.4125	  279.00	  290.22	-1089.47	  220.76
     58.4460	  286.00	  288.42	-1080.67	  220.55
     58.4794	  244.00	  286.71	-1120.96	  220.34
     58.5128	  252.00	  285.09	-1111.34	  220.13
     58.5462	  263.00	  283.56	-1098.81	  219.92
     58.5797	  256.00	  282.10	-1104.35	  219.71
     58.6131	  246.00	  280.71	-1112.96	  219.50
     58.6465	  245.00	  279.38	-1112.63	  219.28
     58.6799	  282.00	  278.11	-1074.36	  219.07
     58.7133	  230.00	  276.91	-1125.16	  218.86
     58.7468	  269.00	  275.75	-1085.00	  218.65
     58.7802	  264.00	  274.64	-1088.89	  218.44
     58.8136	  235.00	  273.58	-1116.83	  218.23
     58.8470	  243.00	  272.56	-1107.81	  218.02
     58.8805	  230.00	  271.58	-1119.83	  217.81
     58.9139	  234.00	  270.64	-1114.89	  217.60
     58.9473	  268.00	  269.73	-1079.98	  217.39
     58.9807	  251.00	  268.85	-1096.10	  217.18
     59.0142	  229.00	  268.01	-1117.26	  216.96
     59.0476	  244.00	  267.19	-1101.44	  216.75
     59.0810	  240.00	  266.40	-1104.65	  216.54
     59.1144	  245.00	  265.64	-1098.89	  216.33
     59.1478	  259.00	  264.90	-1084.15	  216.12
     59.1813	  257.00	  264.19	-1085.44	  215.91
     59.2147	  233.00	  271.57	-1116.82	  215.70
     59.2481	  235.00	  271.06	-1114.31	  215.49
     59.2815	  254.00	  270.57	-1094.82	  215.28
     59.3150	  249.00	  270.11	-1099.36	  215.07
     59.3484	  262.00	  269.67	-1085.92	  214.86
     59.3818	  251.00	  273.26	-1100.51	  214.64
     59.4152	  253.00	  272.95	-1098.20	  214.43
     59.4486	  283.00	  272.65	-1067.90	  214.22
     59.4821	  236.00	  272.38	-1114.63	  214.01
     59.5155	  234.00	  272.13	-1116.38	  213.80
     59.5489	  232.00	  271.91	-1118.16	  213.59
     59.5823	  235.00	  271.70	-1114.95	  213.38
     59.6158	  241.00	  271.52	-1108.77	  213.17
     59.6492	  277.00	  271.36	-1072.61	  212.96
     59.6826	  219.00	  271.22	-1130.47	  212.75
     59.7160	  237.00	  271.11	-1112.36	  212.54
     59.7494	  278.00	  271.01	-1071.26	  212.32
     59.7829	  233.00	  270.94	-1116.19	  212.11
     59.8163	  231.00	  270.89	-1118.14	  211.90
     59.8497	  220.00	  270.86	-1129.11	  211.69
     59.8831	  234.00	  270.85	-1115.10	  211.48
     59.9166	  252.00	  270.87	-1097.12	  211.27
     59.9500	  241.00	  270.91	-1108.16	  211.06
     59.9834	  247.00	  270.98	-1102.23	  210.85
     60.0168	  235.00	  271.07	-1114.32	  210.64
     60.0503	  260.00	  271.19	-1089.44	  210.43
     60.0837	  230.00	  271.33	-1119.58	  210.22
     60.1171	  255.00	  271.50	-1094.75	  210.00
     60.1505	  248.00	  271.70	-1101.95	  209.79
     60.1839	  234.00	  271.92	-1116.17	  209.58
     60.2174	  236.00	  267.07	-1109.32	  209.37
     60.2508	  229.00	  267.54	-1116.79	  209.24
     60.2842	  221.00	  268.06	-1125.31	  209.14
     60.3176	  232.00	  268.62	-1114.87	  209.03
     60.3511	  230.00	  269.21	-1117.46	  208.93
     60.3845	  243.00	  267.31	-1102.56	  208.83
     60.4179	  252.00	  268.01	-1094.26	  208.72
     60.4513	  236.00	  268.76	-1111.01	  208.62
     60.4847	  260.00	  269.54	-1087.79	  208.52
     60.5182	  260.00	  270.37	-1088.62	  208.41
     60.5516	  279.00	  271.23	-1070.48	  208.31
     60.5850	  301.00	  272.15	-1049.40	  208.21
     60.6184	  254.00	  273.11	-1097.36	  208.11
     60.6519	  277.00	  274.13	-1075.38	  208.00
     60.6853	  251.00	  275.20	-1102.45	  207.90
     60.7187	  270.00	  276.33	-1084.58	  207.80
     60.7521	  269.00	  277.53	-1086.78	  207.69
     60.7855	  250.00	  278.79	-1107.04	  207.59
     60.8190	  265.00	  280.13	-1093.38	  207.49
     60.8524	  261.00	  281.54	-1098.79	  207.38
     60.8858	  269.00	  283.04	-1092.29	  207.28
     60.9192	  260.00	  284.63	-1102.88	  207.18
     60.9527	  261.00	  286.31	-1103.56	  207.07
     60.9861	  277.00	  288.10	-1089.35	  206.97
     61.0195	  285.00	  290.00	-1083.25	  206.87
     61.0529	  245.00	  292.02	-1125.27	  206.76
     61.0863	  273.00	  294.16	-1099.41	  206.66
     61.1198	  319.00	  296.45	-1055.70	  206.56
     61.1532	  282.00	  298.89	-1095.14	  206.46
     61.1866	  309.00	  301.50	-1070.75	  206.35
     61.2200	  261.00	  304.28	-1121.53	  206.25
     61.2535	  290.00	  307.26	-1095.51	  206.15
     61.2869	  302.00	  310.45	-1086.70	  206.04
     61.3203	  303.00	  313.87	-1089.12	  205.94
     61.3537	  299.00	  317.54	-1096.79	  205.84
     61.3872	  329.00	  321.48	-1070.73	  205.73
     61.4206	  303.00	  325.73	-1100.98	  205.63
     61.4540	  319.00	  330.30	-1089.55	  205.53
     61.4874	  330.00	  335.24	-1083.49	  205.42
     61.5208	  335.00	  340.57	-1083.82	  205.32
     61.5543	  343.00	  346.33	-1081.58	  205.22
     61.5877	  337.00	  352.58	-1093.83	  205.12
     61.6211	  379.00	  359.35	-1058.60	  205.01
     61.6545	  349.00	  366.70	-1095.95	  204.91
     61.6880	  389.00	  374.68	-1063.93	  204.81
     61.7214	  411.00	  383.37	-1050.62	  204.70
     61.7548	  408.00	  392.82	-1063.07	  204.60
     61.7882	  397.00	  403.11	-1084.36	  204.50
     61.8216	  438.00	  414.34	-1054.59	  204.39
     61.8551	  463.00	  426.57	-1041.82	  204.29
     61.8885	  495.00	  439.90	-1023.15	  204.19
     61.9219	  471.00	  454.43	-1061.68	  204.08
     61.9553	  522.00	  470.25	-1026.50	  203.98
     61.9888	  522.00	  487.45	-1043.70	  203.88
     62.0222	  534.00	  506.11	-1050.36	  203.77
     62.0556	  554.00	  526.30	-1050.55	  203.67
     62.0890	  572.00	  548.08	-1054.33	  203.57
     62.1224	  540.00	  571.43	-1109.68	  203.47
     62.1559	  581.00	  596.16	-1093.41	  203.22
     62.1893	  623.00	  622.22	-1077.47	  202.88
     62.2227	  661.00	  649.45	-1066.70	  202.53
     62.2561	  650.00	  677.54	-1105.79	  202.19
     62.2896	  718.00	  706.01	-1066.26	  201.85
     62.3230	  751.00	  734.26	-1061.51	  201.51
     62.3564	  733.00	  761.54	-1106.79	  201.17
     62.3898	  819.00	  787.15	-1046.40	  200.83
     62.4233	  805.00	  809.85	-1083.10	  200.48
     62.4567	  780.00	  828.91	-1127.16	  200.14
     62.4901	  869.00	  843.49	-1052.74	  199.80
     62.5235	  842.00	  852.95	-1089.20	  199.46
     62.5569	  845.00	  856.97	-1090.22	  199.12
     62.5904	  835.00	  855.23	-1098.48	  198.77
     62.6238	  856.00	  847.94	-1070.19	  198.43
     62.6572	  879.00	  835.47	-1034.72	  198.09
     62.6906	  807.00	  818.40	-1089.65	  197.75
     62.7241	  752.00	  797.44	-1123.69	  197.41
     62.7575	  762.00	  773.40	-1089.65	  197.06
     62.7909	  736.00	  747.09	-1089.34	  196.72
     62.8243	  747.00	  719.32	-1050.57	  196.38
     62.8577	  704.00	  690.86	-1065.11	  196.04
     62.8912	  689.00	  662.31	-1051.56	  195.70
     62.9246	  612.00	  634.23	-1100.48	  195.35
     62.9580	  615.00	  607.02	-1070.27	  195.01
     62.9914	  633.00	  580.98	-1026.23	  194.67
     63.0249	  574.00	  556.31	-1060.56	  194.33
     63.0583	  567.00	  533.12	-1044.37	  193.99
     63.0917	  550.00	  511.45	-1039.70	  193.65
     63.1251	  522.00	  491.31	-1047.56	  193.30
     63.1585	  487.00	  472.64	-1063.89	  192.96
     63.1920	  481.00	  455.40	-1052.65	  192.62
     63.2254	  506.00	  439.50	-1011.75	  192.28
     63.2588	  422.00	  424.85	-1081.10	  191.94
     63.2922	  433.00	  411.37	-1056.62	  191.59
     63.3257	  440.00	  398.96	-1037.21	  191.25
     63.3591	  391.00	  387.53	-1074.78	  190.91
     63.3925	  396.00	  377.01	-1059.26	  190.57
     63.4259	  391.00	  367.31	-1054.56	  190.23
     63.4594	  383.00	  358.36	-1053.61	  189.88
     63.4928	  342.00	  350.09	-1086.34	  189.54
     63.5262	  367.00	  342.45	-1053.70	  189.20
     63.5596	  325.00	  335.37	-1088.62	  188.86
     63.5930	  340.00	  328.81	-1067.06	  188.52
     63.6265	  288.00	  322.71	-1112.96	  188.17
     63.6599	  299.00	  317.05	-1096.30	  187.83
     63.6933	  298.00	  311.77	-1092.02	  187.49
     63.7267	  304.00	  306.84	-1081.09	  187.15
     63.7602	  284.00	  302.24	-1096.49	  186.81
     63.7936	  283.00	  297.93	-1093.18	  186.47
     63.8270	  290.00	  293.90	-1082.15	  186.12
     63.8604	  279.00	  290.11	-1089.36	  185.78
     63.8938	  275.00	  286.55	-1089.80	  185.44
     63.9273	  299.00	  283.19	-1062.44	  185.10
     63.9607	  294.00	  280.03	-1064.28	  184.76
     63.9941	  256.00	  277.05	-1099.30	  184.41
     64.0275	  235.00	  274.23	-1117.48	  184.07
     64.0610	  251.00	  271.56	-1098.81	  183.73
     64.0944	  239.00	  269.03	-1108.28	  183.39
     64.1278	  281.00	  266.62	-1063.87	  183.05
     64.1612	  262.00	  264.31	-1080.56	  182.68
     64.1946	  269.00	  262.05	-1071.30	  182.24
     64.2281	  231.00	  259.88	-1107.13	  181.80
     64.2615	  237.00	  257.82	-1099.07	  181.36
     64.2949	  246.00	  255.84	-1088.09	  180.92
     64.3283	  239.00	  253.95	-1093.20	  180.48
     64.3618	  231.00	  252.14	-1099.39	  180.04
     64.3952	  228.00	  250.40	-1100.65	  179.60
     64.4286	  211.00	  248.74	-1115.99	  179.16
     64.4620	  221.00	  247.14	-1104.39	  178.72
     64.4954	  225.00	  245.60	-1098.85	  178.28
     64.5289	  246.00	  244.12	-1076.37	  177.84
     64.5623	  216.00	  242.70	-1104.95	  177.40
     64.5957	  240.00	  241.34	-1079.59	  176.96
     64.6291	  211.00	  240.02	-1107.27	  176.52
     64.6626	  229.00	  238.76	-1088.01	  176.08
     64.6960	  214.00	  237.54	-1101.79	  175.64
     64.7294	  207.00	  236.37	-1107.62	  175.20
     64.7628	  228.00	  235.24	-1085.49	  174.76
     64.7962	  204.00	  234.15	-1108.40	  174.32
     64.8297	  213.00	  233.11	-1098.36	  173.88
     64.8631	  190.00	  232.11	-1120.36	  173.44
     64.8965	  199.00	  231.15	-1110.40	  173.00
     64.9299	  211.00	  230.23	-1097.48	  172.57
     64.9634	  224.00	  229.35	-1083.60	  172.13
     64.9968	  232.00	  228.51	-1074.76	  171.69
     65.0302	  228.00	  227.71	-1077.96	  171.25
     65.0636	  203.00	  226.95	-1102.20	  170.81
     65.0971	  259.00	  226.23	-1045.48	  170.37
     65.1305	  214.00	  225.55	-1089.80	  169.93
     65.1639	  203.00	  224.91	-1100.16	  169.49
     65.1973	  196.00	  224.32	-1106.57	  169.05
     65.2307	  217.00	  223.77	-1085.02	  168.61
     65.2642	  243.00	  223.26	-1058.51	  168.17
     65.2976	  219.00	  222.80	-1082.05	  167.73
     65.3310	  208.00	  222.37	-1092.62	  167.29
     65.3644	  218.00	  221.99	-1082.24	  166.85
     65.3979	  217.00	  221.64	-1082.89	  166.41
     65.4313	  246.00	  221.32	-1053.57	  165.97
     65.4647	  221.00	  221.03	-1078.28	  165.53
     65.4981	  187.00	  220.75	-1112.00	  165.09
     65.5315	  237.00	  220.49	-1061.74	  164.65
     65.5650	  223.00	  220.21	-1075.46	  164.21
     65.5984	  214.00	  219.91	-1084.16	  163.77
     65.6318	  209.00	  219.58	-1088.83	  163.33
     65.6652	  208.00	  219.19	-1089.44	  162.89
     65.6987	  190.00	  218.74	-1106.99	  162.45
     65.7321	  205.00	  218.22	-1091.47	  162.02
     65.7655	  189.00	  217.61	-1106.86	  161.58
     65.7989	  189.00	  216.91	-1106.16	  161.14
     65.8323	  205.00	  216.12	-1089.37	  160.70
     65.8658	  253.00	  207.44	-1032.69	  160.26
     65.8992	  218.00	  206.65	-1066.90	  159.82
     65.9326	  204.00	  205.79	-1080.04	  159.38
     65.9660	  231.00	  204.87	-1052.12	  158.94
     65.9995	  195.00	  203.91	-1087.16	  158.50
     66.0329	  195.00	  199.02	-1082.27	  158.06
     66.0663	  219.00	  198.09	-1057.34	  157.62
     66.0997	  202.00	  197.15	-1073.40	  157.18
     66.1331	  202.00	  196.21	-1072.46	  156.74
     66.1666	  217.00	  195.28	-1056.53	  156.30
     66.2000	  205.00	  194.73	-1067.98	  156.22
     66.2334	  205.00	  194.20	-1067.45	  156.14
     66.2668	  191.00	  193.69	-1080.94	  156.06
     66.3003	  215.00	  193.20	-1056.45	  155.99
     66.3337	  206.00	  192.75	-1065.00	  155.91
     66.3671	  227.00	  192.32	-1043.57	  155.83
     66.4005	  187.00	  191.91	-1083.16	  155.76
     66.4340	  193.00	  191.53	-1076.78	  155.68
     66.4674	  190.00	  191.17	-1079.42	  155.60
     66.5008	  184.00	  190.83	-1085.08	  155.52
     66.5342	  208.00	  190.51	-1060.76	  155.45
     66.5676	  186.00	  190.22	-1082.47	  155.37
     66.6011	  201.00	  189.93	-1067.18	  155.29
     66.6345	  198.00	  189.67	-1069.92	  155.21
     66.6679	  182.00	  189.42	-1085.67	  155.14
     66.7013	  204.00	  189.18	-1063.43	  155.06
     66.7348	  202.00	  188.95	-1065.20	  154.98
     66.7682	  176.00	  188.74	-1090.99	  154.90
     66.8016	  221.00	  188.54	-1045.79	  154.83
     66.8350	  183.00	  188.34	-1083.59	  154.75
     66.8684	  188.00	  188.15	-1078.40	  154.67
     66.9019	  178.00	  187.98	-1088.23	  154.60
     66.9353	  174.00	  187.80	-1092.05	  154.52
     66.9687	  192.00	  187.64	-1073.89	  154.44
     67.0021	  171.00	  187.48	-1094.73	  154.36
     67.0356	  211.00	  187.33	-1054.58	  154.29
     67.0690	  168.00	  187.18	-1097.43	  154.21
     67.1024	  169.00	  187.03	-1096.28	  154.13
     67.1358	  201.00	  186.89	-1064.14	  154.05
     67.1693	  176.00	  186.76	-1089.01	  153.98
     67.2027	  195.00	  186.63	-1069.88	  153.90
     67.2361	  196.00	  186.50	-1068.75	  153.82
     67.2695	  193.00	  186.37	-1071.62	  153.74
     67.3029	  189.00	  186.25	-1075.50	  153.67
     67.3364	  176.00	  186.13	-1088.38	  153.59
     67.3698	  197.00	  186.01	-1067.26	  153.51
     67.4032	  195.00	  185.89	-1069.14	  153.44
     67.4366	  196.00	  185.78	-1068.03	  153.36
     67.4701	  193.00	  185.67	-1070.92	  153.28
     67.5035	  197.00	  186.18	-1067.43	  153.20
     67.5369	  185.00	  186.08	-1079.33	  153.13
     67.5703	  173.00	  185.99	-1091.24	  153.05
     67.6037	  160.00	  185.90	-1104.15	  152.97
     67.6372	  192.00	  185.80	-1072.05	  152.89
     67.6706	  200.00	  185.72	-1063.97	  152.82
     67.7040	  200.00	  185.94	-1064.19	  152.74
     67.7374	  184.00	  185.86	-1080.11	  152.66
     67.7709	  199.00	  185.78	-1065.03	  152.58
     67.8043	  190.00	  185.70	-1073.95	  152.51
     67.8377	  193.00	  185.63	-1070.88	  152.43
     67.8711	  170.00	  185.55	-1093.80	  152.35
     67.9045	  204.00	  185.48	-1059.73	  152.28
     67.9380	  164.00	  185.41	-1099.66	  152.20
     67.9714	  196.00	  185.34	-1067.59	  152.12
     68.0048	  190.00	  185.28	-1073.53	  152.04
     68.0382	  162.00	  185.21	-1101.46	  151.97
     68.0717	  181.00	  185.15	-1082.40	  151.89
     68.1051	  179.00	  185.08	-1084.33	  151.81
     68.1385	  180.00	  185.02	-1083.27	  151.73
     68.1719	  191.00	  184.96	-1072.21	  151.66
     68.2053	  184.00	  184.91	-1079.16	  151.58
     68.2388	  214.00	  184.85	-1049.10	  151.50
     68.2722	  185.00	  184.80	-1078.05	  151.42
     68.3056	  206.00	  184.74	-1056.99	  151.35
     68.3390	  182.00	  184.69	-1080.94	  151.27
     68.3725	  189.00	  184.64	-1073.89	  151.19
     68.4059	  188.00	  184.59	-1074.84	  151.12
     68.4393	  195.00	  184.55	-1067.80	  151.04
     68.4727	  199.00	  184.50	-1063.75	  150.96
     68.5061	  188.00	  184.46	-1074.71	  150.88
     68.5396	  186.00	  184.42	-1076.67	  150.81
     68.5730	  209.00	  184.39	-1053.64	  150.73
     68.6064	  175.00	  184.35	-1087.60	  150.65
     68.6398	  206.00	  184.32	-1056.57	  150.57
     68.6733	  166.00	  184.29	-1096.54	  150.50
     68.7067	  213.00	  184.26	-1049.51	  150.42
     68.7401	  203.00	  184.23	-1059.48	  150.34
     68.7735	  204.00	  184.21	-1058.46	  150.26
     68.8070	  218.00	  184.19	-1044.44	  150.19
     68.8404	  199.00	  184.17	-1063.42	  150.11
     68.8738	  180.00	  184.16	-1082.41	  150.03
     68.9072	  173.00	  184.15	-1089.40	  149.96
     68.9406	  178.00	  184.14	-1084.39	  149.88
     68.9741	  211.00	  184.13	-1051.38	  149.80
     69.0075	  196.00	  184.13	-1066.39	  149.72
     69.0409	  189.00	  184.14	-1073.39	  149.65
     69.0743	  178.00	  184.15	-1084.40	  149.57
     69.1078	  186.00	  184.00	-1076.25	  149.49
     69.1412	  187.00	  184.03	-1075.28	  149.41
     69.1746	  190.00	  184.05	-1072.30	  149.34
     69.2080	  204.00	  184.08	-1058.33	  149.26
     69.2414	  186.00	  184.12	-1076.37	  149.18
     69.2749	  198.00	  184.17	-1064.42	  149.10
     69.3083	  182.00	  184.14	-1080.39	  149.03
     69.3417	  181.00	  184.20	-1081.45	  148.95
     69.3751	  193.00	  184.27	-1069.52	  148.87
     69.4086	  212.00	  184.34	-1050.59	  148.80
     69.4420	  193.00	  184.43	-1069.68	  148.72
     69.4754	  188.00	  184.52	-1074.77	  148.64
     69.5088	  212.00	  184.62	-1050.87	  148.56
     69.5423	  181.00	  184.74	-1081.99	  148.49
     69.5757	  206.00	  184.86	-1057.11	  148.41
     69.6091	  187.00	  185.00	-1076.25	  148.33
     69.6425	  202.00	  185.16	-1061.41	  148.25
     69.6759	  202.00	  185.33	-1061.58	  148.18
     69.7094	  196.00	  185.51	-1067.76	  148.10
     69.7428	  196.00	  185.71	-1067.96	  148.02
     69.7762	  199.00	  185.94	-1065.19	  147.94
     69.8096	  199.00	  186.18	-1065.43	  147.87
     69.8430	  205.00	  186.44	-1059.69	  147.79
     69.8765	  193.00	  186.73	-1071.98	  147.71
     69.9099	  196.00	  187.05	-1069.30	  147.64
     69.9433	  171.00	  187.39	-1094.64	  147.56
     69.9767	  185.00	  187.77	-1081.02	  147.48
     70.0102	  224.00	  188.24	-1042.49	  147.46
     70.0436	  209.00	  188.76	-1058.01	  147.46
     70.0770	  233.00	  189.33	-1034.58	  147.46
     70.1104	  189.00	  189.94	-1079.19	  147.46
     70.1439	  189.00	  190.60	-1079.85	  147.46
     70.1773	  191.00	  191.31	-1078.56	  147.46
     70.2107	  214.00	  192.07	-1056.32	  147.46
     70.2441	  214.00	  192.90	-1057.15	  147.46
     70.2775	  240.00	  193.79	-1032.04	  147.46
     70.3110	  199.00	  194.74	-1073.99	  147.46
     70.3444	  186.00	  195.77	-1088.02	  147.46
     70.3778	  212.00	  196.87	-1063.12	  147.46
     70.4112	  179.00	  198.05	-1097.30	  147.46
     70.4447	  233.00	  199.31	-1044.56	  147.46
     70.4781	  206.00	  200.65	-1072.90	  147.46
     70.5115	  245.00	  203.64	-1036.89	  147.46
     70.5449	  223.00	  205.15	-1060.40	  147.46
     70.5783	  199.00	  206.72	-1085.97	  147.46
     70.6118	  219.00	  208.35	-1067.60	  147.46
     70.6452	  220.00	  210.00	-1068.25	  147.46
     70.6786	  225.00	  211.65	-1064.90	  147.46
     70.7120	  223.00	  214.06	-1069.31	  147.46
     70.7455	  212.00	  215.65	-1081.90	  147.46
     70.7789	  203.00	  217.14	-1092.39	  147.46
     70.8123	  207.00	  218.48	-1089.73	  147.46
     70.8457	  205.00	  219.66	-1092.91	  147.46
     70.8792	  241.00	  220.62	-1057.87	  147.46
     70.9126	  236.00	  221.33	-1063.58	  147.46
     70.9460	  201.00	  221.79	-1099.04	  147.46
     70.9794	  237.00	  221.96	-1063.21	  147.46
     71.0128	  222.00	  221.86	-1078.11	  147.46
     71.0463	  227.00	  221.49	-1072.74	  147.46
     71.0797	  231.00	  220.87	-1068.12	  147.46
     71.1131	  221.00	  220.03	-1077.28	  147.46
     71.1465	  206.00	  218.99	-1091.24	  147.46
     71.1800	  223.00	  217.79	-1073.04	  147.46
     71.2134	  229.00	  216.47	-1065.72	  147.46
     71.2468	  220.00	  215.05	-1073.30	  147.46
     71.2802	  203.00	  213.58	-1088.83	  147.46
     71.3136	  202.00	  212.09	-1088.34	  147.46
     71.3471	  224.00	  210.59	-1064.84	  147.46
     71.3805	  214.00	  209.13	-1073.38	  147.46
     71.4139	  189.00	  207.71	-1096.96	  147.46
     71.4473	  200.00	  206.34	-1084.59	  147.46
     71.4808	  221.00	  205.53	-1062.78	  147.46
     71.5142	  209.00	  204.32	-1073.57	  147.46
     71.5476	  219.00	  203.19	-1062.44	  147.46
     71.5810	  204.00	  202.14	-1076.39	  147.46
     71.6144	  209.00	  201.16	-1070.41	  147.46
     71.6479	  197.00	  200.27	-1081.52	  147.46
     71.6813	  191.00	  199.45	-1086.70	  147.46
     71.7147	  223.00	  198.95	-1054.20	  147.46
     71.7481	  200.00	  198.28	-1076.53	  147.46
     71.7816	  214.00	  197.68	-1061.93	  147.46
     71.8150	  188.00	  197.14	-1087.39	  147.46
     71.8484	  183.00	  196.65	-1091.90	  147.46
     71.8818	  229.00	  196.23	-1045.48	  147.46
     71.9153	  228.00	  195.80	-1046.05	  147.41
     71.9487	  229.00	  195.40	-1044.65	  147.33
     71.9821	  197.00	  195.04	-1076.29	  147.25
     72.0155	  217.00	  194.73	-1055.98	  147.17
     72.0489	  214.00	  194.46	-1058.71	  147.09
     72.0824	  207.00	  194.22	-1065.47	  147.01
     72.1158	  204.00	  194.03	-1068.28	  146.93
     72.1492	  208.00	  193.88	-1064.13	  146.86
     72.1826	  197.00	  193.76	-1075.01	  146.78
     72.2160	  181.00	  193.67	-1090.92	  146.70
     72.2495	  191.00	  193.62	-1080.87	  146.62
     72.2829	  214.00	  193.60	-1057.85	  146.54
     72.3163	  213.00	  193.62	-1058.87	  146.46
     72.3497	  206.00	  193.67	-1065.92	  146.38
     72.3832	  187.00	  193.75	-1085.00	  146.30
     72.4166	  219.00	  193.87	-1053.12	  146.22
     72.4500	  186.00	  194.02	-1086.27	  146.14
     72.4834	  217.00	  194.20	-1055.45	  146.06
     72.5169	  205.00	  194.42	-1067.67	  145.98
     72.5503	  205.00	  194.68	-1067.93	  145.90
     72.5837	  203.00	  194.97	-1070.22	  145.82
     72.6171	  204.00	  195.31	-1069.56	  145.74
     72.6505	  212.00	  195.69	-1061.94	  145.66
     72.6840	  220.00	  196.11	-1054.36	  145.58
     72.7174	  217.00	  196.57	-1057.82	  145.50
     72.7508	  199.00	  197.09	-1076.34	  145.42
     72.7842	  181.00	  197.66	-1094.91	  145.34
     72.8177	  215.00	  198.28	-1061.53	  145.26
     72.8511	  216.00	  198.96	-1061.21	  145.18
     72.8845	  220.00	  199.71	-1057.96	  145.11
     72.9179	  213.00	  200.52	-1065.77	  145.03
     72.9513	  197.00	  201.40	-1082.65	  144.95
     72.9848	  211.00	  202.37	-1069.62	  144.87
     73.0182	  209.00	  203.41	-1072.66	  144.79
     73.0516	  207.00	  204.55	-1075.80	  144.71
     73.0850	  214.00	  205.78	-1070.03	  144.63
     73.1185	  205.00	  207.12	-1080.37	  144.55
     73.1519	  231.00	  208.57	-1055.82	  144.47
     73.1853	  223.00	  210.14	-1065.39	  144.39
     73.2187	  208.00	  211.84	-1082.09	  144.31
     73.2522	  225.00	  213.67	-1066.92	  144.23
     73.2856	  229.00	  215.66	-1064.91	  144.15
     73.3190	  240.00	  217.79	-1056.04	  144.07
     73.3524	  228.00	  220.09	-1070.34	  143.99
     73.3858	  235.00	  222.56	-1065.81	  143.91
     73.4193	  262.00	  225.20	-1041.45	  143.83
     73.4527	  216.00	  228.02	-1090.27	  143.75
     73.4861	  250.00	  231.02	-1059.27	  143.67
     73.5195	  237.00	  234.19	-1075.44	  143.59
     73.5530	  297.00	  237.52	-1018.77	  143.51
     73.5864	  270.00	  241.00	-1049.25	  143.43
     73.6198	  244.00	  244.61	-1078.86	  143.36
     73.6532	  229.00	  248.29	-1097.54	  143.28
     73.6866	  297.00	  252.02	-1033.27	  143.20
     73.7201	  235.00	  255.74	-1098.99	  143.12
     73.7535	  279.00	  259.37	-1058.62	  143.04
     73.7869	  228.00	  262.84	-1113.09	  142.96
     73.8203	  290.00	  266.08	-1054.33	  142.88
     73.8538	  265.00	  269.01	-1082.26	  142.80
     73.8872	  303.00	  271.53	-1046.78	  142.72
     73.9206	  290.00	  273.59	-1061.84	  142.64
     73.9540	  318.00	  275.13	-1035.38	  142.56
     73.9874	  298.00	  276.12	-1056.37	  142.48
     74.0209	  311.00	  276.52	-1043.77	  142.40
     74.0543	  273.00	  276.36	-1081.61	  142.32
     74.0877	  289.00	  275.64	-1064.89	  142.24
     74.1211	  297.00	  274.42	-1055.67	  142.16
     74.1546	  283.00	  272.74	-1067.99	  142.08
     74.1880	  283.00	  270.67	-1065.92	  142.00
     74.2214	  306.00	  268.27	-1040.52	  141.92
     74.2548	  270.00	  265.64	-1073.89	  141.84
     74.2882	  299.00	  262.83	-1042.08	  141.76
     74.3217	  259.00	  259.92	-1079.17	  141.68
     74.3551	  265.00	  256.99	-1070.24	  141.61
     74.3885	  281.00	  253.48	-1050.73	  141.53
     74.4219	  259.00	  250.67	-1069.92	  141.45
     74.4554	  290.00	  247.97	-1036.22	  141.37
     74.4888	  271.00	  245.44	-1052.69	  141.29
     74.5222	  268.00	  243.08	-1053.33	  141.21
     74.5556	  245.00	  240.91	-1074.16	  141.13
     74.5891	  279.00	  238.64	-1037.89	  141.05
     74.6225	  270.00	  236.86	-1045.11	  140.97
     74.6559	  254.00	  235.27	-1059.52	  140.89
     74.6893	  284.00	  233.84	-1028.09	  140.81
     74.7227	  265.00	  232.56	-1045.81	  140.73
     74.7562	  230.00	  231.40	-1079.65	  140.65
     74.7896	  289.00	  230.32	-1019.57	  140.57
     74.8230	  250.00	  229.31	-1057.56	  140.49
     74.8564	  222.00	  228.32	-1084.57	  140.41
     74.8899	  236.00	  227.32	-1069.57	  140.33
     74.9233	  220.00	  226.29	-1084.54	  140.25
     74.9567	  244.00	  225.21	-1059.46	  140.17
     74.9901	  233.00	  224.04	-1069.29	  140.09
     75.0235	  228.00	  222.79	-1073.04	  140.01
     75.0570	  251.00	  221.44	-1048.69	  139.93
     75.0904	  233.00	  219.99	-1065.24	  139.86
     75.1238	  231.00	  218.46	-1065.71	  139.78
     75.1572	  224.00	  216.84	-1071.09	  139.70
     75.1907	  266.00	  215.16	-1027.41	  139.62
     75.2241	  231.00	  213.43	-1060.68	  139.54
     75.2575	  243.00	  211.66	-1046.91	  139.46
     75.2909	  207.00	  209.87	-1081.12	  139.38
     75.3243	  203.00	  208.08	-1083.33	  139.30
     75.3578	  206.00	  206.31	-1078.56	  139.22
     75.3912	  213.00	  205.20	-1070.45	  139.14
     75.4246	  201.00	  203.51	-1080.76	  139.06
     75.4580	  218.00	  201.87	-1062.12	  138.98
     75.4915	  233.00	  200.29	-1045.54	  138.90
     75.5249	  218.00	  198.78	-1059.03	  138.82
     75.5583	  223.00	  197.34	-1052.59	  138.74
     75.5917	  229.00	  195.96	-1045.21	  138.66
     75.6252	  214.00	  194.99	-1059.24	  138.59
     75.6586	  218.00	  193.78	-1054.03	  138.53
     75.6920	  195.00	  192.64	-1075.89	  138.47
     75.7254	  166.00	  191.56	-1103.81	  138.41
     75.7588	  224.00	  190.55	-1044.80	  138.35
     75.7923	  187.00	  189.60	-1080.85	  138.29
     75.8257	  206.00	  188.71	-1060.96	  138.23
     75.8591	  206.00	  187.86	-1060.11	  138.17
     75.8925	  231.00	  187.07	-1034.32	  138.11
     75.9259	  211.00	  186.33	-1053.58	  138.05
     75.9594	  180.00	  185.63	-1083.88	  137.99
     75.9928	  206.00	  184.97	-1057.22	  137.93
     76.0262	  205.00	  184.35	-1057.60	  137.87
     76.0596	  235.00	  183.76	-1027.01	  137.81
     76.0931	  186.00	  183.21	-1075.46	  137.75
     76.1265	  187.00	  182.69	-1073.94	  137.69
     76.1599	  206.00	  182.20	-1054.45	  137.63
     76.1933	  196.00	  181.73	-1063.98	  137.57
     76.2268	  229.00	  181.29	-1030.54	  137.51
     76.2602	  191.00	  180.88	-1068.13	  137.46
     76.2936	  199.00	  180.48	-1059.73	  137.40
     76.3270	  169.00	  180.11	-1089.36	  137.34
     76.3604	  178.00	  179.76	-1080.01	  137.28
     76.3939	  179.00	  179.42	-1078.67	  137.22
     76.4273	  204.00	  179.11	-1053.36	  137.16
     76.4607	  173.00	  178.81	-1084.06	  137.10
     76.4941	  170.00	  178.52	-1086.77	  137.04
     76.5276	  207.00	  178.25	-1049.50	  136.98
     76.5610	  192.00	  178.00	-1064.25	  136.92
     76.5944	  186.00	  177.76	-1070.01	  136.86
     76.6278	  183.00	  177.53	-1072.78	  136.80
     76.6612	  174.00	  177.31	-1081.56	  136.74
     76.6947	  185.00	  177.10	-1070.35	  136.68
     76.7281	  173.00	  176.91	-1082.16	  136.62
     76.7615	  197.00	  176.73	-1057.98	  136.56
     76.7949	  166.00	  176.55	-1088.80	  136.50
     76.8284	  185.00	  176.39	-1069.64	  136.44
     76.8618	  169.00	  176.24	-1085.49	  136.38
     76.8952	  195.00	  176.10	-1059.35	  136.32
     76.9286	  184.00	  175.97	-1070.22	  136.26
     76.9621	  150.00	  175.84	-1104.09	  136.20
     76.9955	  170.00	  175.73	-1083.98	  136.14
     77.0289	  205.00	  175.62	-1048.87	  136.08
     77.0623	  172.00	  175.53	-1081.78	  136.02
     77.0957	  172.00	  175.44	-1081.69	  135.96
     77.1292	  171.00	  175.37	-1082.62	  135.90
     77.1626	  193.00	  175.30	-1060.55	  135.84
     77.1960	  158.00	  175.24	-1095.49	  135.78
     77.2294	  176.00	  175.20	-1077.45	  135.72
     77.2629	  179.00	  175.16	-1074.41	  135.66
     77.2963	  175.00	  175.13	-1078.38	  135.60
     77.3297	  183.00	  175.11	-1070.36	  135.54
     77.3631	  181.00	  175.11	-1072.36	  135.48
     77.3965	  188.00	  175.11	-1065.36	  135.42
     77.4300	  190.00	  175.13	-1063.38	  135.36
     77.4634	  183.00	  173.65	-1068.90	  135.30
     77.4968	  172.00	  173.72	-1079.97	  135.24
     77.5302	  225.00	  173.80	-1027.05	  135.18
     77.5637	  206.00	  173.89	-1046.14	  135.12
     77.5971	  178.00	  174.00	-1074.25	  135.06
     77.6305	  181.00	  174.12	-1071.37	  135.00
     77.6639	  166.00	  173.50	-1085.75	  134.94
     77.6973	  197.00	  173.67	-1054.92	  134.88
     77.7308	  179.00	  173.86	-1073.11	  134.82
     77.7642	  175.00	  174.06	-1077.31	  134.76
     77.7976	  202.00	  174.29	-1050.54	  134.70
     77.8310	  188.00	  174.54	-1064.79	  134.64
     77.8645	  180.00	  174.80	-1073.05	  134.58
     77.8979	  203.00	  175.10	-1050.35	  134.52
     77.9313	  172.00	  175.42	-1081.67	  134.46
     77.9647	  170.00	  175.77	-1084.02	  134.40
     77.9981	  192.00	  176.15	-1062.40	  134.34
     78.0316	  196.00	  176.56	-1058.81	  134.28
     78.0650	  191.00	  177.00	-1064.25	  134.22
     78.0984	  172.00	  177.48	-1083.73	  134.16
     78.1318	  165.00	  178.01	-1091.26	  134.10
     78.1653	  173.00	  178.57	-1083.82	  134.04
     78.1987	  180.00	  179.18	-1077.43	  133.98
     78.2321	  171.00	  179.83	-1087.08	  133.92
     78.2655	  221.00	  180.62	-1037.87	  133.86
     78.2990	  213.00	  181.37	-1046.62	  133.80
     78.3324	  182.00	  182.18	-1078.43	  133.74
     78.3658	  178.00	  183.04	-1083.29	  133.68
     78.3992	  186.00	  183.96	-1076.21	  133.62
     78.4326	  202.00	  184.93	-1061.18	  133.56
     78.4661	  180.00	  185.47	-1083.72	  133.50
     78.4995	  174.00	  186.58	-1090.83	  133.44
     78.5329	  171.00	  187.69	-1094.94	  133.38
     78.5663	  233.00	  188.83	-1034.08	  133.32
     78.5998	  203.00	  189.99	-1065.24	  133.26
     78.6332	  211.00	  191.16	-1058.41	  133.20
     78.6666	  190.00	  192.31	-1080.56	  133.14
     78.7000	  208.00	  193.19	-1063.44	  133.08
     78.7334	  206.00	  194.27	-1066.52	  133.02
     78.7669	  198.00	  195.26	-1075.51	  132.96
     78.8003	  201.00	  196.15	-1073.40	  132.90
     78.8337	  206.00	  196.91	-1069.16	  132.84
     78.8671	  193.00	  197.53	-1082.78	  132.79
     78.9006	  195.00	  197.99	-1081.24	  132.73
     78.9340	  171.00	  198.33	-1105.58	  132.73
     78.9674	  171.00	  198.49	-1105.74	  132.73
     79.0008	  218.00	  198.46	-1058.71	  132.73
     79.0342	  203.00	  198.24	-1073.49	  132.73
     79.0677	  219.00	  197.85	-1057.10	  132.73
     79.1011	  199.00	  197.29	-1076.54	  132.73
     79.1345	  220.00	  196.59	-1054.84	  132.73
     79.1679	  190.00	  195.75	-1084.00	  132.73
     79.2014	  201.00	  194.81	-1072.06	  132.73
     79.2348	  179.00	  193.78	-1093.03	  132.73
     79.2682	  181.00	  192.67	-1089.92	  132.73
     79.3016	  197.00	  191.52	-1072.77	  132.73
     79.3351	  193.00	  190.34	-1075.59	  132.73
     79.3685	  189.00	  189.15	-1078.40	  132.73
     79.4019	  195.00	  187.96	-1071.21	  132.73
     79.4353	  190.00	  186.79	-1075.04	  132.73
     79.4687	  189.00	  185.65	-1074.90	  132.73
     79.5022	  204.00	  184.54	-1058.79	  132.73
     79.5356	  172.00	  183.47	-1089.72	  132.73
     79.5690	  176.00	  182.45	-1084.70	  132.73
     79.6024	  183.00	  181.48	-1076.73	  132.73
     79.6359	  174.00	  180.56	-1084.81	  132.73
     79.6693	  176.00	  179.69	-1081.94	  132.73
     79.7027	  197.00	  178.88	-1060.13	  132.73
     79.7361	  180.00	  178.11	-1076.36	  132.73
     79.7695	  185.00	  177.39	-1070.64	  132.73
     79.8030	  201.00	  176.71	-1053.96	  132.73
     79.8364	  162.00	  176.08	-1092.33	  132.73
     79.8698	  175.00	  175.49	-1078.74	  132.73
     79.9032	  182.00	  174.94	-1071.19	  132.73
     79.9367	  179.00	  174.42	-1073.67	  132.73
     79.9701	  162.00	  173.94	-1090.19	  132.73
     80.0035	  187.00	  173.50	-1064.75	  132.73
     80.0369	  178.00	  173.08	-1073.33	  132.73
     80.0703	  178.00	  172.69	-1072.94	  132.73
     80.1038	  173.00	  172.32	-1077.57	  132.73
     80.1372	  175.00	  171.98	-1075.23	  132.73
     80.1706	  185.00	  171.67	-1064.92	  132.73
     80.2040	  165.00	  171.37	-1084.62	  132.73
     80.2375	  181.00	  171.09	-1068.34	  132.73
     80.2709	  191.00	  170.84	-1058.09	  132.73
     80.3043	  164.00	  170.60	-1084.85	  132.73
     80.3377	  184.00	  170.37	-1064.62	  132.73
     80.3711	  146.00	  170.16	-1102.41	  132.73
     80.4046	  148.00	  169.97	-1100.22	  132.73
     80.4380	  175.00	  169.79	-1073.04	  132.73
     80.4714	  146.00	  169.62	-1101.87	  132.73
     80.5048	  188.00	  169.46	-1059.71	  132.73
     80.5383	  176.00	  169.32	-1071.57	  132.73
     80.5717	  171.00	  169.19	-1076.44	  132.73
     80.6051	  182.00	  169.06	-1065.31	  132.73
     80.6385	  171.00	  168.95	-1076.20	  132.73
     80.6720	  142.00	  168.85	-1105.10	  132.73
     80.7054	  172.00	  168.75	-1075.00	  132.73
     80.7388	  155.00	  168.67	-1091.92	  132.73
     80.7722	  199.00	  168.59	-1047.84	  132.73
     80.8056	  183.00	  168.52	-1063.77	  132.73
     80.8391	  180.00	  168.46	-1066.71	  132.73
     80.8725	  176.00	  168.41	-1070.66	  132.73
     80.9059	  156.00	  168.36	-1090.61	  132.73
     80.9393	  185.00	  168.33	-1061.58	  132.73
     80.9728	  171.00	  168.30	-1075.55	  132.73
     81.0062	  173.00	  168.28	-1073.53	  132.73
     81.0396	  172.00	  168.27	-1074.52	  132.73
     81.0730	  157.00	  168.27	-1089.52	  132.73
     81.1064	  201.00	  168.27	-1045.52	  132.73
     81.1399	  184.00	  168.29	-1062.54	  132.73
     81.1733	  191.00	  168.31	-1055.56	  132.73
     81.2067	  200.00	  168.34	-1046.59	  132.73
     81.2401	  182.00	  168.38	-1064.63	  132.73
     81.2736	  162.00	  168.42	-1084.67	  132.73
     81.3070	  158.00	  168.48	-1088.73	  132.73
     81.3404	  189.00	  168.54	-1057.79	  132.73
     81.3738	  179.00	  168.61	-1067.86	  132.73
     81.4072	  163.00	  168.69	-1083.94	  132.73
     81.4407	  198.00	  168.78	-1049.03	  132.73
     81.4741	  151.00	  168.87	-1096.12	  132.73
     81.5075	  156.00	  168.96	-1091.21	  132.73
     81.5409	  169.00	  169.06	-1078.31	  132.73
     81.5744	  160.00	  169.16	-1087.41	  132.73
     81.6078	  179.00	  169.25	-1068.50	  132.73
     81.6412	  181.00	  169.35	-1066.60	  132.73
     81.6746	  174.00	  169.44	-1073.69	  132.73
     81.7081	  160.00	  169.52	-1087.77	  132.73
     81.7415	  180.00	  169.58	-1067.83	  132.73
     81.7749	  183.00	  169.64	-1064.89	  132.73
     81.8083	  139.00	  169.68	-1108.93	  132.73
     81.8417	  174.00	  169.70	-1073.95	  132.73
     81.8752	  189.00	  169.70	-1058.95	  132.73
     81.9086	  151.00	  169.69	-1096.94	  132.73
     81.9420	  151.00	  169.65	-1096.90	  132.73
     81.9754	  174.00	  169.59	-1073.84	  132.73
     82.0089	  155.00	  169.52	-1092.77	  132.73
     82.0423	  153.00	  169.43	-1094.68	  132.73
     82.0757	  158.00	  169.32	-1089.57	  132.73
     82.1091	  182.00	  169.20	-1065.45	  132.73
     82.1425	  183.00	  169.07	-1064.32	  132.73
     82.1760	  170.00	  168.93	-1077.18	  132.73
     82.2094	  165.00	  168.71	-1081.96	  132.67
     82.2428	  169.00	  168.47	-1077.72	  132.58
     82.2762	  149.00	  168.22	-1097.47	  132.49
     82.3097	  166.00	  167.97	-1080.22	  132.40
     82.3431	  165.00	  167.72	-1080.97	  132.31
     82.3765	  151.00	  167.48	-1094.73	  132.22
     82.4099	  136.00	  167.23	-1109.48	  132.13
     82.4433	  188.00	  166.99	-1057.24	  132.04
     82.4768	  165.00	  166.76	-1080.01	  131.95
     82.5102	  155.00	  165.93	-1089.18	  131.86
     82.5436	  153.00	  165.72	-1090.97	  131.77
     82.5770	  153.00	  165.51	-1090.76	  131.68
     82.6105	  144.00	  165.31	-1099.56	  131.59
     82.6439	  180.00	  165.11	-1063.36	  131.50
     82.6773	  192.00	  164.92	-1051.17	  131.41
     82.7107	  148.00	  164.74	-1094.99	  131.32
     82.7441	  164.00	  164.26	-1078.51	  131.23
     82.7776	  162.00	  164.09	-1080.34	  131.14
     82.8110	  140.00	  163.93	-1102.18	  131.05
     82.8444	  157.00	  163.77	-1085.02	  130.96
     82.8778	  130.00	  163.61	-1111.86	  130.87
     82.9113	  178.00	  163.46	-1063.71	  130.78
     82.9447	  156.00	  163.31	-1085.56	  130.69
     82.9781	  155.00	  163.17	-1086.42	  130.60
     83.0115	  178.00	  163.68	-1063.93	  130.51
     83.0450	  142.00	  163.56	-1099.81	  130.42
     83.0784	  147.00	  163.43	-1094.68	  130.33
     83.1118	  146.00	  163.31	-1095.56	  130.24
     83.1452	  178.00	  163.20	-1063.45	  130.15
     83.1786	  179.00	  163.08	-1062.33	  130.06
     83.2121	  158.00	  162.97	-1083.22	  129.97
     83.2455	  183.00	  162.86	-1058.11	  129.88
     83.2789	  180.00	  163.08	-1061.33	  129.79
     83.3123	  152.00	  162.98	-1089.23	  129.70
     83.3458	  169.00	  162.89	-1072.14	  129.61
     83.3792	  166.00	  162.79	-1075.04	  129.52
     83.4126	  151.00	  162.70	-1089.95	  129.43
     83.4460	  163.00	  162.61	-1077.86	  129.34
     83.4794	  175.00	  162.52	-1065.77	  129.25
     83.5129	  160.00	  162.43	-1080.68	  129.16
     83.5463	  178.00	  162.35	-1062.60	  129.07
     83.5797	  146.00	  162.27	-1094.52	  128.99
     83.6131	  167.00	  162.18	-1073.44	  128.90
     83.6466	  144.00	  162.11	-1096.36	  128.81
     83.6800	  160.00	  162.03	-1080.28	  128.72
     83.7134	  160.00	  161.95	-1080.20	  128.63
     83.7468	  168.00	  161.88	-1072.13	  128.54
     83.7803	  176.00	  161.80	-1064.05	  128.45
     83.8137	  139.00	  161.73	-1100.98	  128.36
     83.8471	  148.00	  161.66	-1091.91	  128.27
     83.8805	  160.00	  161.59	-1079.84	  128.18
     83.9139	  142.00	  161.53	-1097.78	  128.09
     83.9474	  151.00	  161.46	-1088.71	  128.00
     83.9808	  168.00	  161.40	-1071.65	  127.91
     84.0142	  190.00	  161.34	-1049.59	  127.82
     84.0476	  166.00	  161.28	-1073.53	  127.73
     84.0810	  153.00	  161.22	-1086.47	  127.64
     84.1145	  170.00	  161.16	-1069.41	  127.55
     84.1479	  149.00	  161.11	-1090.36	  127.46
     84.1813	  157.00	  161.06	-1082.31	  127.37
     84.2147	  168.00	  161.01	-1071.26	  127.28
     84.2482	  178.00	  160.96	-1061.21	  127.19
     84.2816	  143.00	  160.91	-1096.16	  127.10
     84.3150	  172.00	  160.87	-1067.12	  127.01
     84.3484	  164.00	  160.83	-1075.08	  126.92
     84.3819	  176.00	  160.79	-1063.04	  126.83
     84.4153	  163.00	  160.75	-1076.00	  126.74
     84.4487	  155.00	  160.72	-1083.97	  126.65
     84.4821	  157.00	  160.69	-1081.94	  126.56
     84.5155	  183.00	  160.66	-1055.91	  126.47
     84.5490	  153.00	  160.63	-1085.88	  126.38
     84.5824	  136.00	  160.61	-1102.86	  126.29
     84.6158	  165.00	  160.59	-1073.84	  126.20
     84.6492	  168.00	  160.58	-1070.83	  126.11
     84.6827	  162.00	  160.56	-1076.81	  126.02
     84.7161	  155.00	  160.56	-1083.81	  125.93
     84.7495	  151.00	  160.55	-1087.80	  125.84
     84.7829	  155.00	  160.55	-1083.80	  125.75
     84.8163	  138.00	  160.55	-1100.80	  125.66
     84.8498	  149.00	  160.56	-1089.81	  125.57
     84.8832	  162.00	  160.58	-1076.83	  125.48
     84.9166	  172.00	  160.59	-1066.84	  125.39
     84.9500	  150.00	  160.62	-1088.87	  125.30
     84.9835	  170.00	  160.65	-1068.90	  125.21
     85.0169	  169.00	  160.68	-1069.93	  125.12
     85.0503	  149.00	  160.73	-1089.98	  125.03
     85.0837	  167.00	  160.78	-1072.03	  124.94
     85.1171	  162.00	  160.83	-1077.08	  124.85
     85.1506	  150.00	  160.90	-1089.15	  124.76
     85.1840	  168.00	  160.97	-1071.22	  124.67
     85.2174	  140.00	  161.05	-1099.30	  124.58
     85.2508	  169.00	  161.14	-1070.39	  124.49
     85.2843	  196.00	  161.25	-1043.50	  124.40
     85.3177	  174.00	  161.36	-1065.61	  124.32
     85.3511	  162.00	  161.48	-1077.73	  124.23
     85.3845	  168.00	  161.62	-1071.87	  124.14
     85.4180	  158.00	  161.77	-1082.02	  124.05
     85.4514	  162.00	  161.93	-1078.18	  123.96
     85.4848	  173.00	  162.05	-1067.30	  123.88
     85.5182	  155.00	  162.29	-1085.54	  123.84
     85.5516	  179.00	  162.56	-1061.81	  123.81
     85.5851	  175.00	  162.84	-1066.09	  123.77
     85.6185	  150.00	  163.14	-1091.39	  123.73
     85.6519	  158.00	  163.46	-1083.71	  123.69
     85.6853	  167.00	  163.80	-1075.05	  123.65
     85.7188	  152.00	  164.13	-1090.38	  123.61
     85.7522	  168.00	  164.52	-1074.77	  123.57
     85.7856	  156.00	  164.94	-1087.19	  123.53
     85.8190	  159.00	  165.39	-1084.64	  123.50
     85.8524	  163.00	  168.38	-1083.63	  123.46
     85.8859	  192.00	  168.93	-1055.18	  123.42
     85.9193	  184.00	  169.52	-1063.77	  123.38
     85.9527	  156.00	  170.14	-1092.39	  123.34
     85.9861	  139.00	  170.80	-1110.05	  123.30
     86.0196	  193.00	  171.49	-1056.74	  123.26
     86.0530	  165.00	  172.23	-1085.48	  123.23
     86.0864	  181.00	  173.00	-1070.25	  123.19
     86.1198	  166.00	  175.06	-1087.31	  123.15
     86.1533	  191.00	  175.93	-1063.18	  123.11
     86.1867	  175.00	  176.84	-1080.09	  123.07
     86.2201	  199.00	  177.79	-1057.04	  123.03
     86.2535	  164.00	  178.76	-1093.01	  122.99
     86.2869	  174.00	  179.76	-1084.01	  122.95
     86.3204	  156.00	  180.78	-1103.03	  122.92
     86.3538	  174.00	  181.81	-1086.06	  122.88
     86.3872	  180.00	  182.84	-1081.09	  122.84
     86.4206	  191.00	  183.87	-1071.12	  122.80
     86.4540	  179.00	  184.87	-1084.12	  122.76
     86.4875	  178.00	  185.83	-1086.08	  122.72
     86.5209	  173.00	  186.74	-1091.99	  122.68
     86.5543	  154.00	  187.59	-1111.84	  122.65
     86.5877	  195.00	  188.36	-1071.61	  122.61
     86.6212	  186.00	  189.03	-1081.28	  122.57
     86.6546	  189.00	  189.59	-1078.84	  122.53
     86.6880	  185.00	  190.04	-1083.29	  122.49
     86.7214	  199.00	  190.37	-1069.62	  122.45
     86.7549	  197.00	  190.56	-1071.81	  122.41
     86.7883	  188.00	  190.64	-1080.89	  122.37
     86.8217	  207.00	  190.58	-1061.83	  122.34
     86.8551	  182.00	  190.40	-1086.65	  122.30
     86.8885	  188.00	  190.11	-1080.36	  122.26
     86.9220	  172.00	  189.72	-1095.97	  122.22
     86.9554	  184.00	  189.23	-1083.48	  122.18
     86.9888	  196.00	  188.66	-1070.91	  122.14
     87.0222	  179.00	  188.02	-1087.27	  122.10
     87.0557	  190.00	  187.33	-1075.58	  122.07
     87.0891	  173.00	  186.59	-1091.84	  122.03
     87.1225	  214.00	  185.83	-1050.08	  121.99
     87.1559	  198.00	  185.05	-1065.30	  121.95
     87.1893	  178.00	  184.26	-1084.51	  121.91
     87.2228	  198.00	  183.48	-1063.73	  121.87
     87.2562	  182.00	  182.71	-1078.96	  121.83
     87.2896	  219.00	  181.96	-1041.21	  121.79
     87.3230	  178.00	  181.25	-1081.50	  121.76
     87.3565	  185.00	  180.57	-1073.82	  121.72
     87.3899	  178.00	  179.93	-1080.18	  121.68
     87.4233	  180.00	  179.33	-1077.58	  121.64
     87.4567	  172.00	  178.78	-1085.03	  121.60
     87.4902	  176.00	  178.27	-1080.52	  121.56
     87.5236	  170.00	  177.81	-1086.06	  121.52
     87.5570	  167.00	  177.40	-1088.65	  121.49
     87.5904	  176.00	  177.04	-1079.29	  121.45
     87.6238	  170.00	  176.73	-1084.98	  121.41
     87.6573	  179.00	  176.47	-1075.72	  121.37
     87.6907	  170.00	  176.25	-1084.50	  121.33
     87.7241	  195.00	  176.08	-1059.33	  121.29
     87.7575	  189.00	  175.96	-1065.21	  121.25
     87.7910	  173.00	  175.88	-1081.13	  121.21
     87.8244	  182.00	  175.85	-1072.10	  121.18
     87.8578	  197.00	  175.87	-1057.12	  121.14
     87.8912	  207.00	  175.93	-1047.18	  121.10
     87.9246	  193.00	  176.04	-1061.29	  121.06
     87.9581	  187.00	  176.19	-1067.44	  121.02
     87.9915	  176.00	  176.39	-1078.64	  120.98
     88.0249	  198.00	  176.64	-1056.89	  120.94
     88.0583	  171.00	  176.94	-1084.19	  120.91
     88.0918	  163.00	  177.29	-1092.54	  120.88
     88.1252	  190.00	  177.68	-1065.93	  120.85
     88.1586	  181.00	  178.13	-1075.38	  120.81
     88.1920	  176.00	  178.63	-1080.88	  120.78
     88.2254	  158.00	  179.18	-1099.43	  120.75
     88.2589	  175.00	  179.78	-1083.03	  120.71
     88.2923	  180.00	  180.45	-1078.70	  120.68
     88.3257	  203.00	  181.17	-1056.42	  120.65
     88.3591	  199.00	  181.96	-1061.21	  120.61
     88.3926	  164.00	  182.81	-1097.06	  120.58
     88.4260	  189.00	  183.73	-1072.98	  120.55
     88.4594	  185.00	  184.72	-1077.97	  120.51
     88.4928	  195.00	  185.79	-1069.04	  120.48
     88.5262	  202.00	  186.93	-1063.18	  120.45
     88.5597	  171.00	  188.16	-1095.41	  120.41
     88.5931	  204.00	  189.48	-1063.73	  120.38
     88.6265	  200.00	  190.89	-1069.14	  120.35
     88.6599	  182.00	  192.40	-1088.65	  120.32
     88.6934	  206.00	  194.00	-1066.25	  120.28
     88.7268	  212.00	  195.72	-1061.97	  120.25
     88.7602	  200.00	  197.54	-1075.79	  120.22
     88.7936	  200.00	  199.48	-1077.73	  120.18
     88.8270	  230.00	  201.54	-1049.79	  120.15
     88.8605	  204.00	  203.72	-1077.97	  120.12
     88.8939	  212.00	  206.03	-1072.28	  120.08
     88.9273	  206.00	  208.47	-1080.72	  120.05
     88.9607	  188.00	  211.03	-1101.28	  120.02
     88.9942	  228.00	  213.72	-1063.97	  119.98
     89.0276	  217.00	  216.54	-1077.79	  119.95
     89.0610	  228.00	  219.47	-1069.72	  119.92
     89.0944	  225.00	  222.51	-1075.76	  119.88
     89.1279	  201.00	  225.65	-1102.90	  119.85
     89.1613	  218.00	  228.87	-1089.12	  119.82
     89.1947	  243.00	  232.15	-1067.40	  119.78
     89.2281	  238.00	  235.47	-1075.72	  119.75
     89.2615	  255.00	  238.78	-1062.03	  119.72
     89.2950	  238.00	  242.07	-1082.32	  119.69
     89.3284	  223.00	  245.28	-1100.53	  119.65
     89.3618	  216.00	  248.37	-1110.62	  119.62
     89.3952	  223.00	  251.30	-1106.55	  119.59
     89.4287	  251.00	  254.01	-1081.26	  119.55
     89.4621	  244.00	  256.47	-1090.72	  119.52
     89.4955	  252.00	  258.62	-1084.87	  119.49
     89.5289	  261.00	  260.42	-1077.67	  119.45
     89.5623	  243.00	  261.84	-1097.09	  119.42
     89.5958	  261.00	  262.86	-1080.11	  119.39
     89.6292	  255.00	  263.44	-1086.69	  119.35
     89.6626	  263.00	  263.59	-1078.84	  119.32
     89.6960	  277.00	  263.31	-1064.56	  119.29
     89.7295	  244.00	  262.59	-1096.84	  119.25
     89.7629	  272.00	  261.46	-1067.71	  119.22
     89.7963	  260.00	  259.95	-1078.20	  119.19
     89.8297	  234.00	  258.07	-1102.32	  119.16
     89.8632	  231.00	  255.87	-1103.12	  119.12
     89.8966	  256.00	  253.39	-1075.64	  119.09
     89.9300	  255.00	  250.66	-1073.91	  119.06
     89.9634	  253.00	  247.72	-1072.97	  119.02
     89.9968	  248.00	  244.62	-1074.87	  118.99
     90.0303	  250.00	  241.39	-1069.64	  118.96
     90.0637	  236.00	  238.09	-1080.34	  118.92
     90.0971	  219.00	  234.73	-1093.98	  118.89
     90.1305	  255.00	  231.35	-1054.60	  118.86
     90.1640	  217.00	  228.00	-1089.25	  118.82
     90.1974	  225.00	  224.68	-1077.93	  118.79
     90.2308	  203.00	  221.42	-1096.67	  118.76
     90.2642	  232.00	  218.24	-1064.49	  118.72
     90.2976	  213.00	  215.16	-1080.41	  118.69
     90.3311	  197.00	  212.18	-1093.43	  118.66
     90.3645	  221.00	  209.31	-1066.56	  118.62
     90.3979	  199.00	  206.55	-1085.80	  118.59
     90.4313	  212.00	  203.29	-1069.54	  118.56
     90.4648	  223.00	  200.79	-1056.04	  118.53
     90.4982	  199.00	  198.40	-1077.65	  118.49
     90.5316	  200.00	  196.14	-1074.39	  118.46
     90.5650	  201.00	  195.06	-1072.31	  118.43
     90.5984	  199.00	  193.04	-1072.29	  118.39
     90.6319	  172.00	  191.12	-1097.37	  118.36
     90.6653	  207.00	  189.30	-1060.55	  118.33
     90.6987	  182.00	  187.27	-1083.52	  118.29
     90.7321	  186.00	  185.66	-1077.91	  118.26
     90.7656	  178.00	  184.13	-1084.38	  118.23
     90.7990	  204.00	  182.68	-1056.93	  118.19
     90.8324	  184.00	  181.32	-1075.57	  118.16
     90.8658	  206.00	  180.57	-1052.82	  118.13
     90.8992	  160.00	  179.36	-1097.61	  118.09
     90.9327	  178.00	  178.21	-1078.46	  118.06
     90.9661	  206.00	  177.13	-1049.38	  118.03
     90.9995	  175.00	  176.10	-1079.35	  117.99
     91.0329	  189.00	  175.12	-1064.37	  117.94
     91.0664	  185.00	  174.18	-1067.43	  117.89
     91.0998	  196.00	  173.30	-1055.55	  117.84
     91.1332	  179.00	  172.46	-1071.71	  117.78
     91.1666	  168.00	  171.67	-1081.92	  117.73
     91.2001	  196.00	  170.91	-1053.16	  117.68
     91.2335	  195.00	  170.20	-1053.45	  117.63
     91.2669	  158.00	  169.52	-1089.77	  117.58
     91.3003	  182.00	  168.88	-1065.13	  117.53
     91.3337	  170.00	  168.27	-1076.52	  117.47
     91.3672	  149.00	  167.69	-1096.94	  117.42
     91.4006	  152.00	  167.13	-1093.38	  117.37
     91.4340	  186.00	  166.61	-1058.86	  117.32
     91.4674	  156.00	  166.11	-1088.36	  117.27
     91.5009	  157.00	  165.64	-1086.89	  117.22
     91.5343	  149.00	  165.19	-1094.44	  117.17
     91.5677	  165.00	  164.76	-1078.01	  117.11
     91.6011	  137.00	  164.35	-1105.60	  117.06
     91.6345	  163.00	  163.97	-1079.22	  117.01
     91.6680	  164.00	  163.60	-1077.85	  116.96
     91.7014	  200.00	  163.25	-1041.50	  116.91
     91.7348	  151.00	  162.92	-1090.17	  116.86
     91.7682	  158.00	  162.60	-1082.85	  116.80
     91.8017	  153.00	  162.30	-1087.55	  116.75
     91.8351	  170.00	  162.02	-1070.27	  116.70
     91.8685	  151.00	  161.75	-1089.00	  116.65
     91.9019	  144.00	  161.50	-1095.75	  116.60
     91.9353	  166.00	  161.26	-1073.51	  116.55
     91.9688	  172.00	  161.03	-1067.28	  116.49
     92.0022	  169.00	  160.82	-1070.07	  116.44
     92.0356	  151.00	  160.62	-1087.87	  116.39
     92.0690	  158.00	  160.43	-1080.68	  116.34
     92.1025	  143.00	  160.25	-1095.50	  116.29
     92.1359	  152.00	  160.09	-1086.34	  116.24
     92.1693	  146.00	  159.94	-1092.19	  116.19
     92.2027	  134.00	  159.80	-1104.05	  116.13
     92.2362	  128.00	  159.67	-1109.92	  116.08
     92.2696	  155.00	  159.55	-1082.80	  116.03
     92.3030	  154.00	  159.44	-1083.69	  115.98
     92.3364	  152.00	  159.35	-1085.60	  115.93
     92.3698	  155.00	  159.27	-1082.52	  115.88
     92.4033	  151.00	  159.19	-1086.44	  115.82
     92.4367	  160.00	  159.13	-1077.38	  115.77
     92.4701	  138.00	  159.08	-1099.33	  115.72
     92.5035	  181.00	  159.04	-1056.29	  115.67
     92.5369	  137.00	  159.02	-1100.27	  115.62
     92.5704	  164.00	  159.00	-1073.25	  115.57
     92.6038	  153.00	  159.00	-1084.25	  115.52
     92.6372	  166.00	  159.01	-1071.26	  115.46
     92.6706	  140.00	  159.03	-1097.28	  115.41
     92.7041	  156.00	  159.07	-1081.32	  115.36
     92.7375	  148.00	  159.12	-1089.37	  115.31
     92.7709	  152.00	  159.18	-1085.43	  115.26
     92.8043	  146.00	  159.26	-1091.51	  115.21
     92.8378	  165.00	  159.35	-1072.60	  115.15
     92.8712	  169.00	  159.46	-1068.71	  115.10
     92.9046	  159.00	  159.58	-1078.83	  115.05
     92.9380	  157.00	  159.72	-1080.97	  115.00
     92.9714	  159.00	  159.88	-1079.13	  114.95
     93.0049	  181.00	  160.05	-1057.30	  114.90
     93.0383	  133.00	  160.25	-1105.50	  114.84
     93.0717	  170.00	  160.46	-1068.71	  114.79
     93.1051	  147.00	  160.70	-1091.95	  114.74
     93.1386	  131.00	  160.96	-1108.21	  114.69
     93.1720	  166.00	  161.24	-1073.49	  114.64
     93.2054	  169.00	  161.54	-1070.79	  114.59
     93.2388	  163.00	  161.87	-1077.12	  114.54
     93.2722	  180.00	  162.23	-1060.48	  114.48
     93.3057	  148.00	  162.61	-1092.86	  114.43
     93.3391	  144.00	  163.03	-1097.28	  114.38
     93.3725	  154.00	  161.04	-1085.29	  114.33
     93.4059	  165.00	  161.57	-1074.82	  114.28
     93.4394	  174.00	  162.12	-1066.37	  114.23
     93.4728	  162.00	  162.71	-1078.96	  114.17
     93.5062	  138.00	  163.33	-1103.58	  114.12
     93.5396	  165.00	  163.99	-1077.24	  114.07
     93.5731	  180.00	  164.69	-1062.94	  114.02
     93.6065	  163.00	  165.42	-1080.67	  113.97
     93.6399	  150.00	  166.20	-1094.45	  113.92
     93.6733	  158.00	  165.82	-1086.07	  113.87
     93.7067	  160.00	  166.71	-1084.96	  113.81
     93.7402	  152.00	  167.63	-1093.88	  113.76
     93.7736	  179.00	  168.60	-1067.85	  113.71
     93.8070	  163.00	  169.61	-1084.86	  113.66
     93.8404	  182.00	  170.66	-1066.91	  113.61
     93.8739	  162.00	  171.74	-1087.99	  113.56
     93.9073	  141.00	  172.86	-1110.11	  113.50
     93.9407	  165.00	  174.00	-1087.25	  113.45
     93.9741	  172.00	  175.17	-1081.42	  113.40
     94.0075	  163.00	  176.35	-1091.60	  113.35
     94.0410	  175.00	  177.54	-1080.79	  113.30
     94.0744	  159.00	  178.72	-1097.97	  113.25
     94.1078	  157.00	  179.88	-1101.14	  113.20
     94.1412	  175.00	  181.02	-1084.27	  113.14
     94.1747	  186.00	  182.11	-1074.36	  113.09
     94.2081	  197.00	  183.14	-1064.39	  113.04
     94.2415	  173.00	  184.10	-1089.35	  112.99
     94.2749	  159.00	  184.97	-1104.22	  112.94
     94.3083	  171.00	  185.74	-1092.99	  112.89
     94.3418	  170.00	  186.39	-1094.64	  112.83
     94.3752	  181.00	  186.91	-1084.16	  112.78
     94.4086	  182.00	  187.30	-1083.55	  112.73
     94.4420	  147.00	  187.55	-1118.80	  112.68
     94.4755	  172.00	  187.65	-1093.90	  112.63
     94.5089	  170.00	  187.60	-1095.85	  112.58
     94.5423	  169.00	  187.40	-1096.65	  112.52
     94.5757	  182.00	  187.07	-1083.32	  112.47
     94.6091	  179.00	  186.59	-1085.84	  112.42
     94.6426	  142.00	  185.99	-1122.24	  112.37
     94.6760	  190.00	  185.27	-1073.52	  112.32
     94.7094	  180.00	  184.44	-1082.69	  112.27
     94.7428	  159.00	  183.51	-1102.76	  112.22
     94.7763	  165.00	  182.50	-1095.75	  112.16
     94.8097	  179.00	  181.42	-1080.67	  112.11
     94.8431	  165.00	  180.20	-1093.45	  111.98
     94.8765	  149.00	  178.94	-1108.19	  111.86
     94.9100	  186.00	  177.65	-1069.90	  111.73
     94.9434	  182.00	  176.33	-1072.58	  111.60
     94.9768	  167.00	  175.00	-1086.25	  111.48
     95.0102	  173.00	  173.67	-1078.92	  111.35
     95.0436	  157.00	  172.35	-1093.60	  111.23
     95.0771	  137.00	  171.05	-1112.30	  111.10
     95.1105	  124.00	  169.76	-1124.01	  110.97
     95.1439	  164.00	  168.50	-1082.75	  110.85
     95.1773	  167.00	  167.28	-1078.53	  110.72
     95.2108	  174.00	  166.09	-1070.34	  110.59
     95.2442	  152.00	  164.93	-1091.18	  110.47
     95.2776	  146.00	  163.82	-1096.07	  110.34
     95.3110	  159.00	  162.74	-1081.99	  110.21
     95.3444	  165.00	  161.71	-1074.96	  110.09
     95.3779	  159.00	  160.72	-1079.97	  109.96
     95.4113	  156.00	  159.76	-1082.01	  109.83
     95.4447	  166.00	  158.85	-1071.10	  109.71
     95.4781	  159.00	  157.97	-1077.22	  109.58
     95.5116	  151.00	  157.13	-1084.38	  109.45
     95.5450	  158.00	  156.32	-1076.57	  109.33
     95.5784	  136.00	  155.55	-1097.80	  109.20
     95.6118	  146.00	  154.81	-1087.06	  109.07
     95.6452	  156.00	  154.11	-1076.36	  108.95
     95.6787	  158.00	  153.43	-1073.68	  108.82
     95.7121	  155.00	  152.78	-1076.03	  108.69
     95.7455	  144.00	  152.16	-1086.41	  108.57
     95.7789	  158.00	  151.56	-1071.81	  108.44
     95.8124	  172.00	  150.99	-1057.24	  108.31
     95.8458	  160.00	  150.44	-1068.69	  108.19
     95.8792	  136.00	  149.91	-1092.16	  108.06
     95.9126	  142.00	  149.40	-1085.65	  107.93
     95.9461	  151.00	  148.92	-1076.17	  107.81
     95.9795	  120.00	  148.45	-1106.70	  107.68
     96.0129	  135.00	  147.99	-1091.24	  107.56
     96.0463	  143.00	  147.56	-1082.81	  107.43
     96.0797	  136.00	  147.13	-1089.38	  107.30
     96.1132	  149.00	  146.73	-1075.98	  107.18
     96.1466	  164.00	  146.33	-1060.58	  107.05
     96.1800	  146.00	  145.95	-1078.20	  106.92
     96.2134	  152.00	  145.58	-1071.83	  106.80
     96.2469	  127.00	  145.23	-1096.48	  106.67
     96.2803	  158.00	  144.88	-1065.13	  106.54
     96.3137	  139.00	  144.55	-1083.80	  106.42
     96.3471	  140.00	  144.22	-1082.47	  106.29
     96.3805	  146.00	  143.90	-1076.15	  106.16
     96.4140	  146.00	  143.60	-1075.85	  106.04
     96.4474	  165.00	  143.30	-1056.55	  105.91
     96.4808	  134.00	  143.01	-1087.26	  105.78
     96.5142	  123.00	  142.72	-1097.97	  105.66
     96.5477	  136.00	  142.44	-1084.69	  105.53
     96.5811	  144.00	  142.17	-1076.42	  105.40
     96.6145	  140.00	  141.91	-1080.16	  105.28
     96.6479	  148.00	  141.65	-1071.90	  105.15
     96.6814	  132.00	  141.40	-1087.65	  105.02
     96.7148	  134.00	  141.16	-1085.41	  104.90
     96.7482	  148.00	  140.92	-1071.17	  104.77
     96.7816	  131.00	  140.68	-1087.93	  104.64
     96.8150	  159.00	  140.45	-1059.70	  104.52
     96.8485	  149.00	  140.22	-1069.47	  104.39
     96.8819	  133.00	  140.00	-1085.25	  104.27
     96.9153	  135.00	  139.78	-1083.03	  104.14
     96.9487	  133.00	  139.57	-1084.82	  104.01
     96.9821	  139.00	  139.36	-1078.61	  103.89
     97.0156	  128.00	  139.15	-1089.40	  103.76
     97.0490	  118.00	  138.94	-1099.19	  103.63
     97.0824	  141.00	  138.74	-1075.99	  103.51
     97.1158	  151.00	  138.54	-1065.79	  103.38
     97.1493	  132.00	  138.35	-1084.60	  103.26
     97.1827	  153.00	  138.17	-1063.42	  103.15
     97.2161	  112.00	  138.00	-1104.25	  103.04
     97.2495	  127.00	  137.82	-1089.07	  102.94
     97.2830	  147.00	  137.65	-1068.90	  102.83
     97.3164	  136.00	  137.48	-1079.73	  102.72
     97.3498	  126.00	  137.31	-1089.56	  102.61
     97.3832	  130.00	  137.14	-1085.39	  102.51
     97.4166	  139.00	  136.98	-1076.23	  102.40
     97.4501	  133.00	  136.81	-1082.06	  102.29
     97.4835	  133.00	  136.64	-1081.89	  102.19
     97.5169	  138.00	  136.48	-1076.73	  102.08
     97.5503	  131.00	  136.32	-1083.57	  101.97
     97.5838	  121.00	  136.15	-1093.40	  101.86
     97.6172	  136.00	  135.99	-1078.24	  101.76
     97.6506	  147.00	  135.83	-1067.08	  101.65
     97.6840	  144.00	  135.67	-1069.92	  101.54
     97.7174	  118.00	  135.50	-1095.75	  101.44
     97.7509	  135.00	  135.34	-1078.59	  101.33
     97.7843	  131.00	  135.19	-1082.44	  101.22
     97.8177	  121.00	  135.03	-1092.28	  101.11
     97.8511	  123.00	  134.87	-1090.12	  101.01
     97.8846	  136.00	  134.71	-1076.96	  100.90
     97.9180	  138.00	  134.56	-1074.81	  100.79
     97.9514	  131.00	  134.41	-1081.66	  100.69
     97.9848	  130.00	  134.25	-1082.50	  100.58
     98.0182	  142.00	  134.10	-1070.35	  100.47
     98.0517	  150.00	  133.95	-1062.20	  100.37
     98.0851	  124.00	  133.80	-1088.05	  100.26
     98.1185	  141.00	  133.65	-1070.90	  100.15
     98.1519	  135.00	  133.83	-1077.08	  100.04
     98.1854	  144.00	  133.69	-1067.94	   99.94
     98.2188	  127.00	  133.55	-1084.80	   99.83
     98.2522	  130.00	  133.41	-1081.66	   99.72
     98.2856	  133.00	  133.28	-1078.53	   99.62
     98.3191	  137.00	  132.11	-1073.36	   99.51
     98.3525	  126.00	  131.99	-1084.24	   99.40
     98.3859	  153.00	  131.87	-1057.12	   99.29
     98.4193	  133.00	  131.76	-1077.01	   99.19
     98.4527	  125.00	  131.64	-1084.89	   99.08
     98.4862	  126.00	  131.69	-1083.94	   98.97
     98.5196	  127.00	  131.58	-1082.83	   98.87
     98.5530	  147.00	  131.46	-1062.71	   98.76
     98.5864	  137.00	  131.35	-1072.60	   98.65
     98.6199	  135.00	  131.24	-1074.49	   98.54
     98.6533	  126.00	  130.62	-1082.87	   98.44
     98.6867	  118.00	  130.52	-1090.77	   98.33
     98.7201	  152.00	  130.42	-1056.67	   98.22
     98.7535	  117.00	  130.32	-1091.57	   98.12
     98.7870	  132.00	  130.22	-1076.47	   98.01
     98.8204	  136.00	  130.13	-1072.38	   97.90
     98.8538	  114.00	  130.03	-1094.28	   97.80
     98.8872	  149.00	  129.93	-1059.18	   97.69
     98.9207	  134.00	  129.83	-1074.08	   97.58
     98.9541	  131.00	  129.74	-1076.99	   97.47
     98.9875	  122.00	  129.64	-1085.89	   97.37
     99.0209	  144.00	  129.54	-1063.79	   97.26
     99.0543	  106.00	  129.45	-1101.70	   97.15
     99.0878	  136.00	  129.35	-1071.60	   97.05
     99.1212	  101.00	  129.26	-1106.51	   96.94
     99.1546	  128.00	  129.17	-1079.42	   96.83
     99.1880	  118.00	  129.07	-1089.32	   96.72
     99.2215	  104.00	  128.98	-1103.23	   96.62
     99.2549	  141.00	  128.89	-1066.14	   96.51
     99.2883	  132.00	  128.80	-1075.05	   96.40
     99.3217	  117.00	  128.71	-1089.96	   96.30
     99.3551	  115.00	  128.62	-1091.87	   96.19
     99.3886	  119.00	  128.53	-1087.78	   96.08
     99.4220	  132.00	  128.44	-1074.69	   95.97
     99.4554	  137.00	  128.35	-1069.60	   95.87
     99.4888	  143.00	  128.26	-1063.51	   95.76
     99.5223	  117.00	  128.18	-1089.43	   95.65
     99.5557	  102.00	  128.09	-1104.34	   95.55
     99.5891	  142.00	  128.01	-1064.26	   95.44
     99.6225	  133.00	  127.92	-1073.17	   95.33
     99.6560	  125.00	  127.84	-1081.09	   95.23
     99.6894	  121.00	  127.76	-1085.01	   95.12
     99.7228	  149.00	  127.67	-1056.92	   95.01
     99.7562	  130.00	  127.59	-1075.84	   94.90
     99.7896	  121.00	  127.51	-1084.76	   94.80
     99.8231	  147.00	  127.44	-1058.69	   94.69
     99.8565	  124.00	  127.36	-1081.61	   94.58
     99.8899	  116.00	  127.28	-1089.53	   94.48
     99.9233	  117.00	  127.28	-1088.53	   94.44
     99.9568	  148.00	  127.31	-1057.56	   94.44
     99.9902	  122.00	  129.04	-1085.29	   94.44
     18.2912	        	        	        	        	       0	(  1  1  1)	  0  1
     18.3365	        	        	        	        	       0	(  1  1  1)	  0  2
     30.0795	        	        	        	        	       0	(  2  2  0)	  0  1
     30.1552	        	        	        	        	       0	(  2  2  0)	  0  2
     35.4273	        	        	        	        	       0	(  3  1  1)	  0  1
     35.5173	        	        	        	        	       0	(  3  1  1)	  0  2
     37.0579	        	        	        	        	       0	(  2  2  2)	  0  1
     37.1524	        	        	        	        	       0	(  2  2  2)	  0  2
     43.0526	        	        	        	        	       0	(  4  0  0)	  0  1
     43.1638	        	        	        	        	       0	(  4  0  0)	  0  2
     47.1365	        	        	        	        	       0	(  3  3  1)	  0  1
     47.2595	        	        	        	        	       0	(  3  3  1)	  0  2
     53.4063	        	        	        	        	       0	(  4  2  2)	  0  1
     53.5481	        	        	        	        	       0	(  4  2  2)	  0  2
     56.9297	        	        	        	        	       0	(  3  3  3)	  0  1
     56.9297	        	        	        	        	       0	(  5  1  1)	  0  1
     57.0826	        	        	        	        	       0	(  3  3  3)	  0  2
     57.0826	        	        	        	        	       0	(  5  1  1)	  0  2
     62.5126	        	        	        	        	       0	(  4  4  0)	  0  1
     62.6837	        	        	        	        	       0	(  4  4  0)	  0  2
     65.7269	        	        	        	        	       0	(  5  3  1)	  0  1
     65.9090	        	        	        	        	       0	(  5  3  1)	  0  2
     66.7799	        	        	        	        	       0	(  4  4  2)	  0  1
     66.9657	        	        	        	        	       0	(  4  4  2)	  0  2
     70.9146	        	        	        	        	       0	(  6  2  0)	  0  1
     71.1154	        	        	        	        	       0	(  6  2  0)	  0  2
     73.9479	        	        	        	        	       0	(  5  3  3)	  0  1
     74.1602	        	        	        	        	       0	(  5  3  3)	  0  2
     74.9483	        	        	        	        	       0	(  6  2  2)	  0  1
     75.1645	        	        	        	        	       0	(  6  2  2)	  0  2
     78.9068	        	        	        	        	       0	(  4  4  4)	  0  1
     79.1390	        	        	        	        	       0	(  4  4  4)	  0  2
     81.8398	        	        	        	        	       0	(  5  5  1)	  0  1
     81.8398	        	        	        	        	       0	(  7  1  1)	  0  1
     82.0843	        	        	        	        	       0	(  5  5  1)	  0  2
     82.0843	        	        	        	        	       0	(  7  1  1)	  0  2
     86.6843	        	        	        	        	       0	(  6  4  2)	  0  1
     86.9506	        	        	        	        	       0	(  6  4  2)	  0  2
     89.5775	        	        	        	        	       0	(  5  5  3)	  0  1
     89.5775	        	        	        	        	       0	(  7  3  1)	  0  1
     89.8576	        	        	        	        	       0	(  5  5  3)	  0  2
     89.8576	        	        	        	        	       0	(  7  3  1)	  0  2
     94.4005	        	        	        	        	       0	(  8  0  0)	  0  1
     94.7053	        	        	        	        	       0	(  8  0  0)	  0  2
     97.3072	        	        	        	        	       0	(  7  3  3)	  0  1
     97.6280	        	        	        	        	       0	(  7  3  3)	  0  2
     98.2799	        	        	        	        	       0	(  6  4  4)	  0  1
     98.6063	        	        	        	        	       0	(  6  4  4)	  0  2
    102.1980	        	        	        	        	       0	(  6  6  0)	  0  1
    102.1980	        	        	        	        	       0	(  8  2  2)	  0  1
    102.5479	        	        	        	        	       0	(  6  6  0)	  0  2
    102.5479	        	        	        	        	       0	(  8  2  2)	  0  2
    105.1739	        	        	        	        	       0	(  5  5  5)	  0  1
    105.1739	        	        	        	        	       0	(  7  5  1)	  0  1
    105.5432	        	        	        	        	       0	(  5  5  5)	  0  2
    105.5432	        	        	        	        	       0	(  7  5  1)	  0  2
    106.1749	        	        	        	        	       0	(  6  6  2)	  0  1
    106.5509	        	        	        	        	       0	(  6  6  2)	  0  2
    110.2337	        	        	        	        	       0	(  8  4  0)	  0  1
    110.6390	        	        	        	        	       0	(  8  4  0)	  0  2
