 Fe3O4   Chi2:  1.5992  CELL:    8.39777   8.39777   8.39777   90.0000   90.0000   90.0000   SPGR: 227:1                  TEMP:      0.00
  1   3142     1.54060     1.54439     0.00000    -0.02278     0.00000    0
    90     0     1
       0.00000      15.00000
 2Theta	Yobs	Ycal	Yobs-Ycal	Backg	Posr	(hkl)	K
     15.0031	  121.00	  136.67	 -368.92	  133.94
     15.0365	  158.00	  136.67	 -331.92	  133.94
     15.0700	  129.00	  136.67	 -360.92	  133.94
     15.1034	  157.00	  136.87	 -333.12	  134.13
     15.1368	  133.00	  136.37	 -356.62	  133.63
     15.1702	  156.00	  135.87	 -333.12	  133.12
     15.2036	  165.00	  135.37	 -323.62	  132.62
     15.2371	  145.00	  134.87	 -343.12	  132.12
     15.2705	  125.00	  134.37	 -362.62	  131.61
     15.3039	  171.00	  133.87	 -316.12	  131.11
     15.3373	  130.00	  133.36	 -356.61	  130.60
     15.3708	  129.00	  132.86	 -357.11	  130.10
     15.4042	  152.00	  132.36	 -333.61	  129.60
     15.4376	  151.00	  131.86	 -334.11	  129.09
     15.4710	  155.00	  131.37	 -329.62	  128.59
     15.5044	  130.00	  130.87	 -354.12	  128.08
     15.5379	  137.00	  130.37	 -346.62	  127.58
     15.5713	  140.00	  129.87	 -343.12	  127.08
     15.6047	  115.00	  129.37	 -367.62	  126.57
     15.6381	  143.00	  128.87	 -339.12	  126.07
     15.6716	  157.00	  128.37	 -324.62	  125.56
     15.7050	  149.00	  127.87	 -332.12	  125.06
     15.7384	  141.00	  127.37	 -339.62	  124.56
     15.7718	  136.00	  126.88	 -344.13	  124.05
     15.8053	  130.00	  126.38	 -349.63	  123.55
     15.8387	  139.00	  125.88	 -340.13	  123.04
     15.8721	  144.00	  125.38	 -334.63	  122.54
     15.9055	  144.00	  124.89	 -334.14	  122.04
     15.9389	  130.00	  124.39	 -347.64	  121.53
     15.9724	  128.00	  123.89	 -349.14	  121.03
     16.0058	  124.00	  123.40	 -352.65	  120.52
     16.0392	  119.00	  122.90	 -357.15	  120.02
     16.0726	  108.00	  122.41	 -367.66	  119.52
     16.1061	  137.00	  121.91	 -338.16	  119.01
     16.1395	  131.00	  121.42	 -343.67	  118.51
     16.1729	  118.00	  120.92	 -356.17	  118.00
     16.2063	  141.00	  120.43	 -332.68	  117.50
     16.2397	  129.00	  119.94	 -344.19	  117.00
     16.2732	  126.00	  119.44	 -346.69	  116.49
     16.3066	  118.00	  118.95	 -354.20	  115.99
     16.3400	  108.00	  118.46	 -363.71	  115.48
     16.3734	  115.00	  117.97	 -356.22	  114.98
     16.4069	  142.00	  117.48	 -328.73	  114.48
     16.4403	  132.00	  116.99	 -338.24	  113.97
     16.4737	  122.00	  116.50	 -347.75	  113.47
     16.5071	   94.00	  116.02	 -375.27	  112.96
     16.5405	  129.00	  115.53	 -339.78	  112.46
     16.5740	  140.00	  115.04	 -328.29	  111.96
     16.6074	  143.00	  114.56	 -324.81	  111.45
     16.6408	  121.00	  114.08	 -346.33	  110.95
     16.6742	  132.00	  113.60	 -334.85	  110.44
     16.7077	  124.00	  113.12	 -342.37	  109.94
     16.7411	  116.00	  112.67	 -349.92	  109.47
     16.7745	  103.00	  112.31	 -362.56	  109.08
     16.8079	  106.00	  111.95	 -359.20	  108.69
     16.8414	  114.00	  111.59	 -350.84	  108.30
     16.8748	  127.00	  111.23	 -337.48	  107.91
     16.9082	  126.00	  110.88	 -338.13	  107.52
     16.9416	  100.00	  110.53	 -363.78	  107.13
     16.9750	  116.00	  110.18	 -347.43	  106.74
     17.0085	  139.00	  109.83	 -324.08	  106.35
     17.0419	  121.00	  109.49	 -341.74	  105.96
     17.0753	  103.00	  109.16	 -359.41	  105.57
     17.1087	  105.00	  108.82	 -357.07	  105.19
     17.1422	  121.00	  108.50	 -340.75	  104.80
     17.1756	  112.00	  108.17	 -349.42	  104.41
     17.2090	  115.00	  107.86	 -346.11	  104.02
     17.2424	  122.00	  107.55	 -338.80	  103.63
     17.2758	  119.00	  107.25	 -341.50	  103.24
     17.3093	  110.00	  106.96	 -350.21	  102.85
     17.3427	  110.00	  106.68	 -349.93	  102.46
     17.3761	  111.00	  106.41	 -348.66	  102.07
     17.4095	  103.00	  106.16	 -356.41	  101.68
     17.4430	   87.00	  105.92	 -372.17	  101.29
     17.4764	  119.00	  105.70	 -339.95	  100.90
     17.5098	  141.00	  105.50	 -317.75	  100.51
     17.5432	  119.00	  105.33	 -339.58	  100.12
     17.5766	  111.00	  105.19	 -347.44	   99.73
     17.6101	   95.00	  105.09	 -363.34	   99.34
     17.6435	  119.00	  105.04	 -339.29	   98.95
     17.6769	  116.00	  105.04	 -342.29	   98.56
     17.7103	  105.00	  105.10	 -353.35	   98.18
     17.7438	  109.00	  105.26	 -349.51	   97.79
     17.7772	  108.00	  105.51	 -350.76	   97.40
     17.8106	  125.00	  105.91	 -334.16	   97.01
     17.8440	  103.00	  106.48	 -356.73	   96.62
     17.8774	   92.00	  107.28	 -368.53	   96.23
     17.9109	  100.00	  108.41	 -361.66	   95.84
     17.9443	  103.00	  109.99	 -360.24	   95.45
     17.9777	  122.00	  112.27	 -343.52	   95.06
     18.0111	   97.00	  115.69	 -371.94	   94.67
     18.0446	  116.00	  120.96	 -358.21	   94.28
     18.0780	  109.00	  129.22	 -373.47	   93.89
     18.1114	  125.00	  141.97	 -370.22	   93.50
     18.1448	  131.00	  160.74	 -382.99	   93.11
     18.1783	  158.00	  186.26	 -381.51	   92.72
     18.2117	  158.00	  216.29	 -411.54	   92.33
     18.2451	  149.00	  242.21	 -446.46	   91.94
     18.2785	  192.00	  250.79	 -412.04	   91.56
     18.3119	  198.00	  237.12	 -392.37	   91.17
     18.3454	  179.00	  209.37	 -383.62	   90.78
     18.3788	  167.00	  179.40	 -365.65	   90.39
     18.4122	  129.00	  154.31	 -378.56	   90.00
     18.4456	  113.00	  135.83	 -376.08	   89.61
     18.4791	  106.00	  123.09	 -370.34	   89.22
     18.5125	  106.00	  114.57	 -361.82	   88.83
     18.5459	  108.00	  108.84	 -354.09	   88.44
     18.5793	  109.00	  104.83	 -349.08	   88.05
     18.6127	  100.00	  101.88	 -355.13	   87.66
     18.6462	  105.00	   99.60	 -347.85	   87.27
     18.6796	   91.00	   97.74	 -359.99	   86.88
     18.7130	  100.00	   96.20	 -349.45	   86.49
     18.7464	   89.00	   94.88	 -359.13	   86.10
     18.7799	   92.00	   93.77	 -355.02	   85.76
     18.8133	   91.00	   92.88	 -355.13	   85.50
     18.8467	   94.00	   92.09	 -351.34	   85.23
     18.8801	  105.00	   91.38	 -339.63	   84.97
     18.9135	  100.00	   90.74	 -343.99	   84.71
     18.9470	   96.00	   90.15	 -347.40	   84.45
     18.9804	  103.00	   89.61	 -339.86	   84.18
     19.0138	   83.00	   89.10	 -359.35	   83.92
     19.0472	   85.00	   88.62	 -356.87	   83.66
     19.0807	   81.00	   88.17	 -360.42	   83.40
     19.1141	   86.00	   87.74	 -354.99	   83.14
     19.1475	  106.00	   87.33	 -334.58	   82.87
     19.1809	   92.00	   86.93	 -348.18	   82.61
     19.2144	   83.00	   86.55	 -356.80	   82.35
     19.2478	   77.00	   86.18	 -362.43	   82.09
     19.2812	   72.00	   85.82	 -367.07	   81.82
     19.3146	   77.00	   85.47	 -361.72	   81.56
     19.3480	   90.00	   85.13	 -348.38	   81.30
     19.3815	   81.00	   84.79	 -357.04	   81.04
     19.4149	   91.00	   84.47	 -346.72	   80.78
     19.4483	  103.00	   84.14	 -334.39	   80.51
     19.4817	   76.00	   83.82	 -361.07	   80.25
     19.5152	   82.00	   83.51	 -354.76	   79.99
     19.5486	   87.00	   83.20	 -349.45	   79.73
     19.5820	   86.00	   82.89	 -350.14	   79.46
     19.6154	   89.00	   82.59	 -346.84	   79.20
     19.6488	   83.00	   82.29	 -352.54	   78.94
     19.6823	   70.00	   81.99	 -365.24	   78.68
     19.7157	   74.00	   81.70	 -360.95	   78.42
     19.7491	   70.00	   81.41	 -364.66	   78.15
     19.7825	   74.00	   81.11	 -360.36	   77.89
     19.8160	   94.00	   80.83	 -340.08	   77.63
     19.8494	   75.00	   80.54	 -358.79	   77.37
     19.8828	   96.00	   80.25	 -337.50	   77.10
     19.9162	   97.00	   79.97	 -336.22	   76.84
     19.9496	   97.00	   79.68	 -335.93	   76.58
     19.9831	   83.00	   79.40	 -349.65	   76.32
     20.0165	   84.00	   79.12	 -348.37	   76.05
     20.0499	   78.00	   78.84	 -354.09	   75.79
     20.0833	   79.00	   78.56	 -352.81	   75.53
     20.1168	   77.00	   78.29	 -354.54	   75.27
     20.1502	   70.00	   78.01	 -361.26	   75.01
     20.1836	   76.00	   77.73	 -354.98	   74.74
     20.2170	   76.00	   77.46	 -354.71	   74.48
     20.2505	   92.00	   77.18	 -338.43	   74.22
     20.2839	   81.00	   76.91	 -349.16	   73.96
     20.3173	   65.00	   76.63	 -364.88	   73.69
     20.3507	   87.00	   76.36	 -342.61	   73.43
     20.3841	   88.00	   76.09	 -341.34	   73.17
     20.4176	   72.00	   75.82	 -357.07	   72.91
     20.4510	   70.00	   75.54	 -358.79	   72.65
     20.4844	   95.00	   75.27	 -333.52	   72.38
     20.5178	   78.00	   75.00	 -350.25	   72.12
     20.5513	   70.00	   74.73	 -357.98	   71.86
     20.5847	   78.00	   74.46	 -349.71	   71.60
     20.6181	   75.00	   74.19	 -352.44	   71.33
     20.6515	   90.00	   73.92	 -337.17	   71.07
     20.6849	   79.00	   73.65	 -347.90	   70.81
     20.7184	   74.00	   73.38	 -352.63	   70.55
     20.7518	   82.00	   73.11	 -344.36	   70.29
     20.7852	   66.00	   72.85	 -360.10	   70.02
     20.8186	   74.00	   72.58	 -351.83	   69.76
     20.8521	   68.00	   72.31	 -357.56	   69.50
     20.8855	   76.00	   72.04	 -349.29	   69.24
     20.9189	   81.00	   71.77	 -344.02	   68.97
     20.9523	   52.00	   71.51	 -372.76	   68.71
     20.9857	   59.00	   71.24	 -365.49	   68.45
     21.0192	   79.00	   70.97	 -345.22	   68.19
     21.0526	   91.00	   70.71	 -332.96	   67.93
     21.0860	   72.00	   70.44	 -351.69	   67.66
     21.1194	   81.00	   70.17	 -342.42	   67.40
     21.1529	   74.00	   69.91	 -349.16	   67.14
     21.1863	   66.00	   69.72	 -356.97	   66.95
     21.2197	   69.00	   69.54	 -353.79	   66.78
     21.2531	   77.00	   69.36	 -345.61	   66.60
     21.2865	   68.00	   69.18	 -354.43	   66.42
     21.3200	   84.00	   69.00	 -338.25	   66.25
     21.3534	   74.00	   68.82	 -348.07	   66.07
     21.3868	   66.00	   68.64	 -355.89	   65.89
     21.4202	   63.00	   68.45	 -358.70	   65.71
     21.4537	   61.00	   68.27	 -360.52	   65.54
     21.4871	   84.00	   68.09	 -337.34	   65.36
     21.5205	   64.00	   67.91	 -357.16	   65.18
     21.5539	   81.00	   67.74	 -339.99	   65.01
     21.5874	   78.00	   67.56	 -342.81	   64.83
     21.6208	   66.00	   67.38	 -354.63	   64.65
     21.6542	   77.00	   67.07	 -343.32	   64.47
     21.6876	   74.00	   66.89	 -346.14	   64.30
     21.7210	   81.00	   66.72	 -338.97	   64.12
     21.7545	   81.00	   66.54	 -338.79	   63.94
     21.7879	   74.00	   66.36	 -345.61	   63.77
     21.8213	   78.00	   66.19	 -341.44	   63.59
     21.8547	   65.00	   66.01	 -354.26	   63.41
     21.8882	   59.00	   65.83	 -360.08	   63.24
     21.9216	   82.00	   65.65	 -336.90	   63.06
     21.9550	   69.00	   65.48	 -349.73	   62.88
     21.9884	   75.00	   65.30	 -343.55	   62.70
     22.0218	   58.00	   65.12	 -360.37	   62.53
     22.0553	   73.00	   64.95	 -345.20	   62.35
     22.0887	   58.00	   64.77	 -360.02	   62.17
     22.1221	   74.00	   64.59	 -343.84	   62.00
     22.1555	   72.00	   64.41	 -345.66	   61.82
     22.1890	   72.00	   64.24	 -345.49	   61.64
     22.2224	   76.00	   64.06	 -341.31	   61.46
     22.2558	   75.00	   63.88	 -342.13	   61.29
     22.2892	   59.00	   63.71	 -357.96	   61.11
     22.3226	   61.00	   63.53	 -355.78	   60.93
     22.3561	   59.00	   63.35	 -357.60	   60.76
     22.3895	   58.00	   63.18	 -358.43	   60.58
     22.4229	   63.00	   63.00	 -353.25	   60.40
     22.4563	   74.00	   62.82	 -342.07	   60.23
     22.4898	   65.00	   62.64	 -350.89	   60.05
     22.5232	   60.00	   62.47	 -355.72	   59.87
     22.5566	   52.00	   62.29	 -363.54	   59.69
     22.5900	   71.00	   62.11	 -344.36	   59.52
     22.6234	   52.00	   61.94	 -363.19	   59.34
     22.6569	   65.00	   61.76	 -350.01	   59.16
     22.6903	   75.00	   61.58	 -339.83	   58.99
     22.7237	   38.00	   61.40	 -376.65	   58.81
     22.7571	   65.00	   61.23	 -349.48	   58.63
     22.7906	   55.00	   61.05	 -359.30	   58.45
     22.8240	   58.00	   60.87	 -356.12	   58.28
     22.8574	   57.00	   60.70	 -356.95	   58.10
     22.8908	   68.00	   60.52	 -345.77	   57.92
     22.9243	   60.00	   60.34	 -353.59	   57.75
     22.9577	   63.00	   60.17	 -350.42	   57.57
     22.9911	   66.00	   59.99	 -347.24	   57.39
     23.0245	   52.00	   59.81	 -361.06	   57.22
     23.0579	   57.00	   59.63	 -355.88	   57.04
     23.0914	   62.00	   59.46	 -350.71	   56.86
     23.1248	   65.00	   59.28	 -347.53	   56.68
     23.1582	   65.00	   59.10	 -347.35	   56.51
     23.1916	   65.00	   58.93	 -347.18	   56.33
     23.2251	   59.00	   58.75	 -353.00	   56.15
     23.2585	   61.00	   58.57	 -350.82	   55.98
     23.2919	   70.00	   58.39	 -341.64	   55.80
     23.3253	   57.00	   58.22	 -354.47	   55.62
     23.3587	   52.00	   58.04	 -359.29	   55.44
     23.3922	   69.00	   57.86	 -342.11	   55.27
     23.4256	   55.00	   57.69	 -355.94	   55.09
     23.4590	   62.00	   57.51	 -348.76	   54.91
     23.4924	   64.00	   57.33	 -346.58	   54.74
     23.5259	   68.00	   57.16	 -342.41	   54.56
     23.5593	   61.00	   56.98	 -349.23	   54.38
     23.5927	   52.00	   56.80	 -358.05	   54.21
     23.6261	   74.00	   56.62	 -335.87	   54.03
     23.6595	   64.00	   56.45	 -345.70	   53.85
     23.6930	   47.00	   56.27	 -362.52	   53.67
     23.7264	   64.00	   56.09	 -345.34	   53.50
     23.7598	   48.00	   55.92	 -361.17	   53.32
     23.7932	   63.00	   55.74	 -345.99	   53.14
     23.8267	   72.00	   55.56	 -336.81	   52.97
     23.8601	   65.00	   55.38	 -343.63	   52.79
     23.8935	   50.00	   55.21	 -358.46	   52.61
     23.9269	   62.00	   55.03	 -346.28	   52.43
     23.9604	   65.00	   54.85	 -343.10	   52.26
     23.9938	   48.00	   54.68	 -359.93	   52.08
     24.0272	   59.00	   54.50	 -348.75	   51.90
     24.0606	   72.00	   54.32	 -335.57	   51.73
     24.0940	   72.00	   54.15	 -335.40	   51.55
     24.1275	   59.00	   53.97	 -348.22	   51.37
     24.1609	   47.00	   53.79	 -360.04	   51.20
     24.1943	   55.00	   53.61	 -351.86	   51.02
     24.2277	   57.00	   53.44	 -349.69	   50.84
     24.2612	   52.00	   53.26	 -354.51	   50.66
     24.2946	   58.00	   53.08	 -348.33	   50.49
     24.3280	   64.00	   52.91	 -342.16	   50.31
     24.3614	   37.00	   52.73	 -368.98	   50.13
     24.3948	   69.00	   52.55	 -336.80	   49.96
     24.4283	   45.00	   52.37	 -360.62	   49.78
     24.4617	   44.00	   52.21	 -361.46	   49.62
     24.4951	   78.00	   52.14	 -327.39	   49.54
     24.5285	   49.00	   52.06	 -356.31	   49.47
     24.5620	   56.00	   51.99	 -349.24	   49.39
     24.5954	   47.00	   51.92	 -358.17	   49.32
     24.6288	   55.00	   51.84	 -350.09	   49.25
     24.6622	   58.00	   51.77	 -347.02	   49.17
     24.6956	   57.00	   51.69	 -347.94	   49.10
     24.7291	   63.00	   51.62	 -341.87	   49.02
     24.7625	   59.00	   51.54	 -345.79	   48.95
     24.7959	   56.00	   51.47	 -348.72	   48.87
     24.8293	   51.00	   51.40	 -353.65	   48.80
     24.8628	   44.00	   51.32	 -360.57	   48.73
     24.8962	   36.00	   51.25	 -368.50	   48.65
     24.9296	   41.00	   51.17	 -363.42	   48.58
     24.9630	   58.00	   51.10	 -346.35	   48.50
     24.9964	   49.00	   51.02	 -355.27	   48.43
     25.0299	   46.00	   50.95	 -358.20	   48.35
     25.0633	   49.00	   50.88	 -355.13	   48.28
     25.0967	   50.00	   50.80	 -354.05	   48.21
     25.1301	   59.00	   50.73	 -344.98	   48.13
     25.1636	   57.00	   50.65	 -346.90	   48.06
     25.1970	   48.00	   50.58	 -355.83	   47.98
     25.2304	   48.00	   50.50	 -355.75	   47.91
     25.2638	   44.00	   50.43	 -359.68	   47.83
     25.2973	   56.00	   50.36	 -347.61	   47.76
     25.3307	   48.00	   50.28	 -355.53	   47.69
     25.3641	   50.00	   50.21	 -353.46	   47.61
     25.3975	   51.00	   50.13	 -352.38	   47.54
     25.4309	   39.00	   50.06	 -364.31	   47.46
     25.4644	   56.00	   49.98	 -347.23	   47.39
     25.4978	   60.00	   49.91	 -343.16	   47.31
     25.5312	   57.00	   49.84	 -346.09	   47.24
     25.5646	   66.00	   49.76	 -337.01	   47.17
     25.5981	   37.00	   49.69	 -365.94	   47.09
     25.6315	   48.00	   49.61	 -354.86	   47.02
     25.6649	   50.00	   49.54	 -352.79	   46.94
     25.6983	   48.00	   49.46	 -354.71	   46.87
     25.7317	   52.00	   49.39	 -350.64	   46.79
     25.7652	   57.00	   49.32	 -345.57	   46.72
     25.7986	   43.00	   49.24	 -359.49	   46.65
     25.8320	   51.00	   49.17	 -351.42	   46.57
     25.8654	   60.00	   49.09	 -342.34	   46.50
     25.8989	   48.00	   49.02	 -354.27	   46.42
     25.9323	   56.00	   48.94	 -346.19	   46.35
     25.9657	   57.00	   48.87	 -345.12	   46.27
     25.9991	   51.00	   48.80	 -351.05	   46.20
     26.0325	   51.00	   48.72	 -350.97	   46.13
     26.0660	   50.00	   48.65	 -351.90	   46.05
     26.0994	   51.00	   48.57	 -350.82	   45.98
     26.1328	   52.00	   48.50	 -349.75	   45.90
     26.1662	   34.00	   48.42	 -367.67	   45.83
     26.1997	   65.00	   48.35	 -336.60	   45.75
     26.2331	   46.00	   48.28	 -355.53	   45.68
     26.2665	   42.00	   48.20	 -359.45	   45.61
     26.2999	   47.00	   48.13	 -354.38	   45.53
     26.3334	   55.00	   48.05	 -346.30	   45.46
     26.3668	   44.00	   47.98	 -357.23	   45.38
     26.4002	   50.00	   47.90	 -351.15	   45.31
     26.4336	   46.00	   47.83	 -355.08	   45.23
     26.4670	   46.00	   47.76	 -355.01	   45.16
     26.5005	   51.00	   47.68	 -349.93	   45.09
     26.5339	   42.00	   47.61	 -358.86	   45.01
     26.5673	   48.00	   47.53	 -352.78	   44.94
     26.6007	   28.00	   47.46	 -372.71	   44.86
     26.6342	   38.00	   47.38	 -362.63	   44.79
     26.6676	   46.00	   47.31	 -354.56	   44.71
     26.7010	   51.00	   47.60	 -349.85	   44.64
     26.7344	   44.00	   47.53	 -356.78	   44.56
     26.7678	   61.00	   47.46	 -339.71	   44.49
     26.8013	   58.00	   47.58	 -342.83	   44.42
     26.8347	   37.00	   47.52	 -363.77	   44.34
     26.8681	   52.00	   47.46	 -348.71	   44.27
     26.9015	   57.00	   47.40	 -343.65	   44.19
     26.9350	   46.00	   47.33	 -354.58	   44.12
     26.9684	   47.00	   47.27	 -353.52	   44.04
     27.0018	   50.00	   47.21	 -350.46	   43.97
     27.0352	   48.00	   47.15	 -352.40	   43.90
     27.0686	   52.00	   47.09	 -348.34	   43.82
     27.1021	   43.00	   47.03	 -357.28	   43.75
     27.1355	   43.00	   46.98	 -357.23	   43.67
     27.1689	   42.00	   46.92	 -358.17	   43.60
     27.2023	   41.00	   46.86	 -359.11	   43.52
     27.2358	   46.00	   46.80	 -354.05	   43.45
     27.2692	   60.00	   46.75	 -340.00	   43.38
     27.3026	   37.00	   46.69	 -362.94	   43.30
     27.3360	   41.00	   46.64	 -358.89	   43.23
     27.3694	   47.00	   46.58	 -352.83	   43.15
     27.4029	   47.00	   46.53	 -352.78	   43.08
     27.4363	   51.00	   46.48	 -348.73	   43.00
     27.4697	   44.00	   46.42	 -355.67	   42.93
     27.5031	   54.00	   46.37	 -345.62	   42.86
     27.5366	   54.00	   46.32	 -345.57	   42.78
     27.5700	   38.00	   46.26	 -361.51	   42.69
     27.6034	   38.00	   46.20	 -361.45	   42.60
     27.6368	   56.00	   46.13	 -343.38	   42.51
     27.6703	   44.00	   46.07	 -355.32	   42.42
     27.7037	   56.00	   46.00	 -343.25	   42.32
     27.7371	   43.00	   45.94	 -356.19	   42.23
     27.7705	   34.00	   45.88	 -365.13	   42.14
     27.8039	   33.00	   45.82	 -366.07	   42.04
     27.8374	   43.00	   45.76	 -356.01	   41.95
     27.8708	   48.00	   45.71	 -350.96	   41.86
     27.9042	   46.00	   45.65	 -352.90	   41.77
     27.9376	   70.00	   45.60	 -328.85	   41.67
     27.9711	   29.00	   45.55	 -369.80	   41.58
     28.0045	   49.00	   45.50	 -349.75	   41.49
     28.0379	   59.00	   45.46	 -339.71	   41.39
     28.0713	   36.00	   45.41	 -362.66	   41.30
     28.1047	   45.00	   45.37	 -353.62	   41.21
     28.1382	   44.00	   45.33	 -354.58	   41.12
     28.1716	   35.00	   45.30	 -363.55	   41.02
     28.2050	   56.00	   45.27	 -342.52	   40.93
     28.2384	   36.00	   45.24	 -362.49	   40.84
     28.2719	   37.00	   45.21	 -361.46	   40.74
     28.3053	   44.00	   45.19	 -354.44	   40.65
     28.3387	   45.00	   45.17	 -353.42	   40.56
     28.3721	   47.00	   45.16	 -351.41	   40.47
     28.4055	   41.00	   45.15	 -357.40	   40.37
     28.4390	   51.00	   45.14	 -347.39	   40.28
     28.4724	   45.00	   45.15	 -353.40	   40.19
     28.5058	   44.00	   45.16	 -354.41	   40.09
     28.5392	   51.00	   45.17	 -347.42	   40.00
     28.5727	   46.00	   45.19	 -352.44	   39.91
     28.6061	   55.00	   45.22	 -343.47	   39.82
     28.6395	   43.00	   45.26	 -355.51	   39.72
     28.6729	   47.00	   45.31	 -351.56	   39.63
     28.7064	   39.00	   45.37	 -359.62	   39.54
     28.7398	   41.00	   45.44	 -357.69	   39.44
     28.7732	   41.00	   45.52	 -357.77	   39.35
     28.8066	   49.00	   45.61	 -349.86	   39.26
     28.8400	   45.00	   45.72	 -353.97	   39.17
     28.8735	   42.00	   45.85	 -357.10	   39.07
     28.9069	   49.00	   46.00	 -350.25	   38.98
     28.9403	   56.00	   46.17	 -343.42	   38.89
     28.9737	   61.00	   46.36	 -338.61	   38.79
     29.0072	   54.00	   46.58	 -345.83	   38.70
     29.0406	   51.00	   46.83	 -349.08	   38.61
     29.0740	   66.00	   47.11	 -334.36	   38.51
     29.1074	   45.00	   47.43	 -355.68	   38.42
     29.1408	   60.00	   47.80	 -341.05	   38.33
     29.1743	   58.00	   48.21	 -343.46	   38.24
     29.2077	   47.00	   48.69	 -354.94	   38.14
     29.2411	   54.00	   49.23	 -348.48	   38.05
     29.2745	   51.00	   49.85	 -352.10	   37.96
     29.3080	   43.00	   50.57	 -360.82	   37.86
     29.3414	   47.00	   51.39	 -357.64	   37.77
     29.3748	   55.00	   52.34	 -350.59	   37.68
     29.4082	   42.00	   53.44	 -364.69	   37.59
     29.4416	   55.00	   54.74	 -352.99	   37.49
     29.4751	   60.00	   56.25	 -349.50	   37.40
     29.5085	   55.00	   58.04	 -356.29	   37.31
     29.5419	   58.00	   60.17	 -355.42	   37.21
     29.5753	   46.00	   62.73	 -369.98	   37.12
     29.6088	   49.00	   65.84	 -370.09	   37.03
     29.6422	   66.00	   69.67	 -356.92	   36.94
     29.6756	   73.00	   74.46	 -354.71	   36.84
     29.7090	   75.00	   80.60	 -358.85	   36.75
     29.7425	   81.00	   88.66	 -360.91	   36.66
     29.7759	   92.00	   99.54	 -360.79	   36.56
     29.8093	   97.00	  114.50	 -370.75	   36.47
     29.8427	  141.00	  135.24	 -347.49	   36.38
     29.8761	  169.00	  163.84	 -348.09	   36.29
     29.9096	  193.00	  202.41	 -362.66	   36.19
     29.9430	  261.00	  252.30	 -344.55	   36.10
     29.9764	  347.00	  311.92	 -318.17	   36.01
     30.0098	  383.00	  373.07	 -343.32	   35.91
     30.0433	  420.00	  418.98	 -352.23	   35.82
     30.0767	  423.00	  433.31	 -363.56	   35.73
     30.1101	  417.00	  413.42	 -349.67	   35.64
     30.1435	  383.00	  368.21	 -338.46	   35.54
     30.1769	  329.00	  310.45	 -334.70	   35.45
     30.2104	  250.00	  252.84	 -356.09	   35.36
     30.2438	  198.00	  203.43	 -358.68	   35.26
     30.2772	  156.00	  164.60	 -361.85	   35.17
     30.3106	  119.00	  135.51	 -369.76	   35.08
     30.3441	  122.00	  114.24	 -345.49	   34.99
     30.3775	   95.00	   98.78	 -357.03	   34.89
     30.4109	   74.00	   87.46	 -366.71	   34.80
     30.4443	   64.00	   79.02	 -368.27	   34.71
     30.4777	   66.00	   72.56	 -359.81	   34.61
     30.5112	   57.00	   67.50	 -363.75	   34.52
     30.5446	   71.00	   63.43	 -345.68	   34.43
     30.5780	   60.00	   60.10	 -353.35	   34.34
     30.6114	   57.00	   57.32	 -353.57	   34.24
     30.6449	   41.00	   54.98	 -367.23	   34.15
     30.6783	   55.00	   52.99	 -351.24	   34.06
     30.7117	   45.00	   51.27	 -359.52	   33.96
     30.7451	   56.00	   49.79	 -347.04	   33.87
     30.7785	   33.00	   48.49	 -368.74	   33.78
     30.8120	   51.00	   47.35	 -349.60	   33.69
     30.8454	   50.00	   46.33	 -349.58	   33.59
     30.8788	   48.00	   45.43	 -350.68	   33.50
     30.9122	   27.00	   44.62	 -370.87	   33.41
     30.9457	   39.00	   43.89	 -358.14	   33.32
     30.9791	   46.00	   43.24	 -350.49	   33.24
     31.0125	   43.00	   42.64	 -352.89	   33.15
     31.0459	   29.00	   42.10	 -366.35	   33.07
     31.0794	   38.00	   41.60	 -356.85	   32.99
     31.1128	   43.00	   41.14	 -351.39	   32.90
     31.1462	   39.00	   40.71	 -354.96	   32.82
     31.1796	   36.00	   40.31	 -357.56	   32.73
     31.2130	   42.00	   39.94	 -351.19	   32.65
     31.2465	   43.00	   39.60	 -349.85	   32.57
     31.2799	   33.00	   39.27	 -359.52	   32.48
     31.3133	   47.00	   38.97	 -345.22	   32.40
     31.3467	   42.00	   38.68	 -349.93	   32.32
     31.3802	   43.00	   38.41	 -348.66	   32.23
     31.4136	   35.00	   38.15	 -356.40	   32.15
     31.4470	   33.00	   37.90	 -358.15	   32.06
     31.4804	   45.00	   37.66	 -345.91	   31.98
     31.5138	   37.00	   37.44	 -353.69	   31.90
     31.5473	   31.00	   37.22	 -359.47	   31.81
     31.5807	   44.00	   37.02	 -346.27	   31.73
     31.6141	   41.00	   36.82	 -349.07	   31.64
     31.6475	   35.00	   36.63	 -354.88	   31.56
     31.6810	   46.00	   36.44	 -343.69	   31.48
     31.7144	   43.00	   36.26	 -346.51	   31.39
     31.7478	   32.00	   36.09	 -357.34	   31.31
     31.7812	   39.00	   35.92	 -350.17	   31.23
     31.8146	   49.00	   35.76	 -340.01	   31.14
     31.8481	   42.00	   35.60	 -346.85	   31.06
     31.8815	   39.00	   35.44	 -349.69	   30.97
     31.9149	   50.00	   35.29	 -338.54	   30.89
     31.9483	   43.00	   35.14	 -345.39	   30.81
     31.9818	   47.00	   35.00	 -341.25	   30.72
     32.0152	   38.00	   34.86	 -350.11	   30.64
     32.0486	   52.00	   36.16	 -337.41	   30.56
     32.0820	   29.00	   36.05	 -360.30	   30.47
     32.1154	   37.00	   36.65	 -352.90	   30.39
     32.1489	   41.00	   36.57	 -348.82	   30.30
     32.1823	   35.00	   36.48	 -354.73	   30.22
     32.2157	   42.00	   36.40	 -347.65	   30.14
     32.2491	   37.00	   36.33	 -352.58	   30.05
     32.2826	   48.00	   36.26	 -341.51	   29.97
     32.3160	   34.00	   36.19	 -355.44	   29.88
     32.3494	   25.00	   36.12	 -364.37	   29.80
     32.3828	   31.00	   36.06	 -358.31	   29.72
     32.4163	   35.00	   36.00	 -354.25	   29.63
     32.4497	   38.00	   35.95	 -351.20	   29.55
     32.4831	   36.00	   35.90	 -353.15	   29.47
     32.5165	   32.00	   35.85	 -357.10	   29.38
     32.5499	   39.00	   35.80	 -350.05	   29.30
     32.5834	   39.00	   35.76	 -350.01	   29.21
     32.6168	   39.00	   35.72	 -349.97	   29.13
     32.6502	   23.00	   35.69	 -365.94	   29.05
     32.6836	   35.00	   35.66	 -353.91	   28.96
     32.7171	   24.00	   35.63	 -364.88	   28.88
     32.7505	   27.00	   35.61	 -361.86	   28.79
     32.7839	   23.00	   35.59	 -365.84	   28.71
     32.8173	   33.00	   35.57	 -355.82	   28.63
     32.8507	   30.00	   35.56	 -358.81	   28.54
     32.8842	   34.00	   35.55	 -354.80	   28.46
     32.9176	   27.00	   35.55	 -361.80	   28.38
     32.9510	   44.00	   35.55	 -344.80	   28.29
     32.9844	   27.00	   35.56	 -361.81	   28.21
     33.0179	   33.00	   35.57	 -355.82	   28.12
     33.0513	   29.00	   35.59	 -359.84	   28.04
     33.0847	   36.00	   35.61	 -352.86	   27.96
     33.1181	   37.00	   35.64	 -351.89	   27.87
     33.1516	   42.00	   35.68	 -346.93	   27.79
     33.1850	   48.00	   35.72	 -340.97	   27.70
     33.2184	   44.00	   35.77	 -345.02	   27.62
     33.2518	   37.00	   35.82	 -352.07	   27.54
     33.2852	   28.00	   35.88	 -361.13	   27.45
     33.3187	   37.00	   35.95	 -352.20	   27.37
     33.3521	   31.00	   36.03	 -358.28	   27.29
     33.3855	   36.00	   36.12	 -353.37	   27.20
     33.4189	   17.00	   36.22	 -372.47	   27.12
     33.4524	   30.00	   35.97	 -359.22	   27.03
     33.4858	   35.00	   36.10	 -354.35	   26.95
     33.5192	   30.00	   36.06	 -359.31	   26.87
     33.5526	   41.00	   36.21	 -348.46	   26.78
     33.5860	   32.00	   36.37	 -357.62	   26.70
     33.6195	   46.00	   36.55	 -343.80	   26.62
     33.6529	   36.00	   36.86	 -354.11	   26.53
     33.6863	   36.00	   37.11	 -354.36	   26.48
     33.7197	   32.00	   37.37	 -358.62	   26.43
     33.7532	   37.00	   37.71	 -353.96	   26.38
     33.7866	   42.00	   38.01	 -349.26	   26.33
     33.8200	   39.00	   38.34	 -352.59	   26.28
     33.8534	   57.00	   38.69	 -334.94	   26.23
     33.8868	   48.00	   39.06	 -344.31	   26.18
     33.9203	   36.00	   39.47	 -356.72	   26.13
     33.9537	   46.00	   39.90	 -347.15	   26.08
     33.9871	   38.00	   40.37	 -355.62	   26.03
     34.0205	   48.00	   40.87	 -346.12	   25.98
     34.0540	   50.00	   41.41	 -344.66	   25.93
     34.0874	   49.00	   42.00	 -346.25	   25.88
     34.1208	   50.00	   42.64	 -345.89	   25.83
     34.1542	   58.00	   43.33	 -338.58	   25.78
     34.1876	   61.00	   44.08	 -336.33	   25.73
     34.2211	   58.00	   44.89	 -340.14	   25.69
     34.2545	   55.00	   45.78	 -344.03	   25.64
     34.2879	   61.00	   46.75	 -339.00	   25.59
     34.3213	   57.00	   47.81	 -344.06	   25.54
     34.3548	   59.00	   48.98	 -343.23	   25.49
     34.3882	   48.00	   50.26	 -355.51	   25.44
     34.4216	   52.00	   51.67	 -352.92	   25.39
     34.4550	   58.00	   53.23	 -348.48	   25.34
     34.4884	   65.00	   54.96	 -343.21	   25.29
     34.5219	   65.00	   56.88	 -345.13	   25.24
     34.5553	   62.00	   59.03	 -350.28	   25.19
     34.5887	   54.00	   61.44	 -360.69	   25.14
     34.6221	   66.00	   64.14	 -351.39	   25.09
     34.6556	   73.00	   67.20	 -347.45	   25.04
     34.6890	   61.00	   70.67	 -362.92	   24.99
     34.7224	   81.00	   74.62	 -346.87	   24.94
     34.7558	   91.00	   79.16	 -341.41	   24.89
     34.7893	   79.00	   84.39	 -358.64	   24.84
     34.8227	   91.00	   90.46	 -352.71	   24.79
     34.8561	   88.00	   97.57	 -362.82	   24.74
     34.8895	   89.00	  105.95	 -370.20	   24.69
     34.9229	  105.00	  115.93	 -364.18	   24.65
     34.9564	  108.00	  127.96	 -373.21	   24.60
     34.9898	  133.00	  142.67	 -362.92	   24.55
     35.0232	  144.00	  160.99	 -370.24	   24.50
     35.0566	  144.00	  184.27	 -393.52	   24.45
     35.0901	  196.00	  214.48	 -371.73	   24.40
     35.1235	  248.00	  254.39	 -359.64	   24.35
     35.1569	  294.00	  307.70	 -366.95	   24.30
     35.1903	  394.00	  379.12	 -338.37	   24.25
     35.2237	  483.00	  473.92	 -344.17	   24.20
     35.2572	  608.00	  597.04	 -342.29	   24.15
     35.2906	  837.00	  750.59	 -266.84	   24.10
     35.3240	 1012.00	  927.92	 -269.17	   24.05
     35.3574	 1190.00	 1104.99	 -268.24	   24.00
     35.3909	 1343.00	 1238.54	 -248.79	   23.95
     35.4243	 1365.00	 1288.78	 -277.03	   23.90
     35.4577	 1413.00	 1248.92	 -189.17	   23.85
     35.4911	 1333.00	 1138.70	 -158.95	   23.80
     35.5246	 1058.00	  984.29	 -279.54	   23.75
     35.5580	  899.00	  814.95	 -269.20	   23.70
     35.5914	  687.00	  656.70	 -322.95	   23.65
     35.6248	  531.00	  523.47	 -345.72	   23.60
     35.6582	  395.00	  418.07	 -376.32	   23.56
     35.6917	  316.00	  337.43	 -374.68	   23.51
     35.7251	  246.00	  276.72	 -383.97	   23.46
     35.7585	  218.00	  231.19	 -366.44	   23.41
     35.7919	  203.00	  196.82	 -347.07	   23.36
     35.8254	  154.00	  170.54	 -369.79	   23.31
     35.8588	  155.00	  150.06	 -348.31	   23.26
     35.8922	  108.00	  133.78	 -379.03	   23.21
     35.9256	  109.00	  120.60	 -364.85	   23.16
     35.9590	   88.00	  109.76	 -375.01	   23.11
     35.9925	   95.00	  100.72	 -358.97	   23.06
     36.0259	   96.00	   93.11	 -350.36	   23.01
     36.0593	   71.00	   86.64	 -368.89	   22.96
     36.0927	   81.00	   81.11	 -353.36	   22.91
     36.1262	   58.00	   76.34	 -371.59	   22.86
     36.1596	   55.00	   72.23	 -370.48	   22.81
     36.1930	   52.00	   68.66	 -369.91	   22.76
     36.2264	   58.00	   65.55	 -360.80	   22.71
     36.2598	   48.00	   62.85	 -368.10	   22.66
     36.2933	   45.00	   60.49	 -368.74	   22.61
     36.3267	   55.00	   58.45	 -356.70	   22.56
     36.3601	   45.00	   56.68	 -364.93	   22.52
     36.3935	   61.00	   55.18	 -347.43	   22.47
     36.4270	   30.00	   53.91	 -377.16	   22.42
     36.4604	   44.00	   52.87	 -362.12	   22.37
     36.4938	   56.00	   52.06	 -349.31	   22.32
     36.5272	   43.00	   51.48	 -361.73	   22.27
     36.5606	   38.00	   51.15	 -366.40	   22.22
     36.5941	   45.00	   51.10	 -359.35	   22.17
     36.6275	   50.00	   51.37	 -354.62	   22.12
     36.6609	   52.00	   52.03	 -353.28	   22.07
     36.6943	   55.00	   53.20	 -351.45	   22.02
     36.7278	   43.00	   55.03	 -365.28	   21.97
     36.7612	   59.00	   57.76	 -352.01	   21.92
     36.7946	   59.00	   61.68	 -355.93	   21.87
     36.8280	   66.00	   67.14	 -354.39	   21.82
     36.8615	   77.00	   74.54	 -350.79	   21.77
     36.8949	   59.00	   84.20	 -378.45	   21.72
     36.9283	   99.00	   96.13	 -350.38	   21.67
     36.9617	  118.00	  109.56	 -344.81	   21.62
     36.9951	  111.00	  122.30	 -364.55	   21.57
     37.0286	  138.00	  131.00	 -346.25	   21.52
     37.0620	  138.00	  133.14	 -348.39	   21.47
     37.0954	  115.00	  128.74	 -366.99	   21.43
     37.1288	  106.00	  119.43	 -366.68	   21.38
     37.1623	  112.00	  107.04	 -348.29	   21.33
     37.1957	   91.00	   93.68	 -355.93	   21.28
     37.2291	   72.00	   81.20	 -362.45	   21.23
     37.2625	   61.00	   70.60	 -362.85	   21.18
     37.2959	   50.00	   62.11	 -365.36	   21.13
     37.3294	   43.00	   55.50	 -365.75	   21.08
     37.3628	   39.00	   50.41	 -364.66	   21.03
     37.3962	   37.00	   46.51	 -362.76	   20.98
     37.4296	   42.00	   43.49	 -354.74	   20.93
     37.4631	   32.00	   41.11	 -362.36	   20.88
     37.4965	   33.00	   39.21	 -359.46	   20.83
     37.5299	   32.00	   37.65	 -358.90	   20.78
     37.5633	   27.00	   36.35	 -362.60	   20.73
     37.5967	   31.00	   35.25	 -357.50	   20.68
     37.6302	   31.00	   34.30	 -356.55	   20.63
     37.6636	   31.00	   33.47	 -355.72	   20.58
     37.6970	   35.00	   32.74	 -350.99	   20.53
     37.7304	   38.00	   32.09	 -347.34	   20.48
     37.7639	   29.00	   31.51	 -355.76	   20.43
     37.7973	   37.00	   30.99	 -347.24	   20.39
     37.8307	   28.00	   30.51	 -355.76	   20.34
     37.8641	   32.00	   30.08	 -351.33	   20.29
     37.8975	   29.00	   29.70	 -353.95	   20.26
     37.9310	   28.00	   29.36	 -354.61	   20.24
     37.9644	   28.00	   29.05	 -354.30	   20.21
     37.9978	   19.00	   28.76	 -363.01	   20.19
     38.0312	   34.00	   28.49	 -347.74	   20.17
     38.0647	   36.00	   28.23	 -345.48	   20.14
     38.0981	   31.00	   28.00	 -350.25	   20.12
     38.1315	   35.00	   27.78	 -346.03	   20.10
     38.1649	   28.00	   27.57	 -352.82	   20.08
     38.1983	   35.00	   27.37	 -345.62	   20.05
     38.2318	   28.00	   27.19	 -352.44	   20.03
     38.2652	   32.00	   27.01	 -348.26	   20.01
     38.2986	   34.00	   26.85	 -346.10	   19.98
     38.3320	   48.00	   26.69	 -331.94	   19.96
     38.3655	   36.00	   26.54	 -343.79	   19.94
     38.3989	   42.00	   26.39	 -337.64	   19.92
     38.4323	   33.00	   26.26	 -346.51	   19.89
     38.4657	   39.00	   26.12	 -340.37	   19.87
     38.4992	   34.00	   26.00	 -345.25	   19.85
     38.5326	   18.00	   25.87	 -361.12	   19.82
     38.5660	   32.00	   25.76	 -347.01	   19.80
     38.5994	   25.00	   25.64	 -353.89	   19.78
     38.6328	   24.00	   25.54	 -354.79	   19.76
     38.6663	   18.00	   25.43	 -360.68	   19.73
     38.6997	   35.00	   25.33	 -343.58	   19.71
     38.7331	   25.00	   25.23	 -353.48	   19.69
     38.7665	   37.00	   25.13	 -341.38	   19.66
     38.8000	   27.00	   25.04	 -351.29	   19.64
     38.8334	   28.00	   23.58	 -348.83	   19.62
     38.8668	   20.00	   23.52	 -356.77	   19.60
     38.9002	   33.00	   23.46	 -343.71	   19.57
     38.9336	   17.00	   22.73	 -358.98	   19.55
     38.9671	   25.00	   22.68	 -350.93	   19.53
     39.0005	   37.00	   22.64	 -338.89	   19.50
     39.0339	   22.00	   22.60	 -353.85	   19.48
     39.0673	   19.00	   22.56	 -356.81	   19.46
     39.1008	   18.00	   22.52	 -357.77	   19.44
     39.1342	   21.00	   22.48	 -354.73	   19.41
     39.1676	   28.00	   22.45	 -347.70	   19.39
     39.2010	   29.00	   22.41	 -346.66	   19.37
     39.2345	   31.00	   22.37	 -344.62	   19.34
     39.2679	   27.00	   22.34	 -348.59	   19.32
     39.3013	    8.00	   22.30	 -367.55	   19.30
     39.3347	   21.00	   22.27	 -354.52	   19.28
     39.3681	   23.00	   22.23	 -352.48	   19.25
     39.4016	   17.00	   22.20	 -358.45	   19.23
     39.4350	   23.00	   22.17	 -352.42	   19.21
     39.4684	   20.00	   22.13	 -355.38	   19.18
     39.5018	   25.00	   22.10	 -350.35	   19.16
     39.5353	   35.00	   22.07	 -340.32	   19.14
     39.5687	   20.00	   22.04	 -355.29	   19.12
     39.6021	   11.00	   22.00	 -364.25	   19.09
     39.6355	   19.00	   22.32	 -356.57	   19.07
     39.6689	   28.00	   22.29	 -347.54	   19.05
     39.7024	   24.00	   22.27	 -351.52	   19.02
     39.7358	   11.00	   22.42	 -364.67	   19.00
     39.7692	   22.00	   22.40	 -353.65	   18.98
     39.8026	   18.00	   22.38	 -357.63	   18.95
     39.8361	   31.00	   22.36	 -344.61	   18.93
     39.8695	   19.00	   22.35	 -356.60	   18.91
     39.9029	   25.00	   22.33	 -350.58	   18.89
     39.9363	   23.00	   22.31	 -352.56	   18.86
     39.9697	   36.00	   22.30	 -339.55	   18.84
     40.0032	   18.00	   22.28	 -357.53	   18.82
     40.0366	   24.00	   22.27	 -351.52	   18.79
     40.0700	   17.00	   22.25	 -358.50	   18.77
     40.1034	   29.00	   22.24	 -346.49	   18.75
     40.1369	   15.00	   22.23	 -360.48	   18.73
     40.1703	   24.00	   22.22	 -351.47	   18.70
     40.2037	   28.00	   22.21	 -347.46	   18.68
     40.2371	   14.00	   22.20	 -361.45	   18.66
     40.2705	   18.00	   22.19	 -357.44	   18.63
     40.3040	   22.00	   22.18	 -353.43	   18.61
     40.3374	   19.00	   22.17	 -356.42	   18.59
     40.3708	   21.00	   22.16	 -354.41	   18.57
     40.4042	   20.00	   22.16	 -355.41	   18.54
     40.4377	   20.00	   22.15	 -355.40	   18.52
     40.4711	   15.00	   22.03	 -360.28	   18.50
     40.5045	   20.00	   22.03	 -355.28	   18.47
     40.5379	   22.00	   22.03	 -353.28	   18.45
     40.5714	   24.00	   21.98	 -351.23	   18.43
     40.6048	   23.00	   21.98	 -352.23	   18.41
     40.6382	   18.00	   21.98	 -357.23	   18.38
     40.6716	   30.00	   21.99	 -345.24	   18.36
     40.7050	   19.00	   22.00	 -356.25	   18.34
     40.7385	   20.00	   22.00	 -355.25	   18.31
     40.7719	   25.00	   22.01	 -350.26	   18.29
     40.8053	   20.00	   22.02	 -355.27	   18.27
     40.8387	   22.00	   22.04	 -353.29	   18.25
     40.8722	   28.00	   22.05	 -347.30	   18.22
     40.9056	   22.00	   22.06	 -353.31	   18.20
     40.9390	   32.00	   22.08	 -343.33	   18.18
     40.9724	   18.00	   22.10	 -357.35	   18.15
     41.0058	   19.00	   22.12	 -356.37	   18.13
     41.0393	   17.00	   22.15	 -358.40	   18.11
     41.0727	   29.00	   22.17	 -346.42	   18.09
     41.1061	   21.00	   22.20	 -354.45	   18.06
     41.1395	   25.00	   22.23	 -350.48	   18.04
     41.1730	   30.00	   22.26	 -345.51	   18.02
     41.2064	   20.00	   22.30	 -355.55	   17.99
     41.2398	   23.00	   22.34	 -352.59	   17.97
     41.2732	   24.00	   22.38	 -351.63	   17.95
     41.3066	   27.00	   22.43	 -348.68	   17.93
     41.3401	   37.00	   22.48	 -338.73	   17.90
     41.3735	   33.00	   22.54	 -342.79	   17.88
     41.4069	   30.00	   22.60	 -345.85	   17.86
     41.4403	   27.00	   22.66	 -348.91	   17.83
     41.4738	   23.00	   22.73	 -352.98	   17.81
     41.5072	   25.00	   22.81	 -351.06	   17.79
     41.5406	   31.00	   22.90	 -345.15	   17.77
     41.5740	   21.00	   22.99	 -355.24	   17.75
     41.6075	   23.00	   23.09	 -353.34	   17.72
     41.6409	   35.00	   23.20	 -341.45	   17.70
     41.6743	   25.00	   23.32	 -351.57	   17.68
     41.7077	   27.00	   23.45	 -349.70	   17.66
     41.7411	   25.00	   23.59	 -351.84	   17.64
     41.7746	   25.00	   23.74	 -351.99	   17.62
     41.8080	   22.00	   23.90	 -355.15	   17.60
     41.8414	   18.00	   24.09	 -359.34	   17.58
     41.8748	   23.00	   24.28	 -354.53	   17.55
     41.9083	   25.00	   24.50	 -352.75	   17.53
     41.9417	   38.00	   24.74	 -339.99	   17.51
     41.9751	   31.00	   25.00	 -347.25	   17.49
     42.0085	   20.00	   25.29	 -358.54	   17.47
     42.0419	   33.00	   25.61	 -345.86	   17.45
     42.0754	   31.00	   25.96	 -348.21	   17.43
     42.1088	   31.00	   26.36	 -348.61	   17.41
     42.1422	   22.00	   26.79	 -358.04	   17.38
     42.1756	   27.00	   27.28	 -353.53	   17.36
     42.2091	   32.00	   27.83	 -349.08	   17.34
     42.2425	   29.00	   28.44	 -352.69	   17.32
     42.2759	   30.00	   29.13	 -352.38	   17.30
     42.3093	   34.00	   29.92	 -349.17	   17.28
     42.3427	   31.00	   30.81	 -353.06	   17.26
     42.3762	   32.00	   31.84	 -353.09	   17.24
     42.4096	   33.00	   33.02	 -353.27	   17.22
     42.4430	   35.00	   34.38	 -352.63	   17.19
     42.4764	   36.00	   35.97	 -353.22	   17.17
     42.5099	   33.00	   37.84	 -358.09	   17.15
     42.5433	   35.00	   40.06	 -358.31	   17.13
     42.5767	   42.00	   42.72	 -353.97	   17.11
     42.6101	   47.00	   45.97	 -352.22	   17.09
     42.6435	   57.00	   49.98	 -346.23	   17.07
     42.6770	   62.00	   55.01	 -346.26	   17.05
     42.7104	   61.00	   61.41	 -353.66	   17.02
     42.7438	   76.00	   69.62	 -346.87	   17.00
     42.7772	   82.00	   80.21	 -351.46	   16.98
     42.8107	  111.00	   93.83	 -336.08	   16.96
     42.8441	  119.00	  111.19	 -345.44	   16.94
     42.8775	  171.00	  132.84	 -315.09	   16.92
     42.9109	  191.00	  158.86	 -321.11	   16.90
     42.9444	  215.00	  188.04	 -326.29	   16.88
     42.9778	  260.00	  216.95	 -310.20	   16.85
     43.0112	  301.00	  239.86	 -292.11	   16.83
     43.0446	  305.00	  251.35	 -299.60	   16.81
     43.0780	  351.00	  249.80	 -252.05	   16.79
     43.1115	  337.00	  237.40	 -253.65	   16.77
     43.1449	  237.00	  217.16	 -333.41	   16.75
     43.1783	  247.00	  191.86	 -298.11	   16.73
     43.2117	  210.00	  164.80	 -308.05	   16.71
     43.2452	  158.00	  139.16	 -334.41	   16.68
     43.2786	  130.00	  116.88	 -340.13	   16.66
     43.3120	  117.00	   98.55	 -334.80	   16.64
     43.3454	   83.00	   83.93	 -354.18	   16.62
     43.3788	   77.00	   72.46	 -348.71	   16.60
     43.4123	   71.00	   63.50	 -345.75	   16.58
     43.4457	   62.00	   56.51	 -347.76	   16.56
     43.4791	   54.00	   51.00	 -350.25	   16.54
     43.5125	   44.00	   46.62	 -355.87	   16.51
     43.5460	   35.00	   43.09	 -361.34	   16.49
     43.5794	   45.00	   40.19	 -348.44	   16.47
     43.6128	   47.00	   37.79	 -344.04	   16.45
     43.6462	   42.00	   35.77	 -347.02	   16.43
     43.6796	   28.00	   34.06	 -359.31	   16.41
     43.7131	   28.00	   32.59	 -357.84	   16.39
     43.7465	   32.00	   31.32	 -352.57	   16.37
     43.7799	   28.00	   30.21	 -355.46	   16.34
     43.8133	   36.00	   29.24	 -346.49	   16.32
     43.8468	   45.00	   28.38	 -336.63	   16.30
     43.8802	   37.00	   27.62	 -343.87	   16.28
     43.9136	   38.00	   26.94	 -342.19	   16.26
     43.9470	   25.00	   26.33	 -354.58	   16.24
     43.9804	   19.00	   25.79	 -360.04	   16.22
     44.0139	   34.00	   25.29	 -344.54	   16.20
     44.0473	   17.00	   24.85	 -361.10	   16.17
     44.0807	   35.00	   24.44	 -342.69	   16.15
     44.1141	   24.00	   24.07	 -353.32	   16.13
     44.1476	   25.00	   23.73	 -351.98	   16.11
     44.1810	   28.00	   23.42	 -348.67	   16.09
     44.2144	   31.00	   23.13	 -345.38	   16.07
     44.2478	   30.00	   22.86	 -346.11	   16.05
     44.2813	   37.00	   22.62	 -338.87	   16.03
     44.3147	   32.00	   22.39	 -343.64	   16.00
     44.3481	   25.00	   22.18	 -350.43	   15.98
     44.3815	   35.00	   21.98	 -340.23	   15.96
     44.4149	   29.00	   21.79	 -346.04	   15.94
     44.4484	   33.00	   21.62	 -341.87	   15.92
     44.4818	   21.00	   21.46	 -353.71	   15.90
     44.5152	   27.00	   21.30	 -347.55	   15.88
     44.5486	   29.00	   21.16	 -345.41	   15.86
     44.5821	   29.00	   21.02	 -345.27	   15.84
     44.6155	   21.00	   20.89	 -353.14	   15.81
     44.6489	   21.00	   20.77	 -353.02	   15.79
     44.6823	   21.00	   20.65	 -352.90	   15.77
     44.7157	    7.00	   20.54	 -366.79	   15.75
     44.7492	   27.00	   20.44	 -346.69	   15.73
     44.7826	   30.00	   20.34	 -343.59	   15.71
     44.8160	   15.00	   20.24	 -358.49	   15.69
     44.8494	   16.00	   20.15	 -357.40	   15.67
     44.8829	   18.00	   20.06	 -355.31	   15.64
     44.9163	   21.00	   19.98	 -352.23	   15.62
     44.9497	   15.00	   19.90	 -358.15	   15.60
     44.9831	   25.00	   19.82	 -348.07	   15.58
     45.0165	   24.00	   19.75	 -349.00	   15.56
     45.0500	   23.00	   19.68	 -349.93	   15.54
     45.0834	   22.00	   19.61	 -350.86	   15.52
     45.1168	   14.00	   19.54	 -358.79	   15.50
     45.1502	   21.00	   19.48	 -351.73	   15.47
     45.1837	   23.00	   19.41	 -349.66	   15.45
     45.2171	   16.00	   19.35	 -356.60	   15.43
     45.2505	   24.00	   19.30	 -348.55	   15.41
     45.2839	   22.00	   19.24	 -350.49	   15.39
     45.3174	   21.00	   19.18	 -351.43	   15.37
     45.3508	   24.00	   19.13	 -348.38	   15.35
     45.3842	   17.00	   19.08	 -355.33	   15.33
     45.4176	   29.00	   19.03	 -343.28	   15.30
     45.4510	   15.00	   18.98	 -357.23	   15.28
     45.4845	   15.00	   18.93	 -357.18	   15.26
     45.5179	   25.00	   18.89	 -347.14	   15.24
     45.5513	   20.00	   18.84	 -352.09	   15.22
     45.5847	   11.00	   18.80	 -361.05	   15.20
     45.6182	   25.00	   18.76	 -347.01	   15.18
     45.6516	   14.00	   18.72	 -357.97	   15.16
     45.6850	   28.00	   18.68	 -343.93	   15.13
     45.7184	   16.00	   18.64	 -355.89	   15.11
     45.7518	   28.00	   18.60	 -343.85	   15.09
     45.7853	   18.00	   18.56	 -353.81	   15.07
     45.8187	   15.00	   18.53	 -356.78	   15.05
     45.8521	   19.00	   18.49	 -352.74	   15.03
     45.8855	   20.00	   18.46	 -351.71	   15.01
     45.9190	   24.00	   18.42	 -347.67	   14.99
     45.9524	   23.00	   18.39	 -348.64	   14.96
     45.9858	   21.00	   18.36	 -350.61	   14.94
     46.0192	   14.00	   18.33	 -357.58	   14.92
     46.0527	   27.00	   18.30	 -344.55	   14.90
     46.0861	   18.00	   18.28	 -353.53	   14.88
     46.1195	   25.00	   18.25	 -346.50	   14.86
     46.1529	   24.00	   18.23	 -347.48	   14.84
     46.1863	   20.00	   18.20	 -351.45	   14.82
     46.2198	   16.00	   18.18	 -355.43	   14.79
     46.2532	   21.00	   18.16	 -350.41	   14.77
     46.2866	   15.00	   18.15	 -356.40	   14.75
     46.3200	   29.00	   18.13	 -342.38	   14.73
     46.3535	   18.00	   18.12	 -353.37	   14.71
     46.3869	   25.00	   18.11	 -346.36	   14.69
     46.4203	   18.00	   18.10	 -353.35	   14.67
     46.4537	   23.00	   18.11	 -348.36	   14.65
     46.4871	   21.00	   18.12	 -350.37	   14.64
     46.5206	   22.00	   17.82	 -349.07	   14.64
     46.5540	   24.00	   17.85	 -347.10	   14.63
     46.5874	   23.00	   17.89	 -348.14	   14.62
     46.6208	   18.00	   17.78	 -353.03	   14.61
     46.6543	   18.00	   17.85	 -353.10	   14.60
     46.6877	   25.00	   17.93	 -346.18	   14.59
     46.7211	   24.00	   18.03	 -347.28	   14.59
     46.7545	   18.00	   18.16	 -353.41	   14.58
     46.7879	   19.00	   18.32	 -352.57	   14.57
     46.8214	   21.00	   18.53	 -350.78	   14.56
     46.8548	   23.00	   18.79	 -349.04	   14.55
     46.8882	   19.00	   19.13	 -353.38	   14.54
     46.9216	   20.00	   19.55	 -352.80	   14.54
     46.9551	   20.00	   20.07	 -353.32	   14.53
     46.9885	   21.00	   20.69	 -352.94	   14.52
     47.0219	   22.00	   21.38	 -352.63	   14.51
     47.0553	   21.00	   22.08	 -354.33	   14.50
     47.0887	   24.00	   22.65	 -351.90	   14.49
     47.1222	   23.00	   22.98	 -353.23	   14.48
     47.1556	   29.00	   23.02	 -347.27	   14.48
     47.1890	   30.00	   22.80	 -346.05	   14.47
     47.2224	   30.00	   22.39	 -345.64	   14.46
     47.2559	   25.00	   21.84	 -350.09	   14.45
     47.2893	   36.00	   21.20	 -338.45	   14.44
     47.3227	   21.00	   20.55	 -352.80	   14.43
     47.3561	   20.00	   19.95	 -353.20	   14.43
     47.3895	   18.00	   19.43	 -354.68	   14.42
     47.4230	   23.00	   19.00	 -349.25	   14.41
     47.4564	   17.00	   18.65	 -354.90	   14.40
     47.4898	   15.00	   18.37	 -356.62	   14.39
     47.5232	   25.00	   18.14	 -346.39	   14.38
     47.5567	    3.00	   17.96	 -368.21	   14.38
     47.5901	   19.00	   17.82	 -352.07	   14.37
     47.6235	   18.00	   17.70	 -352.95	   14.36
     47.6569	   18.00	   17.60	 -352.85	   14.35
     47.6904	   23.00	   17.51	 -347.76	   14.34
     47.7238	   19.00	   17.44	 -351.69	   14.33
     47.7572	   21.00	   17.38	 -349.63	   14.33
     47.7906	   15.00	   17.33	 -355.58	   14.32
     47.8240	   25.00	   17.28	 -345.53	   14.31
     47.8575	   16.00	   17.24	 -354.49	   14.30
     47.8909	   18.00	   17.20	 -352.45	   14.29
     47.9243	   21.00	   17.17	 -349.42	   14.28
     47.9577	   17.00	   17.14	 -353.39	   14.28
     47.9912	   17.00	   17.11	 -353.36	   14.27
     48.0246	   18.00	   17.08	 -352.33	   14.26
     48.0580	   19.00	   17.06	 -351.31	   14.25
     48.0914	   16.00	   17.03	 -354.28	   14.24
     48.1248	   17.00	   17.01	 -353.26	   14.23
     48.1583	   21.00	   16.99	 -349.24	   14.23
     48.1917	   20.00	   16.97	 -350.22	   14.22
     48.2251	   23.00	   16.96	 -347.21	   14.21
     48.2585	   18.00	   16.94	 -352.19	   14.20
     48.2920	   12.00	   16.92	 -358.17	   14.19
     48.3254	   23.00	   16.91	 -347.16	   14.18
     48.3588	    9.00	   16.89	 -361.14	   14.18
     48.3922	   16.00	   16.88	 -354.13	   14.17
     48.4257	   24.00	   16.86	 -346.11	   14.16
     48.4591	   21.00	   16.85	 -349.10	   14.15
     48.4925	   16.00	   16.83	 -354.08	   14.14
     48.5259	   12.00	   16.82	 -358.07	   14.13
     48.5593	   25.00	   16.81	 -345.06	   14.12
     48.5928	   22.00	   16.80	 -348.05	   14.12
     48.6262	   17.00	   16.78	 -353.03	   14.11
     48.6596	   16.00	   16.77	 -354.02	   14.10
     48.6930	   21.00	   16.76	 -349.01	   14.09
     48.7264	   22.00	   16.75	 -348.00	   14.08
     48.7599	   16.00	   16.74	 -353.99	   14.07
     48.7933	   15.00	   16.73	 -354.98	   14.07
     48.8267	   16.00	   16.72	 -353.97	   14.06
     48.8601	   20.00	   16.71	 -349.96	   14.05
     48.8936	   20.00	   16.69	 -349.94	   14.04
     48.9270	   22.00	   16.68	 -347.93	   14.03
     48.9604	   17.00	   16.67	 -352.92	   14.02
     48.9938	   20.00	   16.66	 -349.91	   14.02
     49.0273	   10.00	   16.65	 -359.90	   14.01
     49.0607	   15.00	   16.64	 -354.89	   14.00
     49.0941	   25.00	   16.63	 -344.88	   13.99
     49.1275	    8.00	   16.62	 -361.87	   13.98
     49.1609	   27.00	   16.61	 -342.86	   13.97
     49.1944	   12.00	   16.60	 -357.85	   13.97
     49.2278	   12.00	   16.59	 -357.84	   13.96
     49.2612	   20.00	   16.58	 -349.83	   13.95
     49.2946	   20.00	   16.57	 -349.82	   13.94
     49.3281	   17.00	   16.57	 -352.82	   13.93
     49.3615	   11.00	   16.56	 -358.81	   13.92
     49.3949	   18.00	   16.55	 -351.80	   13.92
     49.4283	   15.00	   16.54	 -354.79	   13.91
     49.4617	   28.00	   16.53	 -341.78	   13.90
     49.4952	   15.00	   16.52	 -354.77	   13.89
     49.5286	   21.00	   16.51	 -348.76	   13.88
     49.5620	   21.00	   16.50	 -348.75	   13.87
     49.5954	   27.00	   16.49	 -342.74	   13.87
     49.6289	   11.00	   16.48	 -358.73	   13.86
     49.6623	   15.00	   16.47	 -354.72	   13.85
     49.6957	   19.00	   16.46	 -350.71	   13.84
     49.7291	   20.00	   16.45	 -349.70	   13.83
     49.7626	   21.00	   16.45	 -348.70	   13.82
     49.7960	   12.00	   16.44	 -357.69	   13.82
     49.8294	   21.00	   16.43	 -348.68	   13.81
     49.8628	   11.00	   16.42	 -358.67	   13.80
     49.8962	   16.00	   16.59	 -353.84	   13.79
     49.9297	   19.00	   16.58	 -350.83	   13.78
     49.9631	   21.00	   16.58	 -348.83	   13.77
     49.9965	   14.00	   16.57	 -355.82	   13.76
     50.0299	   27.00	   16.65	 -342.90	   13.76
     50.0634	   14.00	   16.65	 -355.90	   13.75
     50.0968	   17.00	   16.65	 -352.90	   13.74
     50.1302	   24.00	   16.64	 -345.89	   13.73
     50.1636	   15.00	   16.64	 -354.89	   13.72
     50.1970	   16.00	   16.64	 -353.89	   13.71
     50.2305	   22.00	   16.64	 -347.89	   13.71
     50.2639	   20.00	   16.64	 -349.89	   13.70
     50.2973	   19.00	   16.63	 -350.88	   13.69
     50.3307	    9.00	   16.63	 -360.88	   13.68
     50.3642	   16.00	   16.63	 -353.88	   13.67
     50.3976	   18.00	   16.63	 -351.88	   13.66
     50.4310	   19.00	   16.63	 -350.88	   13.66
     50.4644	   19.00	   16.63	 -350.88	   13.65
     50.4978	   18.00	   16.63	 -351.88	   13.64
     50.5313	   12.00	   16.63	 -357.88	   13.63
     50.5647	   15.00	   16.63	 -354.88	   13.62
     50.5981	   15.00	   16.63	 -354.88	   13.61
     50.6315	   19.00	   16.62	 -350.87	   13.61
     50.6650	   10.00	   16.62	 -359.87	   13.60
     50.6984	   12.00	   16.62	 -357.87	   13.59
     50.7318	   15.00	   16.62	 -354.87	   13.58
     50.7652	   14.00	   16.62	 -355.87	   13.57
     50.7986	   10.00	   16.63	 -359.88	   13.56
     50.8321	   17.00	   16.63	 -352.88	   13.56
     50.8655	   19.00	   16.64	 -350.89	   13.55
     50.8989	   18.00	   16.64	 -351.89	   13.54
     50.9323	   14.00	   16.64	 -355.89	   13.53
     50.9658	   17.00	   16.65	 -352.90	   13.52
     50.9992	   21.00	   16.66	 -348.91	   13.51
     51.0326	   15.00	   16.66	 -354.91	   13.51
     51.0660	   16.00	   16.67	 -353.92	   13.50
     51.0994	   21.00	   16.68	 -348.93	   13.49
     51.1329	   12.00	   16.69	 -357.94	   13.48
     51.1663	   12.00	   16.70	 -357.95	   13.47
     51.1997	   20.00	   16.71	 -349.96	   13.46
     51.2331	   12.00	   16.72	 -357.97	   13.46
     51.2666	   23.00	   16.73	 -346.98	   13.45
     51.3000	   17.00	   16.75	 -353.00	   13.44
     51.3334	   20.00	   16.76	 -350.01	   13.43
     51.3668	   23.00	   16.78	 -347.03	   13.42
     51.4003	   27.00	   16.79	 -343.04	   13.41
     51.4337	    9.00	   16.81	 -361.06	   13.41
     51.4671	   18.00	   16.84	 -352.09	   13.40
     51.5005	   16.00	   16.86	 -354.11	   13.40
     51.5339	   18.00	   16.89	 -352.14	   13.39
     51.5674	   20.00	   16.92	 -350.17	   13.39
     51.6008	   17.00	   16.95	 -353.20	   13.39
     51.6342	   15.00	   16.98	 -355.23	   13.38
     51.6676	   17.00	   17.01	 -353.26	   13.38
     51.7011	   18.00	   17.05	 -352.30	   13.37
     51.7345	    8.00	   17.09	 -362.34	   13.37
     51.7679	   20.00	   17.13	 -350.38	   13.37
     51.8013	   24.00	   17.17	 -346.42	   13.36
     51.8347	   23.00	   17.22	 -347.47	   13.36
     51.8682	   21.00	   17.27	 -349.52	   13.36
     51.9016	   21.00	   17.32	 -349.57	   13.35
     51.9350	   19.00	   17.38	 -351.63	   13.35
     51.9684	   22.00	   17.44	 -348.69	   13.34
     52.0019	   19.00	   17.51	 -351.76	   13.34
     52.0353	   20.00	   17.58	 -350.83	   13.34
     52.0687	   29.00	   17.65	 -341.90	   13.33
     52.1021	   22.00	   17.74	 -348.99	   13.33
     52.1356	   21.00	   17.83	 -350.08	   13.32
     52.1690	   21.00	   17.92	 -350.17	   13.32
     52.2024	   20.00	   18.03	 -351.28	   13.32
     52.2358	   25.00	   18.14	 -346.39	   13.31
     52.2692	   25.00	   18.27	 -346.52	   13.31
     52.3027	   19.00	   18.40	 -352.65	   13.30
     52.3361	   22.00	   18.55	 -349.80	   13.30
     52.3695	   28.00	   18.71	 -343.96	   13.30
     52.4029	   21.00	   18.89	 -351.14	   13.29
     52.4364	   22.00	   19.08	 -350.33	   13.29
     52.4698	   22.00	   19.30	 -350.55	   13.28
     52.5032	    8.00	   19.54	 -364.79	   13.28
     52.5366	   20.00	   19.80	 -353.05	   13.28
     52.5700	   27.00	   20.10	 -346.35	   13.27
     52.6035	   16.00	   20.43	 -357.68	   13.27
     52.6369	   23.00	   20.80	 -351.05	   13.27
     52.6703	   23.00	   21.22	 -351.47	   13.26
     52.7037	   11.00	   21.70	 -363.95	   13.26
     52.7372	   17.00	   22.24	 -358.49	   13.25
     52.7706	   37.00	   22.86	 -339.11	   13.25
     52.8040	   20.00	   23.58	 -356.83	   13.25
     52.8374	   29.00	   24.41	 -348.66	   13.24
     52.8708	   25.00	   25.39	 -353.64	   13.24
     52.9043	   21.00	   26.55	 -358.80	   13.23
     52.9377	   30.00	   27.93	 -351.18	   13.23
     52.9711	   38.00	   29.60	 -344.85	   13.23
     53.0045	   50.00	   31.64	 -334.89	   13.22
     53.0380	   28.00	   34.14	 -359.39	   13.22
     53.0714	   30.00	   37.22	 -360.47	   13.21
     53.1048	   49.00	   41.05	 -345.30	   13.21
     53.1382	   42.00	   45.76	 -357.01	   13.21
     53.1716	   64.00	   51.54	 -340.79	   13.20
     53.2051	   70.00	   58.53	 -341.78	   13.20
     53.2385	   79.00	   66.77	 -341.02	   13.19
     53.2719	   86.00	   76.04	 -343.29	   13.19
     53.3053	   91.00	   85.73	 -347.98	   13.19
     53.3388	  128.00	   94.66	 -319.91	   13.18
     53.3722	  116.00	  101.96	 -339.21	   13.18
     53.4056	  127.00	  105.25	 -331.50	   13.18
     53.4390	  116.00	  104.96	 -342.21	   13.17
     53.4725	  111.00	  101.74	 -343.99	   13.17
     53.5059	  127.00	   96.36	 -322.61	   13.16
     53.5393	  104.00	   89.65	 -338.90	   13.16
     53.5727	   83.00	   81.51	 -351.76	   13.16
     53.6061	   88.00	   72.92	 -338.17	   13.15
     53.6396	   75.00	   64.64	 -342.89	   13.15
     53.6730	   60.00	   57.17	 -350.42	   13.14
     53.7064	   60.00	   50.75	 -344.00	   13.14
     53.7398	   50.00	   45.39	 -348.64	   13.14
     53.7733	   39.00	   41.00	 -355.25	   13.13
     53.8067	   36.00	   37.43	 -354.68	   13.13
     53.8401	   35.00	   34.53	 -352.78	   13.12
     53.8735	   43.00	   32.18	 -342.43	   13.12
     53.9069	   41.00	   30.26	 -342.51	   13.12
     53.9404	   34.00	   28.69	 -347.94	   13.11
     53.9738	   37.00	   27.38	 -343.63	   13.11
     54.0072	   33.00	   26.29	 -346.54	   13.10
     54.0406	   38.00	   25.38	 -340.63	   13.10
     54.0741	   27.00	   24.60	 -350.85	   13.10
     54.1075	   27.00	   23.94	 -350.19	   13.09
     54.1409	   25.00	   23.36	 -351.61	   13.09
     54.1743	   28.00	   22.87	 -348.12	   13.09
     54.2077	   39.00	   22.44	 -336.69	   13.08
     54.2412	   25.00	   22.06	 -350.31	   13.08
     54.2746	   33.00	   21.74	 -341.99	   13.07
     54.3080	   27.00	   21.45	 -347.70	   13.07
     54.3414	   25.00	   21.20	 -349.45	   13.07
     54.3749	   31.00	   20.97	 -343.22	   13.06
     54.4083	   24.00	   20.78	 -350.03	   13.06
     54.4417	   29.00	   20.61	 -344.86	   13.05
     54.4751	   21.00	   20.46	 -352.71	   13.05
     54.5086	   14.00	   20.33	 -359.58	   13.05
     54.5420	   23.00	   20.22	 -350.47	   13.04
     54.5754	   17.00	   20.13	 -356.38	   13.04
     54.6088	   23.00	   20.05	 -350.30	   13.03
     54.6422	   27.00	   19.98	 -346.23	   13.03
     54.6757	   18.00	   19.92	 -355.17	   13.03
     54.7091	   32.00	   19.88	 -341.13	   13.02
     54.7425	   30.00	   19.85	 -343.10	   13.02
     54.7759	   22.00	   19.82	 -351.07	   13.01
     54.8093	   27.00	   19.81	 -346.06	   13.01
     54.8428	   19.00	   19.81	 -354.06	   13.01
     54.8762	   25.00	   19.81	 -348.06	   13.00
     54.9096	   23.00	   19.83	 -350.08	   13.00
     54.9430	   29.00	   19.85	 -344.10	   13.00
     54.9765	   37.00	   19.88	 -336.13	   12.99
     55.0099	   16.00	   19.92	 -357.17	   12.99
     55.0433	   33.00	   19.97	 -340.22	   12.98
     55.0767	   17.00	   20.03	 -356.28	   12.98
     55.1102	   30.00	   20.10	 -343.35	   12.98
     55.1436	   23.00	   20.18	 -350.43	   12.97
     55.1770	   21.00	   20.26	 -352.51	   12.97
     55.2104	   21.00	   20.36	 -352.61	   12.96
     55.2438	   22.00	   20.46	 -351.71	   12.96
     55.2773	   28.00	   20.58	 -345.83	   12.96
     55.3107	   17.00	   20.71	 -356.96	   12.95
     55.3441	   28.00	   20.85	 -346.10	   12.95
     55.3775	   23.00	   21.00	 -351.25	   12.94
     55.4110	   19.00	   21.17	 -355.42	   12.94
     55.4444	   23.00	   21.35	 -351.60	   12.94
     55.4778	   25.00	   21.54	 -349.79	   12.93
     55.5112	   24.00	   21.75	 -351.00	   12.93
     55.5446	   25.00	   21.99	 -350.24	   12.93
     55.5781	   21.00	   22.24	 -354.49	   12.92
     55.6115	   30.00	   22.51	 -345.76	   12.92
     55.6449	   25.00	   22.80	 -351.05	   12.91
     55.6783	   44.00	   23.12	 -332.37	   12.91
     55.7118	   31.00	   23.47	 -345.72	   12.91
     55.7452	   23.00	   23.85	 -354.10	   12.90
     55.7786	   31.00	   24.27	 -346.52	   12.90
     55.8120	   24.00	   24.72	 -353.97	   12.89
     55.8455	   17.00	   25.22	 -361.47	   12.89
     55.8789	   32.00	   25.76	 -347.01	   12.89
     55.9123	   22.00	   26.36	 -357.61	   12.88
     55.9457	   28.00	   27.01	 -352.26	   12.88
     55.9791	   42.00	   27.74	 -338.99	   12.87
     56.0126	   42.00	   28.54	 -339.79	   12.87
     56.0460	   36.00	   29.43	 -346.68	   12.87
     56.0794	   38.00	   30.42	 -345.67	   12.86
     56.1128	   28.00	   31.53	 -356.78	   12.86
     56.1463	   42.00	   32.77	 -344.02	   12.85
     56.1797	   25.00	   34.16	 -362.41	   12.85
     56.2131	   41.00	   35.74	 -347.99	   12.85
     56.2465	   47.00	   37.53	 -343.78	   12.84
     56.2799	   37.00	   39.57	 -355.82	   12.84
     56.3134	   51.00	   41.92	 -344.17	   12.84
     56.3468	   46.00	   44.64	 -351.89	   12.83
     56.3802	   45.00	   47.81	 -356.06	   12.83
     56.4136	   50.00	   51.54	 -354.79	   12.82
     56.4471	   49.00	   55.97	 -360.22	   12.82
     56.4805	   65.00	   61.27	 -349.52	   12.82
     56.5139	   74.00	   67.66	 -346.91	   12.81
     56.5473	   82.00	   75.43	 -346.68	   12.81
     56.5807	  104.00	   84.92	 -334.17	   12.80
     56.6142	   88.00	   96.51	 -361.76	   12.80
     56.6476	  115.00	  110.67	 -348.92	   12.80
     56.6810	  142.00	  127.85	 -339.10	   12.79
     56.7144	  171.00	  148.47	 -330.72	   12.79
     56.7479	  223.00	  172.68	 -302.93	   12.78
     56.7813	  240.00	  200.12	 -313.37	   12.79
     56.8147	  280.00	  229.39	 -302.64	   12.79
     56.8481	  330.00	  257.70	 -280.95	   12.80
     56.8816	  352.00	  281.09	 -282.34	   12.80
     56.9150	  354.00	  295.75	 -295.00	   12.81
     56.9484	  328.00	  299.80	 -325.05	   12.81
     56.9818	  374.00	  294.58	 -273.83	   12.82
     57.0152	  363.00	  282.15	 -272.40	   12.83
     57.0487	  324.00	  264.34	 -293.59	   12.83
     57.0821	  269.00	  242.23	 -326.48	   12.84
     57.1155	  264.00	  217.36	 -306.61	   12.84
     57.1489	  219.00	  191.53	 -325.78	   12.85
     57.1824	  165.00	  166.71	 -354.96	   12.85
     57.2158	  142.00	  144.26	 -355.51	   12.86
     57.2492	  136.00	  124.78	 -342.03	   12.87
     57.2826	  123.00	  108.35	 -338.60	   12.87
     57.3160	  105.00	   94.70	 -342.95	   12.88
     57.3495	   83.00	   83.44	 -353.69	   12.88
     57.3829	   99.00	   74.20	 -328.45	   12.89
     57.4163	   90.00	   66.59	 -329.84	   12.89
     57.4497	   66.00	   60.31	 -347.56	   12.90
     57.4832	   55.00	   55.10	 -353.35	   12.91
     57.5166	   51.00	   50.73	 -352.98	   12.91
     57.5500	   50.00	   47.05	 -350.30	   12.92
     57.5834	   59.00	   43.93	 -338.18	   12.92
     57.6168	   56.00	   41.24	 -338.49	   12.93
     57.6503	   34.00	   38.92	 -358.17	   12.93
     57.6837	   32.00	   36.91	 -358.16	   12.94
     57.7171	   51.00	   35.14	 -337.39	   12.95
     57.7505	   34.00	   33.58	 -352.83	   12.95
     57.7840	   34.00	   32.20	 -351.45	   12.96
     57.8174	   22.00	   30.97	 -362.22	   12.96
     57.8508	   32.00	   29.88	 -351.13	   12.97
     57.8842	   25.00	   28.89	 -357.14	   12.97
     57.9176	   27.00	   28.01	 -354.26	   12.98
     57.9511	   28.00	   27.21	 -352.46	   12.99
     57.9845	   28.00	   26.48	 -351.73	   12.99
     58.0179	   23.00	   25.83	 -356.08	   13.00
     58.0513	   28.00	   25.23	 -350.48	   13.00
     58.0848	   22.00	   24.68	 -355.93	   13.01
     58.1182	   25.00	   24.18	 -352.43	   13.01
     58.1516	   24.00	   23.72	 -352.97	   13.02
     58.1850	   25.00	   23.29	 -351.54	   13.03
     58.2185	   14.00	   22.90	 -362.15	   13.03
     58.2519	   30.00	   22.54	 -345.79	   13.04
     58.2853	   28.00	   22.21	 -347.46	   13.04
     58.3187	   24.00	   21.90	 -351.15	   13.05
     58.3521	   25.00	   21.61	 -349.86	   13.05
     58.3856	   20.00	   21.34	 -354.59	   13.06
     58.4190	   17.00	   21.09	 -357.34	   13.07
     58.4524	   24.00	   20.86	 -350.11	   13.07
     58.4858	   23.00	   20.64	 -350.89	   13.08
     58.5193	   19.00	   20.44	 -354.69	   13.08
     58.5527	   20.00	   20.25	 -353.50	   13.09
     58.5861	   19.00	   20.07	 -354.32	   13.09
     58.6195	   20.00	   19.90	 -353.15	   13.10
     58.6529	   25.00	   19.75	 -348.00	   13.11
     58.6864	   24.00	   19.60	 -348.85	   13.11
     58.7198	   20.00	   19.46	 -352.71	   13.12
     58.7532	   17.00	   19.33	 -355.58	   13.12
     58.7866	   17.00	   19.20	 -355.45	   13.13
     58.8201	   21.00	   19.08	 -351.33	   13.13
     58.8535	   15.00	   18.97	 -357.22	   13.14
     58.8869	   23.00	   18.87	 -349.12	   13.15
     58.9203	   24.00	   19.66	 -348.91	   13.15
     58.9538	   23.00	   19.58	 -349.83	   13.16
     58.9872	   16.00	   19.51	 -356.76	   13.16
     59.0206	   28.00	   19.44	 -344.69	   13.17
     59.0540	   27.00	   19.38	 -345.63	   13.17
     59.0874	   18.00	   19.76	 -355.01	   13.18
     59.1209	   17.00	   19.72	 -355.97	   13.19
     59.1543	   14.00	   19.68	 -358.93	   13.19
     59.1877	   12.00	   19.64	 -360.89	   13.20
     59.2211	   20.00	   19.61	 -352.86	   13.20
     59.2545	   18.00	   19.58	 -354.83	   13.21
     59.2880	   18.00	   19.56	 -354.81	   13.21
     59.3214	   33.00	   19.53	 -339.78	   13.22
     59.3548	   20.00	   19.52	 -352.77	   13.23
     59.3882	   15.00	   19.50	 -357.75	   13.23
     59.4217	   25.00	   19.49	 -347.74	   13.24
     59.4551	   28.00	   19.48	 -344.73	   13.24
     59.4885	   23.00	   19.48	 -349.73	   13.25
     59.5219	   25.00	   19.48	 -347.73	   13.25
     59.5554	   22.00	   19.48	 -350.73	   13.26
     59.5888	   28.00	   19.49	 -344.74	   13.27
     59.6222	   21.00	   19.49	 -351.74	   13.27
     59.6556	   18.00	   19.51	 -354.76	   13.28
     59.6890	   28.00	   19.52	 -344.77	   13.28
     59.7225	   21.00	   19.54	 -351.79	   13.29
     59.7559	   15.00	   19.56	 -357.81	   13.29
     59.7893	   19.00	   19.58	 -353.83	   13.30
     59.8227	   19.00	   19.61	 -353.86	   13.31
     59.8562	   37.00	   19.64	 -335.89	   13.31
     59.8896	   19.00	   19.67	 -353.92	   13.32
     59.9230	   20.00	   19.71	 -352.96	   13.32
     59.9564	   14.00	   19.75	 -359.00	   13.33
     59.9898	   22.00	   19.79	 -351.04	   13.33
     60.0233	   28.00	   19.84	 -345.09	   13.34
     60.0567	   28.00	   19.89	 -345.14	   13.35
     60.0901	   27.00	   19.94	 -346.19	   13.35
     60.1235	   22.00	   20.00	 -351.25	   13.36
     60.1570	   25.00	   20.06	 -348.31	   13.36
     60.1904	   31.00	   20.13	 -342.38	   13.37
     60.2238	   28.00	   20.20	 -345.45	   13.37
     60.2572	   22.00	   20.27	 -351.52	   13.38
     60.2906	   33.00	   20.35	 -340.60	   13.39
     60.3241	   19.00	   20.44	 -354.69	   13.39
     60.3575	   28.00	   20.53	 -345.78	   13.40
     60.3909	   24.00	   20.62	 -349.87	   13.40
     60.4243	   19.00	   20.73	 -354.98	   13.41
     60.4578	   35.00	   20.83	 -339.08	   13.41
     60.4912	   30.00	   20.95	 -344.20	   13.42
     60.5246	   23.00	   20.47	 -350.72	   13.43
     60.5580	   27.00	   20.61	 -346.86	   13.43
     60.5915	   29.00	   20.76	 -345.01	   13.44
     60.6249	   20.00	   20.91	 -354.16	   13.44
     60.6583	   16.00	   20.77	 -358.02	   13.45
     60.6917	   22.00	   20.95	 -352.20	   13.45
     60.7251	   20.00	   21.13	 -354.38	   13.46
     60.7586	   24.00	   21.33	 -350.58	   13.47
     60.7920	   33.00	   21.53	 -341.78	   13.47
     60.8254	   27.00	   21.75	 -348.00	   13.48
     60.8588	   25.00	   21.98	 -350.23	   13.48
     60.8923	   22.00	   22.22	 -353.47	   13.49
     60.9257	   23.00	   22.48	 -352.73	   13.49
     60.9591	   29.00	   22.75	 -347.00	   13.50
     60.9925	   25.00	   23.04	 -351.29	   13.51
     61.0259	   21.00	   23.35	 -355.60	   13.51
     61.0594	   27.00	   23.68	 -349.93	   13.52
     61.0928	   24.00	   24.03	 -353.28	   13.52
     61.1262	   36.00	   24.41	 -341.66	   13.53
     61.1596	   21.00	   24.81	 -357.06	   13.53
     61.1931	   29.00	   25.24	 -349.49	   13.54
     61.2265	   23.00	   25.70	 -355.95	   13.55
     61.2599	   25.00	   26.20	 -354.45	   13.55
     61.2933	   29.00	   26.74	 -350.99	   13.56
     61.3267	   36.00	   27.32	 -344.57	   13.56
     61.3602	   20.00	   27.94	 -361.19	   13.57
     61.3936	   29.00	   28.62	 -352.87	   13.57
     61.4270	   27.00	   29.36	 -355.61	   13.58
     61.4604	   20.00	   30.16	 -363.41	   13.59
     61.4939	   19.00	   31.04	 -365.29	   13.59
     61.5273	   30.00	   32.00	 -355.25	   13.60
     61.5607	   33.00	   33.06	 -353.31	   13.60
     61.5941	   31.00	   34.22	 -356.47	   13.61
     61.6275	   38.00	   35.50	 -350.75	   13.61
     61.6610	   41.00	   36.93	 -349.18	   13.62
     61.6944	   45.00	   38.51	 -346.76	   13.63
     61.7278	   38.00	   40.27	 -355.52	   13.63
     61.7612	   44.00	   42.25	 -351.50	   13.64
     61.7947	   41.00	   44.48	 -356.73	   13.64
     61.8281	   42.00	   47.00	 -358.25	   13.65
     61.8615	   45.00	   49.87	 -358.12	   13.65
     61.8949	   46.00	   53.16	 -360.41	   13.66
     61.9284	   60.00	   56.95	 -350.20	   13.67
     61.9618	   45.00	   61.35	 -369.60	   13.67
     61.9952	   57.00	   66.49	 -362.74	   13.68
     62.0286	   88.00	   72.55	 -337.80	   13.68
     62.0620	   72.00	   79.75	 -361.00	   13.69
     62.0955	   74.00	   88.36	 -367.61	   13.69
     62.1289	  101.00	   98.64	 -350.89	   13.70
     62.1623	  118.00	  111.00	 -346.25	   13.71
     62.1957	  129.00	  125.84	 -350.09	   13.71
     62.2292	  171.00	  143.63	 -325.88	   13.72
     62.2626	  197.00	  164.79	 -321.04	   13.72
     62.2960	  211.00	  189.63	 -331.88	   13.73
     62.3294	  224.00	  218.18	 -347.43	   13.73
     62.3628	  269.00	  249.81	 -334.06	   13.74
     62.3963	  376.00	  282.90	 -260.15	   13.75
     62.4297	  343.00	  314.49	 -324.74	   13.75
     62.4631	  416.00	  340.70	 -277.95	   13.76
     62.4965	  450.00	  357.86	 -261.11	   13.76
     62.5300	  454.00	  364.20	 -263.45	   13.77
     62.5634	  459.00	  360.46	 -254.71	   13.77
     62.5968	  395.00	  348.87	 -307.12	   13.78
     62.6302	  397.00	  331.48	 -287.73	   13.79
     62.6637	  359.00	  309.45	 -303.70	   13.79
     62.6971	  310.00	  283.69	 -326.94	   13.80
     62.7305	  293.00	  255.53	 -315.78	   13.80
     62.7639	  237.00	  226.80	 -343.05	   13.81
     62.7973	  219.00	  199.31	 -333.56	   13.81
     62.8308	  208.00	  174.30	 -319.55	   13.82
     62.8642	  142.00	  152.34	 -363.59	   13.83
     62.8976	  127.00	  133.52	 -359.77	   13.83
     62.9310	  106.00	  117.61	 -364.86	   13.84
     62.9645	   97.00	  104.27	 -360.52	   13.84
     62.9979	   95.00	   93.12	 -351.37	   13.85
     63.0313	   90.00	   83.80	 -347.05	   13.85
     63.0647	   68.00	   75.98	 -361.23	   13.86
     63.0981	   68.00	   69.41	 -354.66	   13.87
     63.1316	   66.00	   63.84	 -351.09	   13.87
     63.1650	   63.00	   59.11	 -349.36	   13.88
     63.1984	   61.00	   55.05	 -347.30	   13.88
     63.2318	   46.00	   51.54	 -358.79	   13.89
     63.2653	   52.00	   48.50	 -349.75	   13.89
     63.2987	   56.00	   45.83	 -343.08	   13.90
     63.3321	   39.00	   43.49	 -357.74	   13.91
     63.3655	   55.00	   41.42	 -339.67	   13.91
     63.3989	   48.00	   39.57	 -344.82	   13.92
     63.4324	   33.00	   37.93	 -358.18	   13.92
     63.4658	   32.00	   36.45	 -357.70	   13.93
     63.4992	   39.00	   35.13	 -349.38	   13.93
     63.5326	   31.00	   33.93	 -356.18	   13.94
     63.5661	   25.00	   32.85	 -361.10	   13.95
     63.5995	   36.00	   31.86	 -349.11	   13.95
     63.6329	   21.00	   30.97	 -363.22	   13.96
     63.6663	   27.00	   30.15	 -356.40	   13.96
     63.6997	   21.00	   29.40	 -361.65	   13.97
     63.7332	   32.00	   28.71	 -349.96	   13.97
     63.7666	   31.00	   28.08	 -350.33	   13.98
     63.8000	   28.00	   27.50	 -352.75	   13.99
     63.8334	   31.00	   26.96	 -349.21	   13.99
     63.8669	   22.00	   26.46	 -357.71	   14.00
     63.9003	   23.00	   26.00	 -356.25	   14.00
     63.9337	   17.00	   25.58	 -361.83	   14.01
     63.9671	   33.00	   25.18	 -345.43	   14.01
     64.0005	   20.00	   24.81	 -358.06	   14.02
     64.0340	   36.00	   24.47	 -341.72	   14.03
     64.0674	   28.00	   24.15	 -349.40	   14.03
     64.1008	   12.00	   23.83	 -365.08	   14.02
     64.1342	   33.00	   23.54	 -343.79	   14.01
     64.1677	   24.00	   23.26	 -352.51	   14.00
     64.2011	   28.00	   23.00	 -348.25	   13.99
     64.2345	   15.00	   22.76	 -361.01	   13.98
     64.2679	   17.00	   22.53	 -358.78	   13.97
     64.3014	   18.00	   22.31	 -357.56	   13.96
     64.3348	   25.00	   22.11	 -350.36	   13.95
     64.3682	   19.00	   21.91	 -356.16	   13.94
     64.4016	   32.00	   21.73	 -342.98	   13.93
     64.4350	   17.00	   21.56	 -357.81	   13.92
     64.4685	   23.00	   21.40	 -351.65	   13.91
     64.5019	   19.00	   21.25	 -355.50	   13.90
     64.5353	   24.00	   21.11	 -350.36	   13.89
     64.5687	   22.00	   20.97	 -352.22	   13.88
     64.6022	   21.00	   20.84	 -353.09	   13.87
     64.6356	   18.00	   20.73	 -355.98	   13.86
     64.6690	   19.00	   20.61	 -354.86	   13.85
     64.7024	   28.00	   20.51	 -345.76	   13.84
     64.7358	   25.00	   20.42	 -348.67	   13.83
     64.7693	   25.00	   20.33	 -348.58	   13.82
     64.8027	   20.00	   20.25	 -353.50	   13.81
     64.8361	   21.00	   20.17	 -352.42	   13.80
     64.8695	   10.00	   20.11	 -363.36	   13.80
     64.9030	   17.00	   20.05	 -356.30	   13.79
     64.9364	   24.00	   20.00	 -349.25	   13.78
     64.9698	   12.00	   19.96	 -361.21	   13.77
     65.0032	   14.00	   19.93	 -359.18	   13.76
     65.0367	   16.00	   19.91	 -357.16	   13.75
     65.0701	   25.00	   19.90	 -348.15	   13.74
     65.1035	   18.00	   19.90	 -355.15	   13.73
     65.1369	   21.00	   19.92	 -352.17	   13.72
     65.1703	   18.00	   19.96	 -355.21	   13.71
     65.2038	   16.00	   20.02	 -357.27	   13.70
     65.2372	   14.00	   20.11	 -359.36	   13.69
     65.2706	   17.00	   20.22	 -356.47	   13.68
     65.3040	   21.00	   20.37	 -352.62	   13.67
     65.3374	   16.00	   20.56	 -357.81	   13.66
     65.3709	   18.00	   20.80	 -356.05	   13.65
     65.4043	   23.00	   21.10	 -351.35	   13.64
     65.4377	   21.00	   21.47	 -353.72	   13.63
     65.4711	   24.00	   21.92	 -351.17	   13.62
     65.5046	   21.00	   22.46	 -354.71	   13.61
     65.5380	   22.00	   23.07	 -354.32	   13.60
     65.5714	   17.00	   23.76	 -360.01	   13.59
     65.6048	   29.00	   24.48	 -348.73	   13.58
     65.6383	   22.00	   25.18	 -356.43	   13.57
     65.6717	   22.00	   25.76	 -357.01	   13.56
     65.7051	   34.00	   26.16	 -345.41	   13.55
     65.7385	   18.00	   26.32	 -361.57	   13.54
     65.7719	   23.00	   26.24	 -356.49	   13.53
     65.8054	   17.00	   25.98	 -362.23	   13.52
     65.8388	   19.00	   25.58	 -359.83	   13.51
     65.8722	   24.00	   25.08	 -354.33	   13.50
     65.9056	   25.00	   24.48	 -352.73	   13.49
     65.9391	   21.00	   23.81	 -356.06	   13.48
     65.9725	   19.00	   23.11	 -357.36	   13.47
     66.0059	   11.00	   22.41	 -364.66	   13.46
     66.0393	   22.00	   21.75	 -353.00	   13.45
     66.0727	   27.00	   21.15	 -347.40	   13.44
     66.1062	   19.00	   20.62	 -354.87	   13.43
     66.1396	   17.00	   20.16	 -356.41	   13.42
     66.1730	   21.00	   18.92	 -351.17	   13.41
     66.2064	   16.00	   18.59	 -355.84	   13.40
     66.2399	   17.00	   18.32	 -354.57	   13.39
     66.2733	   21.00	   18.08	 -350.33	   13.38
     66.3067	   18.00	   17.88	 -353.13	   13.37
     66.3401	   20.00	   17.28	 -350.53	   13.36
     66.3736	   23.00	   17.14	 -347.39	   13.35
     66.4070	   10.00	   17.01	 -360.26	   13.34
     66.4404	   18.00	   16.91	 -352.16	   13.33
     66.4738	   18.00	   16.81	 -352.06	   13.32
     66.5072	   12.00	   16.73	 -357.98	   13.31
     66.5407	   19.00	   16.65	 -350.90	   13.30
     66.5741	    9.00	   16.58	 -360.83	   13.29
     66.6075	   14.00	   16.52	 -355.77	   13.28
     66.6409	   14.00	   16.47	 -355.72	   13.27
     66.6744	   12.00	   16.42	 -357.67	   13.26
     66.7078	   14.00	   16.37	 -355.62	   13.25
     66.7412	   12.00	   16.33	 -357.58	   13.24
     66.7746	   18.00	   16.29	 -351.54	   13.23
     66.8080	   10.00	   16.25	 -359.50	   13.22
     66.8415	   14.00	   16.22	 -355.47	   13.21
     66.8749	   17.00	   16.18	 -352.43	   13.20
     66.9083	   17.00	   16.15	 -352.40	   13.19
     66.9417	   16.00	   16.12	 -353.37	   13.18
     66.9752	   23.00	   16.09	 -346.34	   13.17
     67.0086	   20.00	   16.07	 -349.32	   13.17
     67.0420	   15.00	   16.04	 -354.29	   13.16
     67.0754	   15.00	   16.02	 -354.27	   13.15
     67.1088	   20.00	   15.99	 -349.24	   13.14
     67.1423	   15.00	   15.97	 -354.22	   13.13
     67.1757	   25.00	   15.95	 -344.20	   13.12
     67.2091	   11.00	   16.01	 -358.26	   13.11
     67.2425	   17.00	   15.99	 -352.24	   13.10
     67.2760	   16.00	   15.97	 -353.22	   13.09
     67.3094	   11.00	   15.95	 -358.20	   13.08
     67.3428	   17.00	   15.94	 -352.19	   13.07
     67.3762	   12.00	   15.92	 -357.17	   13.06
     67.4097	   19.00	   15.94	 -350.19	   13.05
     67.4431	   19.00	   15.93	 -350.18	   13.04
     67.4765	   12.00	   15.92	 -357.17	   13.03
     67.5099	   10.00	   15.90	 -359.15	   13.02
     67.5433	   11.00	   15.89	 -358.14	   13.01
     67.5768	   16.00	   15.88	 -353.13	   13.00
     67.6102	   18.00	   15.86	 -351.11	   12.99
     67.6436	   18.00	   15.85	 -351.10	   12.98
     67.6770	   15.00	   15.84	 -354.09	   12.97
     67.7104	    9.00	   15.83	 -360.08	   12.96
     67.7439	    8.00	   15.82	 -361.07	   12.95
     67.7773	   20.00	   15.81	 -349.06	   12.94
     67.8107	   11.00	   15.80	 -358.05	   12.93
     67.8441	   15.00	   15.79	 -354.04	   12.92
     67.8776	   10.00	   15.78	 -359.03	   12.91
     67.9110	   15.00	   15.77	 -354.02	   12.90
     67.9444	   15.00	   15.76	 -354.01	   12.89
     67.9778	   18.00	   15.75	 -351.00	   12.88
     68.0113	    9.00	   15.74	 -359.99	   12.87
     68.0447	   16.00	   15.73	 -352.98	   12.86
     68.0781	   20.00	   15.73	 -348.98	   12.85
     68.1115	   14.00	   15.72	 -354.97	   12.84
     68.1449	   16.00	   15.71	 -352.96	   12.83
     68.1784	   11.00	   15.70	 -357.95	   12.82
     68.2118	   19.00	   15.70	 -349.95	   12.81
     68.2452	   12.00	   15.69	 -356.94	   12.80
     68.2786	   17.00	   15.68	 -351.93	   12.79
     68.3121	   16.00	   15.68	 -352.93	   12.78
     68.3455	   21.00	   15.67	 -347.92	   12.77
     68.3789	   16.00	   15.67	 -352.92	   12.76
     68.4123	   11.00	   15.66	 -357.91	   12.75
     68.4457	   15.00	   15.66	 -353.91	   12.74
     68.4792	   12.00	   15.65	 -356.90	   12.73
     68.5126	   10.00	   15.65	 -358.90	   12.72
     68.5460	   12.00	   15.64	 -356.89	   12.71
     68.5794	   15.00	   15.64	 -353.89	   12.70
     68.6129	   17.00	   15.64	 -351.89	   12.69
     68.6463	   22.00	   15.63	 -346.88	   12.68
     68.6797	   19.00	   15.63	 -349.88	   12.67
     68.7131	   22.00	   15.63	 -346.88	   12.66
     68.7466	   20.00	   15.63	 -348.88	   12.65
     68.7800	   16.00	   15.63	 -352.88	   12.64
     68.8134	   14.00	   15.63	 -354.88	   12.63
     68.8468	   14.00	   15.63	 -354.88	   12.62
     68.8802	   14.00	   15.63	 -354.88	   12.61
     68.9137	   17.00	   15.63	 -351.88	   12.60
     68.9471	   19.00	   15.63	 -349.88	   12.59
     68.9805	   11.00	   15.63	 -357.88	   12.58
     69.0139	   16.00	   15.64	 -352.89	   12.57
     69.0474	   12.00	   15.64	 -356.89	   12.56
     69.0808	    7.00	   15.64	 -361.89	   12.55
     69.1142	   18.00	   15.65	 -350.90	   12.55
     69.1476	   12.00	   15.66	 -356.91	   12.54
     69.1810	   15.00	   15.66	 -353.91	   12.53
     69.2145	   23.00	   15.67	 -345.92	   12.52
     69.2479	   27.00	   15.68	 -341.93	   12.51
     69.2813	   12.00	   15.69	 -356.94	   12.50
     69.3147	   21.00	   15.70	 -347.95	   12.49
     69.3482	   19.00	   15.72	 -349.97	   12.48
     69.3816	   15.00	   15.73	 -353.98	   12.47
     69.4150	   20.00	   15.73	 -348.98	   12.46
     69.4484	   21.00	   15.75	 -348.00	   12.45
     69.4818	   16.00	   15.77	 -353.02	   12.44
     69.5153	   12.00	   15.79	 -357.04	   12.43
     69.5487	   17.00	   15.82	 -352.07	   12.42
     69.5821	   22.00	   15.84	 -347.09	   12.41
     69.6155	   11.00	   15.86	 -358.11	   12.40
     69.6490	   17.00	   15.90	 -352.15	   12.39
     69.6824	   16.00	   15.93	 -353.18	   12.38
     69.7158	   25.00	   15.98	 -344.23	   12.37
     69.7492	   10.00	   16.02	 -359.27	   12.36
     69.7826	   14.00	   16.07	 -355.32	   12.35
     69.8161	   21.00	   16.12	 -348.37	   12.34
     69.8495	   17.00	   16.18	 -352.43	   12.33
     69.8829	   14.00	   16.25	 -355.50	   12.32
     69.9163	   15.00	   16.32	 -354.57	   12.31
     69.9498	   18.00	   16.41	 -351.66	   12.30
     69.9832	   23.00	   16.50	 -346.75	   12.29
     70.0166	   17.00	   16.60	 -352.85	   12.28
     70.0500	   16.00	   16.71	 -353.96	   12.27
     70.0835	   22.00	   16.83	 -348.08	   12.26
     70.1169	   18.00	   16.97	 -352.22	   12.25
     70.1503	   14.00	   17.13	 -356.38	   12.24
     70.1837	   18.00	   17.52	 -352.77	   12.23
     70.2171	   15.00	   17.72	 -355.97	   12.22
     70.2506	   21.00	   17.96	 -350.21	   12.21
     70.2840	   21.00	   18.22	 -350.47	   12.20
     70.3174	   28.00	   18.53	 -343.78	   12.19
     70.3508	   32.00	   18.88	 -340.13	   12.18
     70.3843	   20.00	   19.40	 -352.65	   12.17
     70.4177	   20.00	   19.88	 -353.13	   12.16
     70.4511	   19.00	   20.44	 -354.69	   12.15
     70.4845	   24.00	   21.10	 -350.35	   12.14
     70.5179	   14.00	   21.87	 -361.12	   12.13
     70.5514	   17.00	   22.78	 -359.03	   12.12
     70.5848	   29.00	   23.85	 -348.10	   12.11
     70.6182	   20.00	   25.11	 -358.36	   12.10
     70.6516	   33.00	   26.56	 -346.81	   12.09
     70.6851	   27.00	   28.23	 -354.48	   12.08
     70.7185	   42.00	   30.11	 -341.36	   12.07
     70.7519	   25.00	   32.16	 -360.41	   12.06
     70.7853	   42.00	   34.29	 -345.54	   12.05
     70.8187	   56.00	   36.35	 -333.60	   12.04
     70.8522	   44.00	   38.15	 -347.40	   12.03
     70.8856	   52.00	   39.49	 -340.74	   12.02
     70.9190	   49.00	   40.24	 -344.49	   12.01
     70.9524	   45.00	   40.37	 -348.62	   12.00
     70.9859	   36.00	   39.97	 -357.22	   11.99
     71.0193	   41.00	   39.18	 -351.43	   11.98
     71.0527	   45.00	   38.09	 -346.34	   11.97
     71.0861	   39.00	   36.75	 -351.00	   11.96
     71.1196	   25.00	   35.20	 -363.45	   11.95
     71.1530	   34.00	   33.58	 -352.83	   11.94
     71.1864	   38.00	   31.77	 -347.02	   11.93
     71.2198	   24.00	   29.96	 -359.21	   11.93
     71.2532	   24.00	   28.24	 -357.49	   11.92
     71.2867	   39.00	   26.66	 -340.91	   11.91
     71.3201	   22.00	   25.26	 -356.51	   11.90
     71.3535	   22.00	   24.03	 -355.28	   11.89
     71.3869	   20.00	   23.02	 -356.27	   11.88
     71.4204	   18.00	   22.12	 -357.37	   11.87
     71.4538	   30.00	   21.34	 -344.59	   11.86
     71.4872	   20.00	   20.68	 -353.93	   11.85
     71.5206	   23.00	   20.12	 -350.37	   11.84
     71.5540	   15.00	   19.65	 -357.90	   11.83
     71.5875	   16.00	   19.24	 -356.49	   11.82
     71.6209	   15.00	   18.89	 -357.14	   11.81
     71.6543	   19.00	   18.59	 -352.84	   11.80
     71.6877	   23.00	   18.33	 -348.58	   11.79
     71.7212	   18.00	   18.10	 -353.35	   11.78
     71.7546	   16.00	   17.91	 -355.16	   11.77
     71.7880	   10.00	   17.74	 -360.99	   11.76
     71.8214	   17.00	   17.59	 -353.84	   11.75
     71.8548	   18.00	   17.46	 -352.71	   11.74
     71.8883	   21.00	   17.35	 -349.60	   11.73
     71.9217	   20.00	   17.25	 -350.50	   11.72
     71.9551	   17.00	   17.17	 -353.42	   11.71
     71.9885	   21.00	   17.10	 -349.35	   11.70
     72.0220	   18.00	   17.04	 -352.29	   11.69
     72.0554	   20.00	   16.99	 -350.24	   11.68
     72.0888	   23.00	   16.95	 -347.20	   11.67
     72.1222	   16.00	   16.91	 -354.16	   11.66
     72.1556	   12.00	   16.89	 -358.14	   11.65
     72.1891	   10.00	   16.87	 -360.12	   11.64
     72.2225	   18.00	   16.86	 -352.11	   11.63
     72.2559	   28.00	   16.86	 -342.11	   11.62
     72.2893	   25.00	   16.87	 -345.12	   11.61
     72.3228	   17.00	   16.88	 -353.13	   11.60
     72.3562	   12.00	   16.90	 -358.15	   11.59
     72.3896	   17.00	   16.92	 -353.17	   11.58
     72.4230	   21.00	   16.95	 -349.20	   11.57
     72.4565	   14.00	   16.99	 -356.24	   11.56
     72.4899	   11.00	   17.04	 -359.29	   11.55
     72.5233	   22.00	   17.09	 -348.34	   11.54
     72.5567	   20.00	   17.15	 -350.40	   11.53
     72.5901	   11.00	   17.22	 -359.47	   11.52
     72.6236	   19.00	   17.30	 -351.55	   11.51
     72.6570	   14.00	   17.39	 -356.64	   11.50
     72.6904	   21.00	   17.49	 -349.74	   11.49
     72.7238	   25.00	   17.60	 -345.85	   11.48
     72.7573	   16.00	   17.72	 -354.97	   11.47
     72.7907	   16.00	   17.85	 -355.10	   11.46
     72.8241	   19.00	   17.99	 -352.24	   11.45
     72.8575	   21.00	   18.16	 -350.41	   11.44
     72.8909	   20.00	   18.33	 -351.58	   11.43
     72.9244	   11.00	   18.53	 -360.78	   11.42
     72.9578	   17.00	   18.75	 -355.00	   11.41
     72.9912	   22.00	   18.99	 -350.24	   11.40
     73.0246	   27.00	   19.25	 -345.50	   11.39
     73.0581	   19.00	   19.55	 -353.80	   11.38
     73.0915	   20.00	   19.87	 -353.12	   11.37
     73.1249	   29.00	   20.24	 -344.49	   11.36
     73.1583	   28.00	   20.65	 -345.90	   11.35
     73.1917	   17.00	   21.10	 -357.35	   11.34
     73.2252	   18.00	   21.61	 -356.86	   11.33
     73.2586	   19.00	   22.19	 -356.44	   11.32
     73.2920	   16.00	   22.85	 -360.10	   11.31
     73.3254	   27.00	   23.59	 -349.84	   11.31
     73.3589	   24.00	   24.45	 -353.70	   11.30
     73.3923	   25.00	   25.43	 -353.68	   11.29
     73.4257	   25.00	   26.56	 -354.81	   11.28
     73.4591	   20.00	   27.88	 -361.13	   11.27
     73.4926	   39.00	   29.40	 -343.65	   11.26
     73.5260	   30.00	   31.18	 -354.43	   11.25
     73.5594	   32.00	   33.26	 -354.51	   11.24
     73.5928	   21.00	   35.67	 -367.92	   11.23
     73.6262	   44.00	   38.48	 -347.73	   11.22
     73.6597	   43.00	   41.73	 -351.98	   11.21
     73.6931	   47.00	   45.46	 -351.71	   11.20
     73.7265	   48.00	   49.68	 -354.93	   11.19
     73.7599	   46.00	   54.34	 -361.59	   11.18
     73.7934	   50.00	   59.31	 -362.56	   11.17
     73.8268	   78.00	   64.36	 -339.61	   11.16
     73.8602	   69.00	   69.13	 -353.38	   11.15
     73.8936	   90.00	   73.18	 -336.43	   11.14
     73.9270	   96.00	   76.09	 -333.34	   11.13
     73.9605	  104.00	   77.64	 -326.89	   11.12
     73.9939	  102.00	   77.84	 -329.09	   11.11
     74.0273	   86.00	   76.91	 -344.16	   11.10
     74.0607	   95.00	   75.14	 -333.39	   11.09
     74.0942	   87.00	   72.73	 -338.98	   11.08
     74.1276	   74.00	   69.81	 -349.06	   11.07
     74.1610	   74.00	   66.43	 -345.68	   11.06
     74.1944	   58.00	   62.67	 -357.92	   11.05
     74.2278	   66.00	   58.69	 -345.94	   11.04
     74.2613	   71.00	   54.70	 -336.95	   11.03
     74.2947	   52.00	   50.88	 -352.13	   11.02
     74.3281	   54.00	   47.40	 -346.65	   11.01
     74.3615	   43.00	   44.33	 -354.58	   11.00
     74.3950	   28.00	   41.72	 -366.97	   10.99
     74.4284	   34.00	   39.57	 -358.82	   10.98
     74.4618	   29.00	   37.86	 -362.11	   10.97
     74.4952	   43.00	   36.57	 -346.82	   10.96
     74.5286	   43.00	   35.67	 -345.92	   10.95
     74.5621	   28.00	   35.15	 -360.40	   10.94
     74.5955	   25.00	   35.00	 -363.25	   10.93
     74.6289	   33.00	   35.19	 -355.44	   10.92
     74.6623	   51.00	   35.74	 -337.99	   10.91
     74.6958	   44.00	   36.55	 -345.80	   10.90
     74.7292	   39.00	   37.76	 -352.01	   10.89
     74.7626	   42.00	   39.25	 -350.50	   10.87
     74.7960	   37.00	   40.95	 -357.20	   10.86
     74.8295	   49.00	   42.72	 -346.97	   10.85
     74.8629	   50.00	   44.41	 -347.66	   10.83
     74.8963	   46.00	   45.75	 -353.00	   10.82
     74.9297	   52.00	   46.64	 -347.89	   10.81
     74.9631	   56.00	   46.93	 -344.18	   10.79
     74.9966	   48.00	   46.65	 -351.90	   10.78
     75.0300	   45.00	   45.88	 -354.13	   10.76
     75.0634	   58.00	   44.81	 -340.06	   10.75
     75.0968	   60.00	   43.41	 -336.66	   10.74
     75.1303	   51.00	   41.78	 -344.03	   10.72
     75.1637	   38.00	   39.96	 -355.21	   10.71
     75.1971	   45.00	   37.96	 -346.21	   10.70
     75.2305	   31.00	   35.86	 -358.11	   10.68
     75.2639	   33.00	   33.74	 -353.99	   10.67
     75.2974	   36.00	   31.73	 -348.98	   10.66
     75.3308	   19.00	   29.81	 -364.06	   10.64
     75.3642	   30.00	   28.06	 -351.31	   10.63
     75.3976	   29.00	   26.50	 -350.75	   10.62
     75.4311	   27.00	   25.13	 -351.38	   10.60
     75.4645	   24.00	   23.93	 -353.18	   10.59
     75.4979	   24.00	   22.88	 -352.13	   10.58
     75.5313	   22.00	   21.96	 -353.21	   10.56
     75.5648	   16.00	   21.17	 -358.42	   10.55
     75.5982	   25.00	   20.47	 -348.72	   10.54
     75.6316	   19.00	   19.87	 -354.12	   10.52
     75.6650	   25.00	   19.33	 -347.58	   10.51
     75.6984	   21.00	   18.86	 -351.11	   10.50
     75.7319	   21.00	   18.44	 -350.69	   10.48
     75.7653	   14.00	   18.07	 -357.32	   10.47
     75.7987	   25.00	   17.74	 -345.99	   10.46
     75.8321	   19.00	   17.44	 -351.69	   10.44
     75.8656	   20.00	   17.17	 -350.42	   10.43
     75.8990	   18.00	   16.92	 -352.17	   10.42
     75.9324	   11.00	   16.69	 -358.94	   10.40
     75.9658	   16.00	   16.49	 -353.74	   10.39
     75.9992	   17.00	   16.30	 -352.55	   10.38
     76.0327	   16.00	   16.13	 -353.38	   10.36
     76.0661	   28.00	   15.97	 -341.22	   10.35
     76.0995	   27.00	   15.82	 -342.07	   10.34
     76.1329	   12.00	   15.68	 -356.93	   10.32
     76.1664	   17.00	   15.55	 -351.80	   10.31
     76.1998	   18.00	   15.43	 -350.68	   10.30
     76.2332	   18.00	   15.32	 -350.57	   10.28
     76.2666	   14.00	   15.22	 -354.47	   10.27
     76.3000	    9.00	   15.12	 -359.37	   10.26
     76.3335	    8.00	   15.03	 -360.28	   10.24
     76.3669	   17.00	   14.94	 -351.19	   10.23
     76.4003	   20.00	   14.86	 -348.11	   10.22
     76.4337	   18.00	   14.78	 -350.03	   10.20
     76.4672	   17.00	   14.71	 -350.96	   10.19
     76.5006	   15.00	   14.64	 -352.89	   10.18
     76.5340	   21.00	   14.58	 -346.83	   10.16
     76.5674	   18.00	   14.52	 -349.77	   10.15
     76.6008	   11.00	   14.46	 -356.71	   10.14
     76.6343	    9.00	   14.40	 -358.65	   10.12
     76.6677	    9.00	   14.35	 -358.60	   10.11
     76.7011	   12.00	   14.30	 -355.55	   10.10
     76.7345	   18.00	   14.25	 -349.50	   10.08
     76.7680	   17.00	   14.21	 -350.46	   10.07
     76.8014	   16.00	   14.17	 -351.42	   10.06
     76.8348	   12.00	   14.13	 -355.38	   10.04
     76.8682	   11.00	   14.09	 -356.34	   10.03
     76.9016	   18.00	   14.05	 -349.30	   10.02
     76.9351	   12.00	   14.02	 -355.27	   10.00
     76.9685	   20.00	   13.99	 -347.24	    9.99
     77.0019	   14.00	   13.96	 -353.21	    9.98
     77.0353	   15.00	   13.93	 -352.18	    9.96
     77.0688	   18.00	   13.90	 -349.15	    9.95
     77.1022	   16.00	   13.88	 -351.13	    9.93
     77.1356	   15.00	   13.86	 -352.11	    9.92
     77.1690	   12.00	   13.83	 -355.08	    9.91
     77.2025	   21.00	   13.82	 -346.07	    9.89
     77.2359	   16.00	   13.80	 -351.05	    9.88
     77.2693	   10.00	   13.78	 -357.03	    9.87
     77.3027	    9.00	   13.77	 -358.02	    9.85
     77.3361	   21.00	   13.76	 -346.01	    9.84
     77.3696	    9.00	   13.75	 -358.00	    9.83
     77.4030	   12.00	   13.74	 -354.99	    9.81
     77.4364	   14.00	   13.74	 -352.99	    9.80
     77.4698	   10.00	   13.73	 -356.98	    9.79
     77.5033	   18.00	   13.73	 -348.98	    9.77
     77.5367	   19.00	   13.73	 -347.98	    9.76
     77.5701	   15.00	   13.74	 -351.99	    9.75
     77.6035	   14.00	   13.75	 -353.00	    9.73
     77.6369	   18.00	   13.76	 -349.01	    9.72
     77.6704	   18.00	   13.77	 -349.02	    9.71
     77.7038	   18.00	   13.79	 -349.04	    9.69
     77.7372	   16.00	   13.81	 -351.06	    9.68
     77.7706	   22.00	   13.64	 -344.89	    9.67
     77.8041	   15.00	   13.67	 -351.92	    9.65
     77.8375	   17.00	   13.71	 -349.96	    9.64
     77.8709	   14.00	   13.75	 -353.00	    9.63
     77.9043	   20.00	   13.80	 -347.05	    9.61
     77.9378	   15.00	   13.87	 -352.12	    9.60
     77.9712	   10.00	   13.94	 -357.19	    9.59
     78.0046	   15.00	   13.91	 -352.16	    9.57
     78.0380	   19.00	   14.00	 -348.25	    9.56
     78.0714	   15.00	   14.09	 -352.34	    9.55
     78.1049	   14.00	   14.20	 -353.45	    9.53
     78.1383	   24.00	   14.32	 -343.57	    9.52
     78.1717	   16.00	   14.47	 -351.72	    9.51
     78.2051	   12.00	   14.63	 -355.88	    9.49
     78.2385	   17.00	   14.81	 -351.06	    9.48
     78.2720	   17.00	   15.02	 -351.27	    9.47
     78.3054	   17.00	   15.26	 -351.51	    9.45
     78.3388	   18.00	   15.53	 -350.78	    9.44
     78.3722	   18.00	   15.85	 -351.10	    9.43
     78.4057	   21.00	   16.21	 -348.46	    9.41
     78.4391	   14.00	   16.64	 -355.89	    9.40
     78.4725	   12.00	   17.13	 -358.38	    9.39
     78.5059	   15.00	   17.70	 -355.95	    9.37
     78.5394	   16.00	   18.36	 -355.61	    9.36
     78.5728	   19.00	   19.12	 -353.37	    9.35
     78.6062	   31.00	   19.99	 -342.24	    9.33
     78.6396	   27.00	   20.98	 -347.23	    9.32
     78.6730	   30.00	   22.10	 -345.35	    9.31
     78.7065	   18.00	   23.32	 -358.57	    9.29
     78.7399	   19.00	   24.62	 -358.87	    9.28
     78.7733	   27.00	   25.95	 -352.20	    9.27
     78.8067	   27.00	   27.13	 -353.38	    9.25
     78.8402	   38.00	   28.25	 -343.50	    9.24
     78.8736	   31.00	   29.12	 -351.37	    9.23
     78.9070	   29.00	   29.66	 -353.91	    9.21
     78.9404	   38.00	   29.84	 -345.09	    9.20
     78.9738	   34.00	   29.71	 -348.96	    9.19
     79.0073	   25.00	   29.27	 -357.52	    9.17
     79.0407	   31.00	   28.70	 -350.95	    9.16
     79.0741	   29.00	   27.98	 -352.23	    9.15
     79.1075	   32.00	   27.14	 -348.39	    9.13
     79.1410	   25.00	   26.18	 -354.43	    9.12
     79.1744	   30.00	   25.11	 -348.36	    9.10
     79.2078	   24.00	   23.98	 -353.23	    9.09
     79.2412	   22.00	   22.83	 -354.08	    9.08
     79.2747	   25.00	   21.71	 -349.96	    9.06
     79.3081	   20.00	   20.64	 -353.89	    9.05
     79.3415	   29.00	   19.66	 -343.91	    9.04
     79.3749	   18.00	   18.77	 -354.02	    9.02
     79.4083	   30.00	   17.98	 -341.23	    9.01
     79.4418	   23.00	   17.29	 -347.54	    9.00
     79.4752	   19.00	   16.68	 -350.93	    8.98
     79.5086	   20.00	   16.15	 -349.40	    8.97
     79.5420	   17.00	   15.69	 -351.94	    8.96
     79.5755	   14.00	   15.28	 -354.53	    8.94
     79.6089	   25.00	   14.93	 -343.18	    8.93
     79.6423	   14.00	   14.62	 -353.87	    8.92
     79.6757	   11.00	   14.34	 -356.59	    8.90
     79.7091	   11.00	   14.10	 -356.35	    8.89
     79.7426	   11.00	   13.88	 -356.13	    8.88
     79.7760	   16.00	   13.69	 -350.94	    8.86
     79.8094	   12.00	   13.52	 -354.77	    8.85
     79.8428	   10.00	   13.36	 -356.61	    8.84
     79.8763	   15.00	   13.22	 -351.47	    8.82
     79.9097	   12.00	   13.10	 -354.35	    8.81
     79.9431	   17.00	   12.98	 -349.23	    8.80
     79.9765	   15.00	   12.88	 -351.13	    8.78
     80.0099	   18.00	   12.78	 -348.03	    8.77
     80.0434	    9.00	   12.69	 -356.94	    8.76
     80.0768	   17.00	   12.61	 -348.86	    8.74
     80.1102	   10.00	   12.53	 -355.78	    8.73
     80.1436	    9.00	   12.46	 -356.71	    8.72
     80.1771	    8.00	   12.40	 -357.65	    8.70
     80.2105	   17.00	   12.34	 -348.59	    8.69
     80.2439	    7.00	   12.28	 -358.53	    8.68
     80.2773	   10.00	   12.23	 -355.48	    8.66
     80.3108	   15.00	   12.18	 -350.43	    8.65
     80.3442	   23.00	   12.13	 -342.38	    8.64
     80.3776	   14.00	   12.09	 -351.34	    8.62
     80.4110	   10.00	   12.05	 -355.30	    8.61
     80.4444	   19.00	   12.01	 -346.26	    8.60
     80.4779	    8.00	   11.97	 -357.22	    8.58
     80.5113	   10.00	   11.94	 -355.19	    8.57
     80.5447	   15.00	   11.91	 -350.16	    8.56
     80.5781	   17.00	   11.88	 -348.13	    8.54
     80.6116	   18.00	   11.85	 -347.10	    8.53
     80.6450	   17.00	   11.83	 -348.08	    8.52
     80.6784	    9.00	   11.80	 -356.05	    8.50
     80.7118	   14.00	   11.78	 -351.03	    8.49
     80.7452	   23.00	   11.76	 -342.01	    8.48
     80.7787	   18.00	   11.75	 -347.00	    8.46
     80.8121	   16.00	   11.73	 -348.98	    8.45
     80.8455	    8.00	   11.72	 -356.97	    8.44
     80.8789	   16.00	   11.71	 -348.96	    8.42
     80.9124	   11.00	   11.70	 -353.95	    8.41
     80.9458	   11.00	   11.69	 -353.94	    8.40
     80.9792	   19.00	   11.69	 -345.94	    8.38
     81.0126	   17.00	   11.69	 -347.94	    8.37
     81.0460	   12.00	   11.69	 -352.94	    8.36
     81.0795	    8.00	   11.70	 -356.95	    8.34
     81.1129	   18.00	   11.71	 -346.96	    8.33
     81.1463	   16.00	   11.73	 -348.98	    8.31
     81.1797	   18.00	   11.75	 -347.00	    8.30
     81.2132	   18.00	   11.77	 -347.02	    8.29
     81.2466	    9.00	   11.81	 -356.06	    8.27
     81.2800	   18.00	   11.85	 -347.10	    8.26
     81.3134	    8.00	   11.90	 -357.15	    8.25
     81.3468	   16.00	   11.96	 -349.21	    8.23
     81.3803	   12.00	   12.04	 -353.29	    8.22
     81.4137	   16.00	   12.12	 -349.37	    8.21
     81.4471	   10.00	   12.23	 -355.48	    8.19
     81.4805	   15.00	   12.35	 -350.60	    8.18
     81.5140	   18.00	   12.49	 -347.74	    8.17
     81.5474	   10.00	   12.66	 -355.91	    8.15
     81.5808	   11.00	   12.84	 -355.09	    8.14
     81.6142	   12.00	   13.05	 -354.30	    8.13
     81.6477	   17.00	   13.28	 -349.53	    8.11
     81.6811	   14.00	   13.52	 -352.77	    8.10
     81.7145	   25.00	   13.75	 -342.00	    8.09
     81.7479	    8.00	   13.98	 -359.23	    8.07
     81.7813	   21.00	   14.16	 -346.41	    8.06
     81.8148	   16.00	   14.30	 -351.55	    8.05
     81.8482	   23.00	   14.37	 -344.62	    8.03
     81.8816	   21.00	   14.38	 -346.63	    8.02
     81.9150	   14.00	   14.33	 -353.58	    8.01
     81.9485	   17.00	   14.24	 -350.49	    7.99
     81.9819	   22.00	   14.12	 -345.37	    7.98
     82.0153	    6.00	   13.97	 -361.22	    7.97
     82.0487	   18.00	   13.79	 -349.04	    7.95
     82.0821	   19.00	   13.60	 -347.85	    7.94
     82.1156	   18.00	   13.39	 -348.64	    7.93
     82.1490	   14.00	   13.16	 -352.41	    7.91
     82.1824	   15.00	   12.93	 -351.18	    7.90
     82.2158	   15.00	   12.69	 -350.94	    7.89
     82.2493	   15.00	   12.47	 -350.72	    7.87
     82.2827	   17.00	   12.26	 -348.51	    7.86
     82.3161	   19.00	   12.07	 -346.32	    7.85
     82.3495	   16.00	   11.90	 -349.15	    7.83
     82.3829	   12.00	   11.74	 -352.99	    7.82
     82.4164	   20.00	   11.60	 -344.85	    7.81
     82.4498	   18.00	   11.48	 -346.73	    7.79
     82.4832	   17.00	   11.38	 -347.63	    7.79
     82.5166	   12.00	   11.30	 -352.55	    7.79
     82.5501	   11.00	   11.23	 -353.48	    7.80
     82.5835	   15.00	   11.17	 -349.42	    7.80
     82.6169	   16.00	   11.11	 -348.36	    7.81
     82.6503	   17.00	   11.07	 -347.32	    7.81
     82.6838	   12.00	   11.12	 -352.37	    7.81
     82.7172	   11.00	   11.09	 -353.34	    7.82
     82.7506	   15.00	   11.06	 -349.31	    7.82
     82.7840	   16.00	   11.03	 -348.28	    7.83
     82.8174	   25.00	   10.94	 -339.19	    7.83
     82.8509	   18.00	   10.92	 -346.17	    7.84
     82.8843	   16.00	   10.91	 -348.16	    7.84
     82.9177	   11.00	   10.94	 -353.19	    7.84
     82.9511	   15.00	   10.93	 -349.18	    7.85
     82.9846	   18.00	   10.92	 -346.17	    7.85
     83.0180	   10.00	   10.91	 -354.16	    7.86
     83.0514	    9.00	   10.87	 -355.12	    7.86
     83.0848	   11.00	   10.86	 -353.11	    7.86
     83.1182	   17.00	   10.86	 -347.11	    7.87
     83.1517	   15.00	   10.86	 -349.11	    7.87
     83.1851	   19.00	   10.85	 -345.10	    7.88
     83.2185	   23.00	   10.85	 -341.10	    7.88
     83.2519	   11.00	   10.85	 -353.10	    7.89
     83.2854	   11.00	   10.85	 -353.10	    7.89
     83.3188	   15.00	   10.85	 -349.10	    7.89
     83.3522	   18.00	   10.85	 -346.10	    7.90
     83.3856	   16.00	   10.85	 -348.10	    7.90
     83.4190	   11.00	   10.86	 -353.11	    7.91
     83.4525	   20.00	   10.86	 -344.11	    7.91
     83.4859	   24.00	   10.86	 -340.11	    7.92
     83.5193	    9.00	   10.86	 -355.11	    7.92
     83.5527	   14.00	   10.87	 -350.12	    7.92
     83.5862	   12.00	   10.87	 -352.12	    7.93
     83.6196	   14.00	   10.88	 -350.13	    7.93
     83.6530	   17.00	   10.88	 -347.13	    7.94
     83.6864	   15.00	   10.89	 -349.14	    7.94
     83.7198	   17.00	   10.89	 -347.14	    7.94
     83.7533	   16.00	   10.90	 -348.15	    7.95
     83.7867	   21.00	   10.91	 -343.16	    7.95
     83.8201	   16.00	   10.92	 -348.17	    7.96
     83.8535	   19.00	   10.92	 -345.17	    7.96
     83.8870	   15.00	   10.93	 -349.18	    7.97
     83.9204	   16.00	   10.94	 -348.19	    7.97
     83.9538	   10.00	   10.95	 -354.20	    7.97
     83.9872	   22.00	   10.96	 -342.21	    7.98
     84.0207	    8.00	   10.97	 -356.22	    7.98
     84.0541	   18.00	   10.98	 -346.23	    7.99
     84.0875	   16.00	   10.99	 -348.24	    7.99
     84.1209	   10.00	   11.00	 -354.25	    8.00
     84.1543	   14.00	   11.01	 -350.26	    8.00
     84.1878	   21.00	   11.02	 -343.27	    8.00
     84.2212	   16.00	   11.03	 -348.28	    8.01
     84.2546	   17.00	   11.04	 -347.29	    8.01
     84.2880	   11.00	   11.06	 -353.31	    8.02
     84.3215	   17.00	   11.07	 -347.32	    8.02
     84.3549	   12.00	   11.08	 -352.33	    8.02
     84.3883	   15.00	   11.10	 -349.35	    8.03
     84.4217	   28.00	   11.11	 -336.36	    8.03
     84.4551	   14.00	   11.13	 -350.38	    8.04
     84.4886	   12.00	   11.14	 -352.39	    8.04
     84.5220	   15.00	   11.16	 -349.41	    8.05
     84.5554	    8.00	   11.18	 -356.43	    8.05
     84.5888	   17.00	   11.19	 -347.44	    8.05
     84.6223	   16.00	   11.21	 -348.46	    8.06
     84.6557	    9.00	   11.23	 -355.48	    8.06
     84.6891	   11.00	   11.25	 -353.50	    8.07
     84.7225	   18.00	   11.27	 -346.52	    8.07
     84.7560	   20.00	   11.30	 -344.55	    8.08
     84.7894	   17.00	   11.32	 -347.57	    8.08
     84.8228	   19.00	   11.34	 -345.59	    8.08
     84.8562	    8.00	   11.37	 -356.62	    8.09
     84.8896	   12.00	   11.39	 -352.64	    8.09
     84.9231	   20.00	   11.42	 -344.67	    8.10
     84.9565	   14.00	   11.45	 -350.70	    8.10
     84.9899	   11.00	   11.48	 -353.73	    8.10
     85.0233	   17.00	   11.51	 -347.76	    8.11
     85.0567	   19.00	   11.55	 -345.80	    8.11
     85.0902	    8.00	   11.58	 -356.83	    8.12
     85.1236	   11.00	   11.62	 -353.87	    8.12
     85.1570	   14.00	   11.66	 -350.91	    8.13
     85.1904	   19.00	   11.70	 -345.95	    8.13
     85.2239	   17.00	   11.74	 -347.99	    8.13
     85.2573	   15.00	   11.79	 -350.04	    8.14
     85.2907	    9.00	   11.84	 -356.09	    8.14
     85.3241	    9.00	   11.89	 -356.14	    8.15
     85.3576	    9.00	   11.95	 -356.20	    8.15
     85.3910	   10.00	   12.01	 -355.26	    8.16
     85.4244	   11.00	   12.07	 -354.32	    8.16
     85.4578	   15.00	   12.14	 -350.39	    8.16
     85.4912	   16.00	   12.58	 -349.83	    8.17
     85.5247	   22.00	   12.67	 -343.92	    8.17
     85.5581	   12.00	   12.76	 -354.01	    8.18
     85.5915	   22.00	   12.86	 -344.11	    8.18
     85.6249	   19.00	   12.96	 -347.21	    8.19
     85.6584	   15.00	   13.07	 -351.32	    8.19
     85.6918	   22.00	   13.20	 -344.45	    8.19
     85.7252	   22.00	   13.33	 -344.58	    8.20
     85.7586	   21.00	   13.66	 -345.91	    8.20
     85.7920	   14.00	   13.82	 -353.07	    8.21
     85.8255	   15.00	   13.98	 -352.23	    8.21
     85.8589	   16.00	   14.17	 -351.42	    8.21
     85.8923	   11.00	   14.39	 -356.64	    8.22
     85.9257	   22.00	   14.62	 -345.87	    8.22
     85.9592	   18.00	   14.88	 -350.13	    8.23
     85.9926	   11.00	   15.17	 -357.42	    8.23
     86.0260	   17.00	   15.49	 -351.74	    8.24
     86.0594	   20.00	   15.84	 -349.09	    8.24
     86.0928	   25.00	   16.24	 -344.49	    8.24
     86.1263	   20.00	   16.70	 -349.95	    8.25
     86.1597	   18.00	   17.21	 -352.46	    8.25
     86.1931	   16.00	   17.79	 -355.04	    8.26
     86.2265	   14.00	   18.45	 -357.70	    8.26
     86.2600	   21.00	   19.19	 -351.44	    8.27
     86.2934	   17.00	   20.03	 -356.28	    8.27
     86.3268	   17.00	   20.98	 -357.23	    8.27
     86.3602	   20.00	   22.05	 -355.30	    8.28
     86.3937	   27.00	   23.24	 -349.49	    8.28
     86.4271	   20.00	   24.55	 -357.80	    8.29
     86.4605	   30.00	   25.97	 -349.22	    8.29
     86.4939	   25.00	   27.48	 -355.73	    8.29
     86.5273	   32.00	   29.03	 -350.28	    8.30
     86.5608	   31.00	   30.56	 -352.81	    8.30
     86.5942	   35.00	   31.98	 -350.23	    8.31
     86.6276	   39.00	   33.19	 -347.44	    8.31
     86.6610	   50.00	   34.11	 -337.36	    8.32
     86.6945	   56.00	   34.68	 -331.93	    8.32
     86.7279	   38.00	   34.90	 -350.15	    8.32
     86.7613	   50.00	   34.80	 -338.05	    8.33
     86.7947	   38.00	   34.44	 -349.69	    8.33
     86.8281	   38.00	   33.89	 -349.14	    8.34
     86.8616	   41.00	   33.19	 -345.44	    8.34
     86.8950	   47.00	   32.37	 -338.62	    8.35
     86.9284	   50.00	   31.43	 -334.68	    8.35
     86.9618	   27.00	   30.38	 -356.63	    8.35
     86.9953	   33.00	   29.23	 -349.48	    8.36
     87.0287	   20.00	   28.01	 -361.26	    8.36
     87.0621	   42.00	   26.77	 -338.02	    8.37
     87.0955	   19.00	   25.54	 -359.79	    8.37
     87.1289	   24.00	   24.36	 -353.61	    8.37
     87.1624	   19.00	   23.26	 -357.51	    8.38
     87.1958	   27.00	   22.25	 -348.50	    8.38
     87.2292	   23.00	   21.34	 -351.59	    8.39
     87.2626	   19.00	   20.53	 -354.78	    8.39
     87.2961	   34.00	   19.82	 -339.07	    8.40
     87.3295	   23.00	   19.19	 -349.44	    8.40
     87.3629	   30.00	   18.65	 -341.90	    8.40
     87.3963	   31.00	   18.17	 -340.42	    8.41
     87.4297	   22.00	   17.76	 -349.01	    8.41
     87.4632	   24.00	   17.41	 -346.66	    8.42
     87.4966	   17.00	   17.10	 -353.35	    8.42
     87.5300	   22.00	   16.84	 -348.09	    8.43
     87.5634	   15.00	   16.62	 -354.87	    8.43
     87.5969	   18.00	   16.43	 -351.68	    8.43
     87.6303	   20.00	   16.27	 -349.52	    8.44
     87.6637	   19.00	   16.14	 -350.39	    8.44
     87.6971	   19.00	   16.04	 -350.29	    8.45
     87.7306	   20.00	   15.95	 -349.20	    8.45
     87.7640	   12.00	   15.89	 -357.14	    8.45
     87.7974	   15.00	   15.84	 -354.09	    8.46
     87.8308	   27.00	   15.81	 -342.06	    8.46
     87.8642	   25.00	   15.80	 -344.05	    8.47
     87.8977	   27.00	   15.80	 -342.05	    8.47
     87.9311	   21.00	   15.82	 -348.07	    8.48
     87.9645	   16.00	   15.85	 -353.10	    8.48
     87.9979	   19.00	   15.89	 -350.14	    8.48
     88.0314	   18.00	   15.95	 -351.20	    8.49
     88.0648	   14.00	   16.03	 -355.28	    8.49
     88.0982	   12.00	   16.11	 -357.36	    8.50
     88.1316	   16.00	   16.21	 -353.46	    8.50
     88.1650	   19.00	   16.33	 -350.58	    8.51
     88.1985	   14.00	   16.46	 -355.71	    8.51
     88.2319	   14.00	   16.61	 -355.86	    8.51
     88.2653	   11.00	   16.77	 -359.02	    8.52
     88.2987	   19.00	   16.95	 -351.20	    8.52
     88.3322	   23.00	   17.15	 -347.40	    8.53
     88.3656	   24.00	   17.37	 -346.62	    8.53
     88.3990	   20.00	   17.61	 -350.86	    8.53
     88.4324	   21.00	   17.87	 -350.12	    8.54
     88.4659	   19.00	   18.16	 -352.41	    8.54
     88.4993	   12.00	   18.48	 -359.73	    8.55
     88.5327	   15.00	   18.83	 -357.08	    8.55
     88.5661	   16.00	   19.21	 -356.46	    8.56
     88.5995	   35.00	   19.63	 -337.88	    8.56
     88.6330	   22.00	   20.09	 -351.34	    8.56
     88.6664	   27.00	   20.60	 -346.85	    8.57
     88.6998	   20.00	   21.16	 -354.41	    8.57
     88.7332	   19.00	   21.78	 -356.03	    8.58
     88.7667	   15.00	   22.46	 -360.71	    8.58
     88.8001	   31.00	   23.22	 -345.47	    8.59
     88.8335	   22.00	   24.07	 -355.32	    8.59
     88.8669	   31.00	   25.02	 -347.27	    8.59
     88.9003	   27.00	   26.07	 -352.32	    8.60
     88.9338	   30.00	   27.26	 -350.51	    8.60
     88.9672	   35.00	   28.60	 -346.85	    8.61
     89.0006	   30.00	   30.10	 -353.35	    8.61
     89.0340	   52.00	   31.79	 -333.04	    8.62
     89.0675	   47.00	   33.71	 -339.96	    8.62
     89.1009	   39.00	   35.87	 -350.12	    8.62
     89.1343	   39.00	   38.32	 -352.57	    8.63
     89.1677	   47.00	   41.08	 -347.33	    8.63
     89.2011	   47.00	   44.18	 -350.43	    8.64
     89.2346	   47.00	   47.67	 -353.92	    8.64
     89.2680	   44.00	   51.54	 -360.79	    8.64
     89.3014	   49.00	   55.82	 -360.07	    8.65
     89.3348	   71.00	   60.48	 -342.73	    8.65
     89.3683	   62.00	   65.45	 -356.70	    8.66
     89.4017	   73.00	   70.62	 -350.87	    8.66
     89.4351	   76.00	   75.81	 -353.06	    8.67
     89.4685	   87.00	   80.76	 -347.01	    8.67
     89.5019	  105.00	   85.18	 -333.43	    8.67
     89.5354	  130.00	   88.78	 -312.03	    8.68
     89.5688	  137.00	   91.33	 -307.58	    8.68
     89.6022	  127.00	   92.71	 -318.96	    8.69
     89.6356	  123.00	   92.97	 -323.22	    8.69
     89.6691	  110.00	   92.25	 -335.50	    8.70
     89.7025	   79.00	   90.74	 -364.99	    8.70
     89.7359	  112.00	   88.65	 -329.90	    8.70
     89.7693	   90.00	   86.10	 -349.35	    8.71
     89.8027	   92.00	   83.17	 -344.42	    8.71
     89.8362	   96.00	   79.85	 -337.10	    8.72
     89.8696	   77.00	   76.18	 -352.43	    8.72
     89.9030	   91.00	   72.18	 -334.43	    8.72
     89.9364	   63.00	   67.95	 -358.20	    8.73
     89.9699	   79.00	   63.61	 -337.86	    8.73
     90.0033	   61.00	   59.28	 -351.53	    8.74
     90.0367	   64.00	   55.09	 -344.34	    8.74
     90.0701	   50.00	   51.13	 -354.38	    8.75
     90.1036	   63.00	   47.46	 -337.71	    8.75
     90.1370	   48.00	   44.10	 -349.35	    8.75
     90.1704	   43.00	   41.05	 -351.30	    8.76
     90.2038	   43.00	   38.47	 -348.72	    8.76
     90.2372	   42.00	   36.04	 -347.29	    8.77
     90.2707	   37.00	   33.87	 -350.12	    8.77
     90.3041	   38.00	   31.94	 -347.19	    8.78
     90.3375	   31.00	   30.23	 -352.48	    8.78
     90.3709	   50.00	   28.70	 -331.95	    8.78
     90.4044	   41.00	   27.35	 -339.60	    8.79
     90.4378	   23.00	   26.14	 -356.39	    8.79
     90.4712	   38.00	   25.13	 -340.38	    8.80
     90.5046	   27.00	   24.17	 -350.42	    8.80
     90.5380	   22.00	   23.30	 -354.55	    8.80
     90.5715	   33.00	   22.52	 -342.77	    8.81
     90.6049	   22.00	   21.82	 -353.07	    8.81
     90.6383	   27.00	   21.19	 -347.44	    8.82
     90.6717	   20.00	   20.61	 -353.86	    8.82
     90.7052	   17.00	   20.09	 -356.34	    8.83
     90.7386	   30.00	   19.61	 -342.86	    8.83
     90.7720	   27.00	   19.08	 -345.33	    8.83
     90.8054	   29.00	   18.68	 -342.93	    8.84
     90.8389	   24.00	   18.31	 -347.56	    8.84
     90.8723	   21.00	   17.98	 -350.23	    8.85
     90.9057	   20.00	   17.67	 -350.92	    8.85
     90.9391	   18.00	   17.38	 -352.63	    8.86
     90.9725	   25.00	   17.12	 -345.37	    8.86
     91.0060	   18.00	   16.87	 -352.12	    8.86
     91.0394	   16.00	   16.60	 -353.85	    8.87
     91.0728	   18.00	   16.39	 -351.64	    8.87
     91.1062	   12.00	   16.19	 -357.44	    8.88
     91.1397	   25.00	   16.01	 -344.26	    8.88
     91.1731	   16.00	   15.84	 -353.09	    8.88
     91.2065	   19.00	   15.69	 -349.94	    8.89
     91.2399	   22.00	   15.54	 -346.79	    8.89
     91.2733	   19.00	   15.40	 -349.65	    8.90
     91.3068	   21.00	   15.27	 -347.52	    8.90
     91.3402	   17.00	   15.15	 -351.40	    8.91
     91.3736	   16.00	   15.04	 -352.29	    8.91
     91.4070	   16.00	   14.94	 -352.19	    8.91
     91.4405	   10.00	   14.84	 -358.09	    8.92
     91.4739	   20.00	   14.75	 -348.00	    8.92
     91.5073	   15.00	   14.66	 -352.91	    8.93
     91.5407	   20.00	   14.58	 -347.83	    8.93
     91.5741	   21.00	   14.50	 -346.75	    8.94
     91.6076	   17.00	   14.43	 -350.68	    8.94
     91.6410	   14.00	   14.37	 -353.62	    8.94
     91.6744	   14.00	   14.30	 -353.55	    8.95
     91.7078	   23.00	   14.25	 -344.50	    8.95
     91.7413	   23.00	   14.19	 -344.44	    8.96
     91.7747	   24.00	   14.14	 -343.39	    8.96
     91.8081	    7.00	   14.10	 -360.35	    8.96
     91.8415	   16.00	   14.05	 -351.30	    8.97
     91.8749	   12.00	   14.01	 -355.26	    8.97
     91.9084	   17.00	   13.98	 -350.23	    8.98
     91.9418	   14.00	   13.94	 -353.19	    8.98
     91.9752	   15.00	   13.91	 -352.16	    8.99
     92.0086	   17.00	   13.88	 -350.13	    8.99
     92.0421	   18.00	   13.86	 -349.11	    8.99
     92.0755	   16.00	   13.83	 -351.08	    9.00
     92.1089	   24.00	   13.81	 -343.06	    9.00
     92.1423	   17.00	   13.79	 -350.04	    9.01
     92.1758	    6.00	   13.78	 -361.03	    9.01
     92.2092	   15.00	   13.76	 -352.01	    9.02
     92.2426	   16.00	   13.75	 -351.00	    9.02
     92.2760	   19.00	   13.74	 -347.99	    9.02
     92.3094	   20.00	   13.74	 -346.99	    9.03
     92.3429	   10.00	   13.73	 -356.98	    9.03
     92.3763	   14.00	   13.73	 -352.98	    9.03
     92.4097	   12.00	   13.72	 -354.97	    9.03
     92.4431	    8.00	   13.71	 -358.96	    9.02
     92.4766	   28.00	   13.71	 -338.96	    9.02
     92.5100	   18.00	   13.71	 -348.96	    9.02
     92.5434	   21.00	   13.71	 -345.96	    9.01
     92.5768	   15.00	   13.71	 -351.96	    9.01
     92.6102	   17.00	   13.72	 -349.97	    9.00
     92.6437	   14.00	   13.73	 -352.98	    9.00
     92.6771	   15.00	   13.74	 -351.99	    8.99
     92.7105	   11.00	   13.75	 -356.00	    8.99
     92.7439	   15.00	   13.77	 -352.02	    8.98
     92.7774	   20.00	   13.79	 -347.04	    8.98
     92.8108	   10.00	   13.82	 -357.07	    8.97
     92.8442	   16.00	   13.84	 -351.09	    8.97
     92.8776	   18.00	   13.88	 -349.13	    8.96
     92.9110	   14.00	   13.91	 -353.16	    8.96
     92.9445	   19.00	   13.95	 -348.20	    8.95
     92.9779	   14.00	   14.00	 -353.25	    8.95
     93.0113	   16.00	   14.04	 -351.29	    8.94
     93.0447	    8.00	   14.10	 -359.35	    8.94
     93.0782	   15.00	   14.16	 -352.41	    8.93
     93.1116	   18.00	   14.22	 -349.47	    8.93
     93.1450	   27.00	   14.30	 -340.55	    8.92
     93.1784	   20.00	   14.38	 -347.63	    8.92
     93.2119	   21.00	   14.46	 -346.71	    8.91
     93.2453	   17.00	   14.56	 -350.81	    8.91
     93.2787	   21.00	   14.66	 -346.91	    8.90
     93.3121	   11.00	   14.78	 -357.03	    8.90
     93.3455	   16.00	   14.90	 -352.15	    8.90
     93.3790	   14.00	   15.04	 -354.29	    8.89
     93.4124	   18.00	   15.19	 -350.44	    8.89
     93.4458	   15.00	   15.36	 -353.61	    8.88
     93.4792	   28.00	   15.55	 -340.80	    8.88
     93.5126	   14.00	   15.75	 -355.00	    8.87
     93.5461	   18.00	   15.98	 -351.23	    8.87
     93.5795	   18.00	   16.23	 -351.48	    8.86
     93.6129	   18.00	   16.50	 -351.75	    8.86
     93.6463	   20.00	   16.81	 -350.06	    8.85
     93.6798	   19.00	   17.16	 -351.41	    8.85
     93.7132	   14.00	   17.54	 -356.79	    8.84
     93.7466	   16.00	   17.61	 -354.86	    8.84
     93.7800	   24.00	   18.10	 -347.35	    8.83
     93.8135	   19.00	   18.64	 -352.89	    8.83
     93.8469	   27.00	   19.25	 -345.50	    8.82
     93.8803	   22.00	   19.93	 -351.18	    8.82
     93.9137	   29.00	   20.69	 -344.94	    8.81
     93.9471	   27.00	   21.55	 -347.80	    8.81
     93.9806	   29.00	   22.50	 -346.75	    8.80
     94.0140	   24.00	   23.57	 -352.82	    8.80
     94.0474	   36.00	   24.58	 -341.83	    8.79
     94.0808	   24.00	   25.89	 -355.14	    8.79
     94.1143	   23.00	   27.32	 -357.57	    8.79
     94.1477	   29.00	   28.86	 -353.11	    8.78
     94.1811	   38.00	   30.49	 -345.74	    8.78
     94.2145	   44.00	   32.18	 -341.43	    8.77
     94.2479	   37.00	   33.88	 -350.13	    8.77
     94.2814	   35.00	   35.51	 -353.76	    8.76
     94.3148	   48.00	   36.99	 -342.24	    8.76
     94.3482	   52.00	   38.23	 -339.48	    8.75
     94.3816	   50.00	   39.18	 -342.43	    8.75
     94.4151	   66.00	   39.77	 -327.02	    8.74
     94.4485	   55.00	   40.01	 -338.26	    8.74
     94.4819	   56.00	   39.93	 -337.18	    8.73
     94.5153	   49.00	   39.58	 -343.83	    8.73
     94.5488	   63.00	   39.01	 -329.26	    8.72
     94.5822	   64.00	   38.29	 -327.54	    8.72
     94.6156	   45.00	   37.44	 -345.69	    8.71
     94.6490	   49.00	   36.47	 -340.72	    8.71
     94.6824	   38.00	   35.39	 -350.64	    8.70
     94.7159	   39.00	   34.21	 -348.46	    8.70
     94.7493	   50.00	   32.92	 -336.17	    8.69
     94.7827	   45.00	   31.56	 -339.81	    8.69
     94.8161	   32.00	   30.14	 -351.39	    8.68
     94.8496	   35.00	   28.72	 -346.97	    8.68
     94.8830	   30.00	   27.33	 -350.58	    8.67
     94.9164	   32.00	   25.99	 -347.24	    8.67
     94.9498	   27.00	   24.73	 -350.98	    8.67
     94.9832	   38.00	   23.55	 -338.80	    8.66
     95.0167	   24.00	   22.48	 -351.73	    8.66
     95.0501	   29.00	   21.50	 -345.75	    8.65
     95.0835	   21.00	   20.62	 -352.87	    8.65
     95.1169	   25.00	   19.82	 -348.07	    8.64
     95.1504	   32.00	   19.10	 -340.35	    8.64
     95.1838	   21.00	   18.46	 -350.71	    8.63
     95.2172	   20.00	   17.88	 -351.13	    8.63
     95.2506	   20.00	   17.36	 -350.61	    8.62
     95.2840	   27.00	   16.90	 -343.15	    8.62
     95.3175	   22.00	   16.48	 -347.73	    8.61
     95.3509	   21.00	   16.10	 -348.35	    8.61
     95.3843	   16.00	   15.76	 -353.01	    8.60
     95.4177	   20.00	   15.45	 -348.70	    8.60
     95.4512	   14.00	   15.17	 -354.42	    8.59
     95.4846	   15.00	   14.92	 -353.17	    8.59
     95.5180	   16.00	   14.68	 -351.93	    8.58
     95.5514	   22.00	   14.47	 -345.72	    8.58
     95.5848	   20.00	   14.28	 -347.53	    8.57
     95.6183	   15.00	   14.10	 -352.35	    8.57
     95.6517	   16.00	   13.93	 -351.18	    8.56
     95.6851	   18.00	   13.78	 -349.03	    8.56
     95.7185	   17.00	   13.64	 -349.89	    8.56
     95.7520	   18.00	   13.51	 -348.76	    8.55
     95.7854	   17.00	   13.39	 -349.64	    8.55
     95.8188	   15.00	   13.28	 -351.53	    8.54
     95.8522	   20.00	   13.17	 -346.42	    8.54
     95.8857	   23.00	   13.07	 -343.32	    8.53
     95.9191	   20.00	   12.98	 -346.23	    8.53
     95.9525	   18.00	   12.89	 -348.14	    8.52
     95.9859	   16.00	   12.81	 -350.06	    8.52
     96.0193	   19.00	   12.74	 -346.99	    8.51
     96.0528	   19.00	   12.66	 -346.91	    8.51
     96.0862	   15.00	   12.60	 -350.85	    8.50
     96.1196	   12.00	   12.53	 -353.78	    8.50
     96.1530	   20.00	   12.47	 -345.72	    8.49
     96.1865	    7.00	   12.42	 -358.67	    8.49
     96.2199	   20.00	   12.36	 -345.61	    8.48
     96.2533	   18.00	   12.31	 -347.56	    8.48
     96.2867	   10.00	   12.26	 -355.51	    8.47
     96.3201	   20.00	   12.22	 -345.47	    8.47
     96.3536	   17.00	   12.17	 -348.42	    8.46
     96.3870	   24.00	   12.13	 -341.38	    8.46
     96.4204	   14.00	   12.09	 -351.34	    8.45
     96.4538	   23.00	   12.05	 -342.30	    8.45
     96.4873	   16.00	   12.02	 -349.27	    8.44
     96.5207	   17.00	   11.98	 -348.23	    8.44
     96.5541	   15.00	   11.95	 -350.20	    8.44
     96.5875	   14.00	   11.92	 -351.17	    8.43
     96.6209	    7.00	   11.89	 -358.14	    8.43
     96.6544	   16.00	   11.86	 -349.11	    8.42
     96.6878	   14.00	   11.83	 -351.08	    8.42
     96.7212	   18.00	   11.81	 -347.06	    8.41
     96.7546	   16.00	   11.78	 -349.03	    8.41
     96.7881	    7.00	   11.76	 -358.01	    8.40
     96.8215	    9.00	   11.74	 -355.99	    8.40
     96.8549	   17.00	   11.72	 -347.97	    8.39
     96.8883	   10.00	   11.70	 -354.95	    8.39
     96.9218	   14.00	   11.68	 -350.93	    8.38
     96.9552	   18.00	   11.66	 -346.91	    8.38
     96.9886	   14.00	   11.64	 -350.89	    8.37
     97.0220	   11.00	   11.63	 -353.88	    8.37
     97.0554	   15.00	   11.62	 -349.87	    8.36
     97.0889	   10.00	   11.60	 -354.85	    8.36
     97.1223	   12.00	   11.59	 -352.84	    8.35
     97.1557	   17.00	   11.58	 -347.83	    8.35
     97.1891	   16.00	   11.57	 -348.82	    8.34
     97.2226	   15.00	   11.56	 -349.81	    8.34
     97.2560	    9.00	   11.54	 -355.79	    8.33
     97.2894	   18.00	   11.53	 -346.78	    8.33
     97.3228	   16.00	   11.52	 -348.77	    8.32
     97.3562	    3.00	   11.50	 -361.75	    8.32
     97.3897	   18.00	   11.49	 -346.74	    8.32
     97.4231	   21.00	   11.47	 -343.72	    8.31
     97.4565	   15.00	   11.45	 -349.70	    8.31
     97.4899	   18.00	   11.44	 -346.69	    8.30
     97.5234	   10.00	   11.42	 -354.67	    8.30
     97.5568	   12.00	   11.40	 -352.65	    8.29
     97.5902	   17.00	   11.38	 -347.63	    8.29
     97.6236	   12.00	   11.37	 -352.62	    8.28
     97.6570	   15.00	   11.35	 -349.60	    8.28
     97.6905	   10.00	   11.33	 -354.58	    8.27
     97.7239	    8.00	   11.37	 -356.62	    8.27
     97.7573	   20.00	   11.35	 -344.60	    8.26
     97.7907	   10.00	   11.33	 -354.58	    8.26
     97.8242	    6.00	   11.32	 -358.57	    8.25
     97.8576	   15.00	   11.30	 -349.55	    8.25
     97.8910	   11.00	   11.29	 -353.54	    8.24
     97.9244	   17.00	   11.27	 -347.52	    8.24
     97.9578	    6.00	   11.26	 -358.51	    8.23
     97.9913	   20.00	   11.24	 -344.49	    8.23
     98.0247	   17.00	   11.23	 -347.48	    8.22
     98.0581	   14.00	   11.25	 -350.50	    8.22
     98.0915	    9.00	   11.24	 -355.49	    8.21
     98.1250	   18.00	   11.22	 -346.47	    8.21
     98.1584	   14.00	   11.21	 -350.46	    8.21
     98.1918	   11.00	   11.20	 -353.45	    8.20
     98.2252	   11.00	   11.19	 -353.44	    8.20
     98.2587	   14.00	   11.18	 -350.43	    8.19
     98.2921	   20.00	   11.17	 -344.42	    8.19
     98.3255	   14.00	   11.17	 -350.42	    8.18
     98.3589	   14.00	   11.16	 -350.41	    8.18
     98.3923	   11.00	   11.15	 -353.40	    8.17
     98.4258	    7.00	   11.14	 -357.39	    8.17
     98.4592	   17.00	   11.13	 -347.38	    8.16
     98.4926	   22.00	   11.12	 -342.37	    8.16
     98.5260	   16.00	   11.12	 -348.37	    8.15
     98.5595	   14.00	   11.11	 -350.36	    8.15
     98.5929	   17.00	   11.10	 -347.35	    8.14
     98.6263	   18.00	   11.10	 -346.35	    8.14
     98.6597	   10.00	   11.09	 -354.34	    8.13
     98.6931	   11.00	   11.08	 -353.33	    8.13
     98.7266	   20.00	   10.94	 -344.19	    8.12
     98.7600	   10.00	   10.94	 -354.19	    8.12
     98.7934	   11.00	   10.93	 -353.18	    8.11
     98.8268	   15.00	   10.93	 -349.18	    8.11
     98.8603	   16.00	   10.92	 -348.17	    8.10
     98.8937	   12.00	   10.92	 -352.17	    8.10
     98.9271	   12.00	   10.92	 -352.17	    8.09
     98.9605	   17.00	   10.91	 -347.16	    8.09
     98.9939	   15.00	   10.91	 -349.16	    8.09
     99.0274	   21.00	   10.84	 -343.09	    8.08
     99.0608	   14.00	   10.84	 -350.09	    8.08
     99.0942	   19.00	   10.84	 -345.09	    8.07
     99.1276	   21.00	   10.83	 -343.08	    8.07
     99.1611	   12.00	   10.83	 -352.08	    8.06
     99.1945	   11.00	   10.83	 -353.08	    8.06
     99.2279	    8.00	   10.83	 -356.08	    8.05
     99.2613	   11.00	   10.83	 -353.08	    8.05
     99.2948	   12.00	   10.83	 -352.08	    8.04
     99.3282	   21.00	   10.83	 -343.08	    8.04
     99.3616	   18.00	   10.83	 -346.08	    8.03
     99.3950	   15.00	   10.83	 -349.08	    8.03
     99.4284	   22.00	   10.83	 -342.08	    8.02
     99.4619	   12.00	   10.82	 -352.07	    8.02
     99.4953	   20.00	   10.82	 -344.07	    8.01
     99.5287	   17.00	   10.82	 -347.07	    8.01
     99.5621	   12.00	   10.83	 -352.08	    8.00
     99.5956	   18.00	   10.83	 -346.08	    8.00
     99.6290	   14.00	   10.83	 -350.08	    7.99
     99.6624	    8.00	   10.83	 -356.08	    7.99
     99.6958	   20.00	   10.83	 -344.08	    7.98
     99.7292	   16.00	   10.83	 -348.08	    7.98
     99.7627	   14.00	   10.83	 -350.08	    7.97
     99.7961	   16.00	   10.83	 -348.08	    7.97
     99.8295	   15.00	   10.84	 -349.09	    7.97
     99.8629	   11.00	   10.84	 -353.09	    7.96
     99.8964	   28.00	   10.84	 -336.09	    7.96
     99.9298	   20.00	   10.84	 -344.09	    7.95
     99.9632	   12.00	   10.85	 -352.10	    7.95
     99.9966	   17.00	   10.85	 -347.10	    7.94
    100.0300	   18.00	   10.86	 -346.11	    7.94
    100.0635	   11.00	   10.86	 -353.11	    7.93
    100.0969	   20.00	   10.86	 -344.11	    7.93
    100.1303	    5.00	   10.87	 -359.12	    7.92
    100.1637	   15.00	   10.88	 -349.13	    7.92
    100.1972	   18.00	   10.88	 -346.13	    7.91
    100.2306	   17.00	   10.89	 -347.14	    7.91
    100.2640	   23.00	   10.90	 -341.15	    7.90
    100.2974	   20.00	   10.90	 -344.15	    7.90
    100.3308	   15.00	   10.91	 -349.16	    7.89
    100.3643	   15.00	   10.92	 -349.17	    7.89
    100.3977	   12.00	   10.93	 -352.18	    7.88
    100.4311	   16.00	   10.94	 -348.19	    7.88
    100.4645	   16.00	   10.96	 -348.21	    7.87
    100.4980	   10.00	   10.97	 -354.22	    7.87
    100.5314	   15.00	   10.98	 -349.23	    7.86
    100.5648	   12.00	   11.00	 -352.25	    7.86
    100.5982	   19.00	   11.26	 -345.51	    7.86
    100.6317	   12.00	   11.28	 -352.53	    7.85
    100.6651	   19.00	   11.30	 -345.55	    7.85
    100.6985	   16.00	   11.32	 -348.57	    7.84
    100.7319	   11.00	   11.35	 -353.60	    7.84
    100.7653	   11.00	   11.37	 -353.62	    7.83
    100.7988	   16.00	   11.40	 -348.65	    7.83
    100.8322	   12.00	   11.43	 -352.68	    7.82
    100.8656	   15.00	   11.47	 -349.72	    7.82
    100.8990	   15.00	   11.50	 -349.75	    7.81
    100.9325	   11.00	   11.66	 -353.91	    7.81
    100.9659	   15.00	   11.70	 -349.95	    7.80
    100.9993	   16.00	   11.75	 -349.00	    7.80
    101.0327	   23.00	   11.79	 -342.04	    7.79
    101.0661	   17.00	   11.85	 -348.10	    7.79
    101.0996	   17.00	   11.91	 -348.16	    7.80
    101.1330	   18.00	   11.99	 -347.24	    7.81
    101.1664	   11.00	   12.07	 -354.32	    7.82
    101.1998	   18.00	   12.16	 -347.41	    7.84
    101.2333	   18.00	   12.26	 -347.51	    7.85
    101.2667	   11.00	   12.36	 -354.61	    7.86
    101.3001	   24.00	   12.47	 -341.72	    7.88
    101.3335	   19.00	   12.58	 -346.83	    7.89
    101.3670	    8.00	   12.71	 -357.96	    7.90
    101.4004	   19.00	   12.84	 -347.09	    7.92
    101.4338	   12.00	   12.99	 -354.24	    7.93
    101.4672	   15.00	   13.15	 -351.40	    7.94
    101.5006	   19.00	   13.32	 -347.57	    7.96
    101.5341	   12.00	   13.51	 -354.76	    7.97
    101.5675	   12.00	   13.78	 -355.03	    7.98
    101.6009	   14.00	   14.01	 -353.26	    8.00
    101.6343	   25.00	   14.26	 -342.51	    8.01
    101.6678	   17.00	   14.53	 -350.78	    8.02
    101.7012	   23.00	   14.83	 -345.08	    8.04
    101.7346	   16.00	   15.15	 -352.40	    8.05
    101.7680	   22.00	   15.51	 -346.76	    8.06
    101.8014	   23.00	   15.90	 -346.15	    8.08
    101.8349	   27.00	   16.32	 -342.57	    8.09
    101.8683	   25.00	   16.77	 -345.02	    8.10
    101.9017	   20.00	   17.29	 -350.54	    8.12
    101.9351	   16.00	   17.81	 -355.06	    8.13
    101.9686	   25.00	   18.34	 -346.59	    8.14
    102.0020	   35.00	   18.89	 -337.14	    8.16
    102.0354	   23.00	   19.44	 -349.69	    8.17
    102.0688	   20.00	   19.96	 -353.21	    8.18
    102.1022	   30.00	   20.45	 -343.70	    8.20
    102.1357	   38.00	   20.87	 -336.12	    8.21
    102.1691	   35.00	   21.22	 -339.47	    8.22
    102.2025	   18.00	   21.48	 -356.73	    8.24
    102.2359	   16.00	   21.64	 -358.89	    8.25
    102.2694	   44.00	   21.70	 -330.95	    8.26
    102.3028	   27.00	   21.69	 -347.94	    8.28
    102.3362	   22.00	   21.61	 -352.86	    8.29
    102.3696	   28.00	   21.47	 -346.72	    8.30
    102.4030	   18.00	   21.29	 -356.54	    8.32
    102.4365	   19.00	   21.08	 -355.33	    8.33
    102.4699	   36.00	   20.84	 -338.09	    8.34
    102.5033	   33.00	   20.58	 -340.83	    8.36
    102.5367	   20.00	   20.28	 -353.53	    8.37
    102.5702	   22.00	   19.96	 -351.21	    8.38
    102.6036	   23.00	   19.61	 -349.86	    8.40
    102.6370	   25.00	   19.24	 -347.49	    8.41
    102.6704	   15.00	   18.86	 -357.11	    8.42
    102.7038	   19.00	   18.48	 -352.73	    8.44
    102.7373	   18.00	   18.10	 -353.35	    8.45
    102.7707	   16.00	   17.73	 -354.98	    8.46
    102.8041	   14.00	   17.38	 -356.63	    8.48
    102.8375	   17.00	   17.06	 -353.31	    8.49
    102.8710	   16.00	   16.76	 -354.01	    8.50
    102.9044	   22.00	   16.49	 -347.74	    8.52
    102.9378	   10.00	   16.25	 -359.50	    8.53
    102.9712	   21.00	   16.03	 -348.28	    8.54
    103.0047	    8.00	   15.84	 -361.09	    8.56
    103.0381	   16.00	   15.67	 -352.92	    8.57
    103.0715	   18.00	   15.53	 -350.78	    8.58
    103.1049	   21.00	   15.41	 -347.66	    8.60
    103.1383	   11.00	   15.30	 -357.55	    8.61
    103.1718	   19.00	   15.22	 -349.47	    8.62
    103.2052	   10.00	   15.15	 -358.40	    8.64
    103.2386	   10.00	   15.09	 -358.34	    8.65
    103.2720	   20.00	   15.05	 -348.30	    8.66
    103.3055	   16.00	   15.03	 -352.28	    8.68
    103.3389	   11.00	   15.01	 -357.26	    8.69
    103.3723	   14.00	   15.01	 -354.26	    8.70
    103.4057	   11.00	   15.01	 -357.26	    8.72
    103.4391	   11.00	   15.03	 -357.28	    8.73
    103.4726	   22.00	   15.06	 -346.31	    8.74
    103.5060	   27.00	   15.10	 -341.35	    8.76
    103.5394	   17.00	   15.15	 -351.40	    8.77
    103.5728	   18.00	   15.20	 -350.45	    8.78
    103.6063	   18.00	   15.27	 -350.52	    8.80
    103.6397	   15.00	   15.35	 -353.60	    8.81
    103.6731	   14.00	   15.43	 -354.68	    8.82
    103.7065	   24.00	   15.53	 -344.78	    8.84
    103.7400	   23.00	   15.63	 -345.88	    8.85
    103.7734	   19.00	   15.75	 -350.00	    8.86
    103.8068	   18.00	   15.88	 -351.12	    8.88
    103.8402	   20.00	   16.01	 -349.26	    8.89
    103.8736	   18.00	   16.16	 -351.41	    8.90
    103.9071	   17.00	   16.33	 -352.58	    8.92
    103.9405	   14.00	   16.50	 -355.75	    8.93
    103.9739	   20.00	   16.69	 -349.94	    8.94
    104.0073	   18.00	   16.90	 -352.15	    8.96
    104.0407	   14.00	   17.12	 -356.37	    8.97
    104.0742	   18.00	   17.37	 -352.62	    8.98
    104.1076	   15.00	   17.63	 -355.88	    9.00
    104.1410	   19.00	   17.91	 -352.16	    9.01
    104.1744	   23.00	   18.22	 -348.47	    9.02
    104.2079	   16.00	   18.56	 -355.81	    9.04
    104.2413	   28.00	   18.92	 -344.17	    9.05
    104.2747	   24.00	   19.32	 -348.57	    9.06
    104.3081	   16.00	   19.75	 -357.00	    9.08
    104.3416	   20.00	   20.22	 -353.47	    9.09
    104.3750	   21.00	   20.73	 -352.98	    9.10
    104.4084	   27.00	   21.30	 -347.55	    9.12
    104.4418	   27.00	   21.91	 -348.16	    9.13
    104.4752	   36.00	   22.59	 -339.84	    9.14
    104.5087	   24.00	   23.33	 -352.58	    9.16
    104.5421	   19.00	   24.14	 -358.39	    9.17
    104.5755	   25.00	   25.04	 -353.29	    9.18
    104.6089	   21.00	   26.02	 -358.27	    9.20
    104.6424	   30.00	   27.10	 -350.35	    9.21
    104.6758	   29.00	   28.28	 -352.53	    9.22
    104.7092	   30.00	   29.57	 -352.82	    9.24
    104.7426	   29.00	   30.98	 -355.23	    9.25
    104.7760	   42.00	   32.52	 -343.77	    9.26
    104.8095	   35.00	   34.19	 -352.44	    9.28
    104.8429	   36.00	   35.98	 -353.23	    9.29
    104.8763	   44.00	   37.88	 -347.13	    9.30
    104.9097	   44.00	   39.89	 -349.14	    9.32
    104.9432	   36.00	   41.97	 -359.22	    9.33
    104.9766	   51.00	   44.09	 -346.34	    9.34
    105.0100	   31.00	   46.18	 -368.43	    9.36
    105.0434	   59.00	   48.19	 -342.44	    9.37
    105.0769	   58.00	   50.05	 -345.30	    9.38
    105.1103	   71.00	   51.67	 -333.92	    9.40
    105.1437	   65.00	   53.01	 -341.26	    9.41
    105.1771	   71.00	   54.01	 -336.26	    9.42
    105.2105	   55.00	   54.65	 -352.90	    9.44
    105.2440	   73.00	   54.94	 -335.19	    9.45
    105.2774	   77.00	   54.92	 -331.17	    9.46
    105.3108	   52.00	   54.63	 -355.88	    9.48
    105.3442	   55.00	   54.13	 -352.38	    9.49
    105.3777	   58.00	   53.48	 -348.73	    9.50
    105.4111	   50.00	   52.70	 -355.95	    9.52
    105.4445	   59.00	   51.91	 -346.16	    9.53
    105.4779	   45.00	   50.94	 -359.19	    9.54
    105.5113	   60.00	   49.88	 -343.13	    9.56
    105.5448	   75.00	   48.73	 -326.98	    9.57
    105.5782	   52.00	   47.49	 -348.74	    9.58
    105.6116	   56.00	   46.18	 -343.43	    9.60
    105.6450	   49.00	   44.81	 -349.06	    9.61
    105.6785	   46.00	   43.43	 -350.68	    9.62
    105.7119	   33.00	   42.05	 -362.30	    9.64
    105.7453	   54.00	   40.73	 -339.98	    9.65
    105.7787	   47.00	   39.47	 -345.72	    9.66
    105.8121	   39.00	   38.36	 -352.61	    9.68
    105.8456	   36.00	   37.31	 -354.56	    9.69
    105.8790	   41.00	   36.38	 -348.63	    9.70
    105.9124	   28.00	   35.57	 -360.82	    9.72
    105.9458	   41.00	   34.87	 -347.12	    9.73
    105.9793	   34.00	   34.28	 -353.53	    9.74
    106.0127	   32.00	   33.76	 -355.01	    9.76
    106.0461	   38.00	   33.31	 -348.56	    9.77
    106.0795	   42.00	   32.91	 -344.16	    9.78
    106.1129	   32.00	   32.52	 -353.77	    9.80
    106.1464	   42.00	   32.12	 -343.37	    9.81
    106.1798	   35.00	   31.71	 -349.96	    9.82
    106.2132	   35.00	   31.27	 -349.52	    9.84
    106.2466	   27.00	   30.79	 -357.04	    9.85
    106.2801	   33.00	   30.28	 -350.53	    9.86
    106.3135	   31.00	   29.76	 -352.01	    9.88
    106.3469	   39.00	   29.21	 -343.46	    9.89
    106.3803	   37.00	   28.66	 -344.91	    9.90
    106.4137	   32.00	   28.11	 -349.36	    9.92
    106.4472	   31.00	   27.56	 -349.81	    9.93
    106.4806	   24.00	   27.00	 -356.25	    9.94
    106.5140	   19.00	   26.45	 -360.70	    9.96
    106.5474	   31.00	   25.89	 -348.14	    9.97
    106.5809	   30.00	   25.32	 -348.57	    9.98
    106.6143	   32.00	   24.75	 -346.00	   10.00
    106.6477	   35.00	   24.18	 -342.43	   10.01
    106.6811	   18.00	   23.60	 -358.85	   10.02
    106.7146	   23.00	   23.04	 -353.29	   10.04
    106.7480	   24.00	   22.49	 -351.74	   10.05
    106.7814	   19.00	   21.90	 -356.15	   10.06
    106.8148	   19.00	   21.39	 -355.64	   10.08
    106.8482	   18.00	   20.91	 -356.16	   10.09
    106.8817	   19.00	   20.46	 -354.71	   10.10
    106.9151	   18.00	   20.04	 -355.29	   10.12
    106.9485	   18.00	   19.65	 -354.90	   10.13
    106.9819	   23.00	   19.29	 -349.54	   10.14
    107.0154	   15.00	   18.95	 -357.20	   10.16
    107.0488	   21.00	   18.65	 -350.90	   10.17
    107.0822	   20.00	   18.36	 -351.61	   10.18
    107.1156	   16.00	   18.11	 -355.36	   10.20
    107.1490	   18.00	   17.84	 -353.09	   10.21
    107.1825	   22.00	   17.62	 -348.87	   10.22
    107.2159	   20.00	   17.42	 -350.67	   10.24
    107.2493	   20.00	   17.24	 -350.49	   10.25
    107.2827	   18.00	   17.07	 -352.32	   10.26
    107.3162	    9.00	   16.92	 -361.17	   10.28
    107.3496	   20.00	   16.77	 -350.02	   10.29
    107.3830	   12.00	   16.64	 -357.89	   10.30
    107.4164	   23.00	   16.52	 -346.77	   10.32
    107.4499	   17.00	   16.41	 -352.66	   10.33
    107.4833	   22.00	   16.31	 -347.56	   10.34
    107.5167	   21.00	   16.22	 -348.47	   10.36
    107.5501	   15.00	   16.13	 -354.38	   10.37
    107.5835	   33.00	   16.05	 -336.30	   10.38
    107.6170	   11.00	   15.98	 -358.23	   10.40
    107.6504	   15.00	   15.91	 -354.16	   10.41
    107.6838	   18.00	   15.85	 -351.10	   10.42
    107.7172	   17.00	   15.79	 -352.04	   10.44
    107.7507	   10.00	   15.74	 -358.99	   10.45
    107.7841	   14.00	   15.69	 -354.94	   10.46
    107.8175	   18.00	   15.65	 -350.90	   10.48
    107.8509	   17.00	   15.61	 -351.86	   10.49
    107.8843	   12.00	   15.58	 -356.83	   10.50
    107.9178	   19.00	   15.54	 -349.79	   10.52
    107.9512	   12.00	   15.52	 -356.77	   10.53
    107.9846	   18.00	   15.49	 -350.74	   10.54
    108.0180	   22.00	   15.47	 -346.72	   10.56
    108.0515	   24.00	   15.45	 -344.70	   10.57
    108.0849	   15.00	   15.44	 -353.69	   10.58
    108.1183	   19.00	   15.42	 -349.67	   10.60
    108.1517	   15.00	   15.41	 -353.66	   10.61
    108.1852	   10.00	   15.41	 -358.66	   10.62
    108.2186	   17.00	   15.40	 -351.65	   10.64
    108.2520	   18.00	   15.40	 -350.65	   10.65
    108.2854	   12.00	   15.40	 -356.65	   10.66
    108.3188	   17.00	   15.40	 -351.65	   10.68
    108.3523	   19.00	   15.41	 -349.66	   10.69
    108.3857	   31.00	   15.43	 -337.68	   10.70
    108.4191	    7.00	   15.44	 -361.69	   10.72
    108.4525	   18.00	   15.45	 -350.70	   10.73
    108.4859	   16.00	   15.47	 -352.72	   10.74
    108.5194	   19.00	   15.49	 -349.74	   10.76
    108.5528	   19.00	   15.51	 -349.76	   10.77
    108.5862	   15.00	   15.53	 -353.78	   10.78
    108.6196	   16.00	   15.56	 -352.81	   10.80
    108.6531	   17.00	   15.59	 -351.84	   10.81
    108.6865	    8.00	   15.62	 -360.87	   10.82
    108.7199	   11.00	   15.66	 -357.91	   10.84
    108.7533	   17.00	   15.70	 -351.95	   10.85
    108.7868	   17.00	   15.75	 -352.00	   10.86
    108.8202	   16.00	   15.80	 -353.05	   10.88
    108.8536	   20.00	   15.85	 -349.10	   10.89
    108.8870	   14.00	   15.90	 -355.15	   10.90
    108.9204	   19.00	   15.96	 -350.21	   10.92
    108.9539	   20.00	   16.03	 -349.28	   10.93
    108.9873	   15.00	   16.10	 -354.35	   10.94
    109.0207	   15.00	   16.18	 -354.43	   10.96
    109.0541	   19.00	   16.26	 -350.51	   10.97
    109.0876	   14.00	   16.35	 -355.60	   10.98
    109.1210	   18.00	   16.44	 -351.69	   11.00
    109.1544	   18.00	   16.55	 -351.80	   11.01
    109.1878	   19.00	   16.66	 -350.91	   11.02
    109.2212	   21.00	   16.78	 -349.03	   11.04
    109.2547	   20.00	   16.91	 -350.16	   11.05
    109.2881	   19.00	   17.05	 -351.30	   11.06
    109.3215	   18.00	   17.21	 -352.46	   11.08
    109.3549	   16.00	   17.38	 -354.63	   11.09
    109.3884	    8.00	   17.56	 -362.81	   11.10
    109.4218	   18.00	   17.76	 -353.01	   11.12
    109.4552	   19.00	   17.97	 -352.22	   11.13
    109.4886	   15.00	   18.21	 -356.46	   11.14
    109.5220	   18.00	   18.47	 -353.72	   11.16
    109.5555	   17.00	   18.75	 -355.00	   11.17
    109.5889	   15.00	   19.05	 -357.30	   11.18
    109.6223	   16.00	   19.38	 -356.63	   11.20
    109.6557	   14.00	   19.75	 -359.00	   11.21
    109.6892	   22.00	   20.14	 -351.39	   11.22
    109.7226	   31.00	   20.57	 -342.82	   11.24
    109.7560	   20.00	   21.04	 -354.29	   11.25
    109.7894	   21.00	   21.54	 -353.79	   11.26
    109.8229	   24.00	   22.09	 -351.34	   11.28
    109.8563	   22.00	   22.67	 -353.92	   11.29
    109.8897	   24.00	   23.06	 -352.31	   11.30
    109.9231	   25.00	   23.72	 -351.97	   11.32
    109.9565	   30.00	   24.41	 -347.66	   11.33
    109.9900	   24.00	   25.12	 -354.37	   11.34
    110.0234	   28.00	   25.84	 -351.09	   11.36
    110.0568	   25.00	   26.55	 -354.80	   11.37
    110.0902	   42.00	   27.23	 -338.48	   11.38
    110.1237	   23.00	   27.86	 -358.11	   11.40
    110.1571	   29.00	   28.43	 -352.68	   11.41
    110.1905	   29.00	   28.91	 -353.16	   11.42
    110.2239	   33.00	   29.28	 -349.53	   11.44
    110.2573	   35.00	   29.42	 -347.67	   11.45
    110.2908	   29.00	   29.57	 -353.82	   11.46
    110.3242	   30.00	   29.61	 -352.86	   11.48
    110.3576	   39.00	   29.55	 -343.80	   11.49
    110.3910	   30.00	   29.41	 -352.66	   11.50
    110.4245	   31.00	   29.20	 -351.45	   11.52
    110.4579	   37.00	   28.94	 -345.19	   11.53
    110.4913	   42.00	   28.64	 -339.89	   11.54
    110.5247	   34.00	   28.30	 -347.55	   11.56
    110.5581	   27.00	   27.94	 -354.19	   11.57
    110.5916	   23.00	   27.53	 -357.78	   11.58
    110.6250	   37.00	   27.10	 -343.35	   11.60
    110.6584	   35.00	   26.63	 -344.88	   11.61
    110.6918	   33.00	   26.13	 -346.38	   11.62
    110.7253	   35.00	   25.60	 -343.85	   11.64
    110.7587	   33.00	   25.05	 -345.30	   11.65
    110.7921	   34.00	   24.49	 -343.74	   11.66
    110.8255	   21.00	   23.93	 -356.18	   11.68
    110.8589	   22.00	   23.36	 -354.61	   11.69
    110.8924	   23.00	   22.81	 -353.06	   11.70
    110.9258	   14.00	   22.23	 -361.48	   11.72
    110.9592	   24.00	   21.72	 -350.97	   11.73
    110.9926	   21.00	   21.25	 -353.50	   11.74
    111.0261	   24.00	   20.80	 -350.05	   11.76
    111.0595	   19.00	   20.39	 -354.64	   11.77
    111.0929	   21.00	   20.00	 -352.25	   11.78
    111.1263	   17.00	   19.65	 -355.90	   11.80
    111.1598	   22.00	   19.32	 -350.57	   11.81
    111.1932	   19.00	   19.03	 -353.28	   11.82
    111.2266	   16.00	   18.75	 -356.00	   11.84
    111.2600	   18.00	   18.50	 -353.75	   11.85
    111.2934	   22.00	   18.27	 -349.52	   11.86
    111.3269	   25.00	   18.03	 -346.28	   11.88
    111.3603	   18.00	   17.84	 -353.09	   11.89
    111.3937	   29.00	   17.67	 -341.92	   11.90
    111.4271	   20.00	   17.51	 -350.76	   11.92
    111.4606	   20.00	   17.36	 -350.61	   11.93
    111.4940	   19.00	   17.23	 -351.48	   11.94
    111.5274	   21.00	   17.11	 -349.36	   11.96
    111.5608	    8.00	   17.00	 -362.25	   11.97
    111.5942	   16.00	   16.89	 -354.14	   11.98
    111.6277	   15.00	   16.80	 -355.05	   12.00
    111.6611	   18.00	   16.72	 -351.97	   12.01
    111.6945	   14.00	   16.64	 -355.89	   12.02
    111.7279	   16.00	   16.57	 -353.82	   12.04
    111.7614	   15.00	   16.50	 -354.75	   12.05
    111.7948	   20.00	   16.44	 -349.69	   12.06
    111.8282	   12.00	   16.39	 -357.64	   12.08
    111.8616	   16.00	   16.34	 -353.59	   12.09
    111.8951	   19.00	   16.29	 -350.54	   12.10
    111.9285	   16.00	   16.25	 -353.50	   12.12
    111.9619	   19.00	   16.22	 -350.47	   12.13
    111.9953	   17.00	   16.18	 -352.43	   12.14
    112.0287	   12.00	   16.15	 -357.40	   12.16
    112.0622	   18.00	   16.13	 -351.38	   12.17
    112.0956	   18.00	   16.11	 -351.36	   12.18
    112.1290	   14.00	   16.09	 -355.34	   12.20
    112.1624	   17.00	   16.07	 -352.32	   12.21
    112.1959	   15.00	   16.05	 -354.30	   12.23
    112.2293	   10.00	   16.04	 -359.29	   12.24
    112.2627	   18.00	   16.03	 -351.28	   12.25
    112.2961	    8.00	   16.03	 -361.28	   12.27
    112.3295	   11.00	   16.02	 -358.27	   12.28
    112.3630	   17.00	   16.02	 -352.27	   12.30
    112.3964	   18.00	   16.02	 -351.27	   12.31
    112.4298	   17.00	   16.03	 -352.28	   12.32
    112.4632	   21.00	   16.03	 -348.28	   12.34
    112.4967	   10.00	   16.04	 -359.29	   12.35
    112.5301	   14.00	   16.05	 -355.30	   12.37
    112.5635	   10.00	   16.06	 -359.31	   12.38
    112.5969	   17.00	   16.08	 -352.33	   12.40
    112.6303	   20.00	   16.10	 -349.35	   12.41
    112.6638	   20.00	   16.12	 -349.37	   12.42
    112.6972	   19.00	   16.15	 -350.40	   12.44
    112.7306	   14.00	   16.17	 -355.42	   12.45
    112.7640	   21.00	   16.21	 -348.46	   12.47
    112.7975	   18.00	   16.24	 -351.49	   12.48
    112.8309	   14.00	   16.28	 -355.53	   12.49
    112.8643	   20.00	   16.32	 -349.57	   12.51
    112.8977	   15.00	   16.37	 -354.62	   12.52
    112.9311	   10.00	   16.42	 -359.67	   12.54
    112.9646	   21.00	   16.48	 -348.73	   12.55
    112.9980	   18.00	   16.54	 -351.79	   12.56
    113.0314	   14.00	   16.60	 -355.85	   12.58
    113.0648	   18.00	   16.66	 -351.91	   12.59
    113.0983	   12.00	   16.73	 -357.98	   12.61
    113.1317	   15.00	   16.80	 -355.05	   12.62
    113.1651	   14.00	   16.87	 -356.12	   12.63
    113.1985	   16.00	   16.93	 -354.18	   12.65
    113.2319	   19.00	   16.99	 -351.24	   12.66
    113.2654	   20.00	   17.05	 -350.30	   12.68
    113.2988	   22.00	   17.10	 -348.35	   12.69
    113.3322	   20.00	   17.14	 -350.39	   12.70
    113.3656	   21.00	   17.17	 -349.42	   12.72
    113.3991	   19.00	   17.19	 -351.44	   12.73
    113.4325	   18.00	   17.23	 -352.48	   12.75
    113.4659	   20.00	   17.23	 -350.48	   12.76
    113.4993	   18.00	   17.23	 -352.48	   12.77
    113.5328	   19.00	   17.22	 -351.47	   12.79
    113.5662	   10.00	   17.21	 -360.46	   12.80
    113.5996	   22.00	   17.19	 -348.44	   12.82
    113.6330	    8.00	   17.16	 -362.41	   12.83
    113.6664	   21.00	   17.14	 -349.39	   12.84
    113.6999	   11.00	   17.11	 -359.36	   12.86
    113.7333	   17.00	   17.08	 -353.33	   12.87
    113.7667	   11.00	   17.05	 -359.30	   12.89
    113.8001	    8.00	   17.02	 -362.27	   12.90
    113.8336	   16.00	   16.98	 -354.23	   12.91
    113.8670	   18.00	   16.95	 -352.20	   12.93
    113.9004	   14.00	   16.91	 -356.16	   12.94
    113.9338	   18.00	   16.87	 -352.12	   12.96
    113.9672	   11.00	   16.83	 -359.08	   12.97
    114.0007	   18.00	   16.78	 -352.03	   12.98
    114.0341	   17.00	   16.74	 -352.99	   13.00
    114.0675	   16.00	   16.70	 -353.95	   13.01
    114.1009	   12.00	   16.67	 -357.92	   13.03
    114.1344	   15.00	   16.63	 -354.88	   13.04
    114.1678	   16.00	   16.60	 -353.85	   13.05
    114.2012	   16.00	   16.57	 -353.82	   13.07
    114.2346	   15.00	   16.54	 -354.79	   13.08
    114.2681	   12.00	   16.52	 -357.77	   13.10
    114.3015	   16.00	   16.49	 -353.74	   13.11
    114.3349	   12.00	   16.48	 -357.73	   13.12
    114.3683	   24.00	   16.46	 -345.71	   13.14
    114.4017	   15.00	   16.44	 -354.69	   13.15
    114.4352	   17.00	   16.43	 -352.68	   13.17
    114.4686	   16.00	   16.42	 -353.67	   13.18
    114.5020	   11.00	   16.41	 -358.66	   13.19
    114.5354	   20.00	   16.40	 -349.65	   13.21
    114.5688	   14.00	   16.40	 -355.65	   13.22
    114.6023	   25.00	   16.39	 -344.64	   13.24
    114.6357	   15.00	   16.39	 -354.64	   13.25
    114.6691	   20.00	   16.39	 -349.64	   13.26
    114.7025	   17.00	   16.39	 -352.64	   13.28
    114.7360	   23.00	   16.39	 -346.64	   13.29
    114.7694	   14.00	   16.39	 -355.64	   13.31
    114.8028	   14.00	   16.39	 -355.64	   13.32
    114.8362	   18.00	   16.39	 -351.64	   13.33
    114.8697	    9.00	   16.40	 -360.65	   13.35
    114.9031	   16.00	   16.40	 -353.65	   13.36
    114.9365	   20.00	   16.41	 -349.66	   13.38
    114.9699	   16.00	   16.41	 -353.66	   13.39
    115.0033	   21.00	   16.42	 -348.67	   13.40
    115.0368	   20.00	   16.42	 -349.67	   13.42
    115.0702	   19.00	   16.43	 -350.68	   13.43
    115.1036	   11.00	   16.44	 -358.69	   13.45
    115.1370	   18.00	   16.44	 -351.69	   13.46
    115.1705	   15.00	   16.36	 -354.61	   13.47
    115.2039	   15.00	   16.37	 -354.62	   13.49
    115.2373	   17.00	   16.38	 -352.63	   13.50
    115.2707	   25.00	   16.39	 -344.64	   13.52
    115.3041	   14.00	   16.40	 -355.65	   13.53
    115.3376	   10.00	   16.41	 -359.66	   13.54
    115.3710	   16.00	   16.42	 -353.67	   13.56
    115.4044	   19.00	   16.43	 -350.68	   13.57
    115.4378	   21.00	   16.44	 -348.69	   13.59
    115.4713	   18.00	   16.46	 -351.71	   13.60
    115.5047	   10.00	   16.47	 -359.72	   13.61
    115.5381	   14.00	   16.48	 -355.73	   13.63
    115.5715	   11.00	   16.49	 -358.74	   13.64
    115.6049	   15.00	   16.46	 -354.71	   13.66
    115.6384	   18.00	   16.47	 -351.72	   13.67
    115.6718	   15.00	   16.49	 -354.74	   13.68
    115.7052	   15.00	   16.50	 -354.75	   13.70
    115.7386	   10.00	   16.52	 -359.77	   13.71
    115.7721	   16.00	   16.53	 -353.78	   13.73
    115.8055	   25.00	   16.55	 -344.80	   13.74
    115.8389	   12.00	   16.56	 -357.81	   13.75
    115.8723	   17.00	   16.58	 -352.83	   13.77
    115.9058	   18.00	   16.59	 -351.84	   13.78
    115.9392	   16.00	   16.61	 -353.86	   13.80
    115.9726	   15.00	   16.62	 -354.87	   13.81
    116.0060	    6.00	   16.64	 -363.89	   13.83
    116.0394	   19.00	   16.65	 -350.90	   13.84
    116.0729	   16.00	   16.67	 -353.92	   13.85
    116.1063	   17.00	   16.69	 -352.94	   13.87
    116.1397	   23.00	   16.70	 -346.95	   13.88
    116.1731	   15.00	   16.72	 -354.97	   13.90
    116.2066	   17.00	   16.74	 -352.99	   13.91
    116.2400	   12.00	   16.75	 -358.00	   13.92
    116.2734	   15.00	   16.77	 -355.02	   13.94
    116.3068	   16.00	   16.79	 -354.04	   13.95
    116.3402	   19.00	   16.81	 -351.06	   13.97
    116.3737	   11.00	   16.83	 -359.08	   13.98
    116.4071	   10.00	   16.84	 -360.09	   13.99
    116.4405	   18.00	   16.86	 -352.11	   14.01
    116.4739	   15.00	   16.88	 -355.13	   14.02
    116.5074	   14.00	   16.90	 -356.15	   14.04
    116.5408	   27.00	   17.13	 -343.38	   14.05
    116.5742	   15.00	   17.15	 -355.40	   14.06
    116.6076	   12.00	   17.18	 -358.43	   14.08
    116.6410	   24.00	   17.20	 -346.45	   14.09
    116.6745	   10.00	   17.22	 -360.47	   14.11
    116.7079	   12.00	   17.25	 -358.50	   14.12
    116.7413	   20.00	   17.27	 -350.52	   14.13
    116.7747	   22.00	   17.30	 -348.55	   14.15
    116.8082	   17.00	   17.32	 -353.57	   14.16
    116.8416	   14.00	   17.35	 -356.60	   14.18
    116.8750	   11.00	   17.37	 -359.62	   14.19
    116.9084	   22.00	   17.40	 -348.65	   14.20
    116.9418	   17.00	   17.43	 -353.68	   14.22
    116.9753	   17.00	   17.46	 -353.71	   14.23
    117.0087	   11.00	   17.59	 -359.84	   14.25
    117.0421	   11.00	   17.62	 -359.87	   14.26
    117.0755	   22.00	   17.65	 -348.90	   14.27
    117.1090	   14.00	   17.68	 -356.93	   14.29
    117.1424	   19.00	   17.72	 -351.97	   14.30
    117.1758	   15.00	   17.75	 -356.00	   14.32
    117.2092	   19.00	   17.79	 -352.04	   14.33
    117.2427	   15.00	   17.82	 -356.07	   14.34
    117.2761	   18.00	   17.86	 -353.11	   14.36
    117.3095	   16.00	   17.90	 -355.15	   14.37
    117.3429	   17.00	   17.94	 -354.19	   14.39
    117.3763	   29.00	   17.98	 -342.23	   14.40
    117.4098	   18.00	   18.02	 -353.27	   14.41
    117.4432	   22.00	   18.06	 -349.31	   14.43
    117.4766	   16.00	   18.11	 -355.36	   14.44
    117.5100	   18.00	   18.16	 -353.41	   14.46
    117.5435	   16.00	   18.21	 -355.46	   14.47
    117.5769	   15.00	   18.26	 -356.51	   14.48
    117.6103	   11.00	   18.31	 -360.56	   14.50
    117.6437	   24.00	   18.37	 -347.62	   14.51
    117.6771	   23.00	   18.43	 -348.68	   14.53
    117.7106	   19.00	   18.49	 -352.74	   14.54
    117.7440	   10.00	   18.55	 -361.80	   14.55
    117.7774	   19.00	   18.62	 -352.87	   14.57
    117.8108	   20.00	   18.69	 -351.94	   14.58
    117.8443	   18.00	   18.77	 -354.02	   14.60
    117.8777	   17.00	   18.85	 -355.10	   14.61
    117.9111	   23.00	   18.94	 -349.19	   14.62
    117.9445	   16.00	   19.03	 -356.28	   14.64
    117.9780	   23.00	   19.12	 -349.37	   14.65
    118.0114	   18.00	   19.23	 -354.48	   14.67
    118.0448	   17.00	   19.34	 -355.59	   14.68
    118.0782	   14.00	   19.45	 -358.70	   14.69
    118.1116	   20.00	   19.57	 -352.82	   14.71
    118.1451	   24.00	   19.70	 -348.95	   14.72
    118.1785	   18.00	   19.84	 -355.09	   14.74
    118.2119	   19.00	   19.99	 -354.24	   14.75
    118.2453	   19.00	   20.14	 -354.39	   14.76
    118.2788	   12.00	   20.30	 -361.55	   14.78
    118.3122	   21.00	   20.48	 -352.73	   14.79
    118.3456	   23.00	   20.65	 -350.90	   14.81
    118.3790	   17.00	   20.84	 -357.09	   14.82
    118.4124	   21.00	   21.03	 -353.28	   14.83
    118.4459	   20.00	   21.21	 -354.46	   14.85
    118.4793	   15.00	   21.41	 -359.66	   14.86
    118.5127	   15.00	   21.60	 -359.85	   14.88
    118.5461	   23.00	   21.79	 -352.04	   14.89
    118.5796	   24.00	   21.97	 -351.22	   14.90
    118.6130	   20.00	   22.13	 -355.38	   14.92
    118.6464	   25.00	   22.28	 -350.53	   14.93
    118.6798	   22.00	   22.41	 -353.66	   14.95
    118.7132	   24.00	   22.52	 -351.77	   14.96
    118.7467	   24.00	   22.60	 -351.85	   14.97
    118.7801	   37.00	   22.67	 -338.92	   14.99
    118.8135	   17.00	   22.71	 -358.96	   15.00
    118.8469	   23.00	   22.73	 -352.98	   15.02
    118.8804	   28.00	   22.73	 -347.98	   15.03
    118.9138	   23.00	   22.71	 -352.96	   15.04
    118.9472	   25.00	   22.69	 -350.94	   15.06
    118.9806	   24.00	   22.65	 -351.90	   15.07
    119.0140	   20.00	   22.61	 -355.86	   15.09
    119.0475	   14.00	   22.56	 -361.81	   15.10
    119.0809	   17.00	   22.51	 -358.76	   15.11
    119.1143	   21.00	   22.45	 -354.70	   15.13
    119.1477	   22.00	   22.39	 -353.64	   15.14
    119.1812	   18.00	   22.31	 -357.56	   15.16
    119.2146	   19.00	   22.24	 -356.49	   15.17
    119.2480	   20.00	   22.15	 -355.40	   15.18
    119.2814	   25.00	   22.07	 -350.32	   15.20
    119.3148	   15.00	   21.97	 -360.22	   15.21
    119.3483	   14.00	   21.88	 -361.13	   15.23
    119.3817	   19.00	   21.78	 -356.03	   15.24
    119.4151	   17.00	   21.69	 -357.94	   15.26
    119.4485	   19.00	   21.59	 -355.84	   15.27
    119.4820	   22.00	   21.50	 -352.75	   15.28
    119.5154	   23.00	   21.40	 -351.65	   15.28
    119.5488	   16.00	   21.30	 -358.55	   15.28
    119.5822	   15.00	   21.22	 -359.47	   15.28
    119.6157	   18.00	   21.14	 -356.39	   15.28
    119.6491	   16.00	   21.06	 -358.31	   15.28
    119.6825	   28.00	   21.00	 -346.25	   15.28
    119.7159	   22.00	   20.94	 -352.19	   15.28
    119.7493	   21.00	   20.89	 -353.14	   15.28
    119.7828	   21.00	   20.85	 -353.10	   15.28
    119.8162	   21.00	   20.81	 -353.06	   15.28
    119.8496	   19.00	   20.78	 -355.03	   15.28
    119.8830	   25.00	   20.76	 -349.01	   15.28
    119.9165	   19.00	   20.75	 -355.00	   15.28
    119.9499	   12.00	   20.74	 -361.99	   15.28
    119.9833	   17.00	   21.21	 -357.46	   15.28
     18.2608	        	        	        	        	       0	(  1  1  1)	  0  1 :  1
     18.3062	        	        	        	        	       0	(  1  1  1)	  0  2 :  1
     30.0520	        	        	        	        	       0	(  0  2  2)	  0  1 :  1
     30.1277	        	        	        	        	       0	(  0  2  2)	  0  2 :  1
     35.4012	        	        	        	        	       0	(  1  3  1)	  0  1 :  1
     35.4913	        	        	        	        	       0	(  1  3  1)	  0  2 :  1
     37.0324	        	        	        	        	       0	(  2  2  2)	  0  1 :  1
     37.1269	        	        	        	        	       0	(  2  2  2)	  0  2 :  1
     43.0288	        	        	        	        	       0	(  0  4  0)	  0  1 :  1
     43.1401	        	        	        	        	       0	(  0  4  0)	  0  2 :  1
     47.1140	        	        	        	        	       0	(  3  1  3)	  0  1 :  1
     47.2370	        	        	        	        	       0	(  3  1  3)	  0  2 :  1
     53.3859	        	        	        	        	       0	(  4  2  2)	  0  1 :  1
     53.5278	        	        	        	        	       0	(  4  2  2)	  0  2 :  1
     56.9106	        	        	        	        	       0	(  3  3  3)	  0  1 :  1
     56.9106	        	        	        	        	       0	(  5  1  1)	  0  1 :  1
     57.0635	        	        	        	        	       0	(  3  3  3)	  0  2 :  1
     57.0635	        	        	        	        	       0	(  5  1  1)	  0  2 :  1
     62.4956	        	        	        	        	       0	(  0  4  4)	  0  1 :  1
     62.6668	        	        	        	        	       0	(  0  4  4)	  0  2 :  1
     65.7111	        	        	        	        	       0	(  5  1  3)	  0  1 :  1
     65.8934	        	        	        	        	       0	(  5  1  3)	  0  2 :  1
     66.7646	        	        	        	        	       0	(  4  2  4)	  0  1 :  1
     66.9505	        	        	        	        	       0	(  4  2  4)	  0  2 :  1
     70.9010	        	        	        	        	       0	(  6  0  2)	  0  1 :  1
     71.1020	        	        	        	        	       0	(  6  0  2)	  0  2 :  1
     73.9356	        	        	        	        	       0	(  5  3  3)	  0  1 :  1
     74.1481	        	        	        	        	       0	(  5  3  3)	  0  2 :  1
     74.9365	        	        	        	        	       0	(  2  2  6)	  0  1 :  1
     75.1529	        	        	        	        	       0	(  2  2  6)	  0  2 :  1
     78.8969	        	        	        	        	       0	(  4  4  4)	  0  1 :  1
     79.1292	        	        	        	        	       0	(  4  4  4)	  0  2 :  1
     81.8313	        	        	        	        	       0	(  5  5  1)	  0  1 :  1
     81.8313	        	        	        	        	       0	(  7  1  1)	  0  1 :  1
     82.0760	        	        	        	        	       0	(  5  5  1)	  0  2 :  1
     82.0760	        	        	        	        	       0	(  7  1  1)	  0  2 :  1
     86.6784	        	        	        	        	       0	(  2  4  6)	  0  1 :  1
     86.9448	        	        	        	        	       0	(  2  4  6)	  0  2 :  1
     89.5730	        	        	        	        	       0	(  7  3  1)	  0  1 :  1
     89.5730	        	        	        	        	       0	(  5  5  3)	  0  1 :  1
     89.8533	        	        	        	        	       0	(  7  3  1)	  0  2 :  1
     89.8533	        	        	        	        	       0	(  5  5  3)	  0  2 :  1
     94.3989	        	        	        	        	       0	(  8  0  0)	  0  1 :  1
     94.7039	        	        	        	        	       0	(  8  0  0)	  0  2 :  1
     97.3073	        	        	        	        	       0	(  3  3  7)	  0  1 :  1
     97.6283	        	        	        	        	       0	(  3  3  7)	  0  2 :  1
     98.2806	        	        	        	        	       0	(  6  4  4)	  0  1 :  1
     98.6072	        	        	        	        	       0	(  6  4  4)	  0  2 :  1
    102.2012	        	        	        	        	       0	(  8  2  2)	  0  1 :  1
    102.2012	        	        	        	        	       0	(  0  6  6)	  0  1 :  1
    102.5514	        	        	        	        	       0	(  8  2  2)	  0  2 :  1
    102.5514	        	        	        	        	       0	(  0  6  6)	  0  2 :  1
    105.1792	        	        	        	        	       0	(  7  5  1)	  0  1 :  1
    105.1792	        	        	        	        	       0	(  5  5  5)	  0  1 :  1
    105.5488	        	        	        	        	       0	(  7  5  1)	  0  2 :  1
    105.5488	        	        	        	        	       0	(  5  5  5)	  0  2 :  1
    106.1809	        	        	        	        	       0	(  6  2  6)	  0  1 :  1
    106.5572	        	        	        	        	       0	(  6  2  6)	  0  2 :  1
    110.2427	        	        	        	        	       0	(  4  0  8)	  0  1 :  1
    110.6483	        	        	        	        	       0	(  4  0  8)	  0  2 :  1
    113.3591	        	        	        	        	       0	(  9  1  1)	  0  1 :  1
    113.3591	        	        	        	        	       0	(  7  3  5)	  0  1 :  1
    113.7894	        	        	        	        	       0	(  9  1  1)	  0  2 :  1
    113.7894	        	        	        	        	       0	(  7  3  5)	  0  2 :  1
    114.4139	        	        	        	        	       0	(  8  4  2)	  0  1 :  1
    114.8529	        	        	        	        	       0	(  8  4  2)	  0  2 :  1
    118.7282	        	        	        	        	       0	(  6  4  6)	  0  1 :  1
    119.2060	        	        	        	        	       0	(  6  4  6)	  0  2 :  1
    122.0833	        	        	        	        	       0	(  9  1  3)	  0  1 :  1
    122.5950	        	        	        	        	       0	(  9  1  3)	  0  2 :  1
    127.9749	        	        	        	        	       0	(  4  4  8)	  0  1 :  1
    128.5558	        	        	        	        	       0	(  4  4  8)	  0  2 :  1
    131.7449	        	        	        	        	       0	(  5  5  7)	  0  1 :  1
    131.7449	        	        	        	        	       0	(  7  7  1)	  0  1 :  1
    131.7449	        	        	        	        	       0	(  9  3  3)	  0  1 :  1
    132.3784	        	        	        	        	       0	(  5  5  7)	  0  2 :  1
    132.3784	        	        	        	        	       0	(  7  7  1)	  0  2 :  1
    132.3784	        	        	        	        	       0	(  9  3  3)	  0  2 :  1
    138.5887	        	        	        	        	       0	( 10  0  2)	  0  1 :  1
    138.5887	        	        	        	        	       0	(  8  2  6)	  0  1 :  1
    139.3414	        	        	        	        	       0	( 10  0  2)	  0  2 :  1
    139.3414	        	        	        	        	       0	(  8  2  6)	  0  2 :  1
    143.1761	        	        	        	        	       0	(  1  9  5)	  0  1 :  1
    143.1761	        	        	        	        	       0	(  3  7  7)	  0  1 :  1
    144.0330	        	        	        	        	       0	(  1  9  5)	  0  2 :  1
    144.0329	        	        	        	        	       0	(  3  7  7)	  0  2 :  1
    144.8170	        	        	        	        	       0	(  2 10  2)	  0  1 :  1
    144.8170	        	        	        	        	       0	(  6  6  6)	  0  1 :  1
    145.7176	        	        	        	        	       0	(  2 10  2)	  0  2 :  1
    145.7176	        	        	        	        	       0	(  6  6  6)	  0  2 :  1
