 Fe3O4   Chi2:  1.7464  CELL:    8.39312   8.39312   8.39312   90.0000   90.0000   90.0000   SPGR: 227:1                  TEMP:      0.00
  1   2543     1.54060     1.54439     0.00000     0.06871     0.00000    0
    90     0     1
       0.00000      15.00000
 2Theta	Yobs	Ycal	Yobs-Ycal	Backg	Posr	(hkl)	K
     15.0232	  239.00	  221.72	 -253.47	  214.29
     15.0566	  240.00	  221.73	 -252.48	  214.29
     15.0901	  215.00	  221.75	 -277.50	  214.29
     15.1235	  248.00	  221.76	 -244.51	  214.29
     15.1569	  212.00	  221.78	 -280.53	  214.29
     15.1903	  242.00	  222.10	 -250.85	  214.59
     15.2237	  218.00	  221.04	 -273.79	  213.52
     15.2572	  209.00	  219.99	 -281.74	  212.45
     15.2906	  243.00	  218.93	 -246.68	  211.38
     15.3240	  229.00	  217.88	 -259.63	  210.31
     15.3574	  228.00	  216.83	 -259.58	  209.24
     15.3909	  211.00	  215.77	 -275.52	  208.17
     15.4243	  233.00	  214.72	 -252.47	  207.10
     15.4577	  207.00	  213.67	 -277.42	  206.03
     15.4911	  212.00	  212.62	 -271.37	  204.96
     15.5245	  224.00	  211.57	 -258.32	  203.89
     15.5580	  203.00	  210.52	 -278.27	  202.82
     15.5914	  241.00	  209.47	 -239.22	  201.75
     15.6248	  232.00	  208.43	 -247.18	  200.68
     15.6582	  220.00	  207.38	 -258.13	  199.61
     15.6917	  203.00	  206.33	 -274.08	  198.54
     15.7251	  195.00	  205.29	 -281.04	  197.47
     15.7585	  214.00	  204.25	 -261.00	  196.40
     15.7919	  209.00	  203.20	 -264.95	  195.33
     15.8254	  222.00	  202.16	 -250.91	  194.26
     15.8588	  207.00	  201.12	 -264.87	  193.19
     15.8922	  206.00	  200.08	 -264.83	  192.12
     15.9256	  197.00	  199.04	 -272.79	  191.05
     15.9590	  210.00	  198.01	 -258.76	  189.98
     15.9925	  209.00	  196.97	 -258.72	  188.91
     16.0259	  219.00	  195.94	 -247.69	  187.84
     16.0593	  178.00	  194.90	 -287.65	  186.77
     16.0927	  209.00	  193.87	 -255.62	  185.70
     16.1262	  195.00	  192.84	 -268.59	  184.63
     16.1596	  175.00	  191.82	 -287.57	  183.56
     16.1930	  204.00	  190.79	 -257.54	  182.49
     16.2264	  186.00	  189.77	 -274.52	  181.42
     16.2598	  227.00	  188.75	 -232.50	  180.35
     16.2933	  208.00	  187.73	 -250.48	  179.28
     16.3267	  184.00	  186.88	 -273.63	  178.38
     16.3601	  190.00	  186.25	 -267.00	  177.69
     16.3935	  187.00	  185.62	 -269.37	  177.01
     16.4270	  220.00	  184.99	 -235.74	  176.32
     16.4604	  182.00	  184.37	 -273.12	  175.63
     16.4938	  178.00	  183.75	 -276.50	  174.94
     16.5272	  204.00	  183.14	 -249.89	  174.26
     16.5606	  196.00	  182.52	 -257.27	  173.57
     16.5941	  170.00	  181.92	 -282.67	  172.88
     16.6275	  154.00	  181.31	 -298.06	  172.19
     16.6609	  180.00	  180.72	 -271.47	  171.50
     16.6943	  210.00	  180.12	 -240.87	  170.82
     16.7278	  207.00	  179.53	 -243.28	  170.13
     16.7612	  198.00	  178.95	 -251.70	  169.44
     16.7946	  167.00	  178.38	 -282.13	  168.75
     16.8280	  203.00	  177.81	 -245.56	  168.06
     16.8615	  198.00	  177.25	 -250.00	  167.38
     16.8949	  154.00	  176.70	 -293.45	  166.69
     16.9283	  150.00	  176.16	 -296.91	  166.00
     16.9617	  187.00	  175.63	 -259.38	  165.31
     16.9951	  167.00	  175.11	 -278.86	  164.63
     17.0286	  158.00	  174.60	 -287.35	  163.94
     17.0620	  187.00	  174.10	 -257.85	  163.25
     17.0954	  164.00	  173.62	 -280.37	  162.56
     17.1288	  167.00	  173.15	 -276.90	  161.87
     17.1623	  165.00	  172.70	 -278.45	  161.19
     17.1957	  177.00	  172.28	 -266.03	  160.50
     17.2291	  203.00	  171.87	 -239.62	  159.81
     17.2625	  182.00	  171.48	 -260.23	  159.12
     17.2959	  191.00	  171.13	 -250.88	  158.44
     17.3294	  192.00	  170.80	 -249.55	  157.75
     17.3628	  179.00	  170.51	 -262.26	  157.06
     17.3962	  179.00	  170.25	 -262.00	  156.37
     17.4296	  180.00	  170.04	 -260.79	  155.68
     17.4631	  151.00	  169.87	 -289.62	  155.00
     17.4965	  178.00	  169.76	 -262.51	  154.31
     17.5299	  189.00	  169.71	 -251.46	  153.62
     17.5633	  186.00	  169.73	 -254.48	  152.93
     17.5967	  164.00	  169.84	 -276.59	  152.24
     17.6302	  183.00	  170.04	 -257.79	  151.56
     17.6636	  166.00	  170.35	 -275.10	  150.87
     17.6970	  185.00	  170.79	 -256.54	  150.18
     17.7304	  170.00	  171.39	 -272.14	  149.49
     17.7639	  168.00	  172.17	 -274.92	  148.81
     17.7973	  171.00	  173.16	 -272.91	  148.12
     17.8307	  172.00	  174.40	 -273.15	  147.43
     17.8641	  154.00	  175.95	 -292.70	  146.74
     17.8975	  181.00	  177.86	 -267.61	  146.05
     17.9310	  155.00	  180.19	 -295.94	  145.37
     17.9644	  154.00	  183.10	 -299.85	  144.77
     17.9978	  197.00	  186.72	 -260.47	  144.29
     18.0312	  182.00	  191.00	 -279.75	  143.81
     18.0647	  178.00	  196.04	 -288.79	  143.33
     18.0981	  162.00	  201.92	 -310.67	  142.85
     18.1315	  190.00	  208.67	 -289.42	  142.37
     18.1649	  187.00	  216.26	 -300.01	  141.89
     18.1984	  200.00	  224.54	 -295.29	  141.41
     18.2318	  204.00	  233.15	 -299.90	  140.93
     18.2652	  195.00	  241.52	 -317.27	  140.45
     18.2986	  195.00	  248.79	 -324.54	  139.97
     18.3320	  242.00	  254.00	 -282.75	  139.49
     18.3655	  207.00	  256.29	 -320.04	  139.01
     18.3989	  236.00	  255.20	 -289.95	  138.53
     18.4323	  240.00	  250.83	 -281.58	  138.05
     18.4657	  208.00	  243.83	 -306.58	  137.57
     18.4992	  191.00	  235.13	 -314.88	  137.09
     18.5326	  179.00	  225.65	 -317.40	  136.61
     18.5660	  187.00	  216.15	 -299.90	  136.13
     18.5994	  185.00	  207.14	 -292.89	  135.65
     18.6328	  207.00	  198.88	 -262.63	  135.17
     18.6663	  172.00	  191.48	 -290.23	  134.69
     18.6997	  183.00	  184.94	 -272.69	  134.21
     18.7331	  166.00	  179.21	 -283.96	  133.73
     18.7665	  142.00	  174.21	 -302.96	  133.25
     18.8000	  163.00	  169.84	 -277.59	  132.77
     18.8334	  152.00	  166.03	 -284.78	  132.29
     18.8668	  148.00	  162.69	 -285.44	  131.82
     18.9002	  160.00	  159.74	 -270.49	  131.34
     18.9336	  147.00	  157.14	 -280.89	  130.86
     18.9671	  151.00	  154.81	 -274.56	  130.38
     19.0005	  143.00	  152.73	 -280.48	  129.90
     19.0339	  136.00	  150.85	 -285.60	  129.42
     19.0673	  136.00	  149.14	 -283.89	  128.94
     19.1008	  125.00	  147.58	 -293.33	  128.46
     19.1342	  141.00	  146.14	 -275.89	  127.98
     19.1676	  131.00	  144.81	 -284.56	  127.50
     19.2010	  132.00	  143.57	 -282.32	  127.02
     19.2345	  150.00	  142.40	 -263.15	  126.54
     19.2679	  147.00	  141.31	 -265.06	  126.06
     19.3013	  141.00	  140.27	 -270.02	  125.58
     19.3347	  157.00	  139.28	 -253.03	  125.10
     19.3681	  146.00	  138.35	 -263.10	  124.62
     19.4016	  134.00	  137.45	 -274.20	  124.14
     19.4350	  117.00	  136.59	 -290.34	  123.66
     19.4684	  143.00	  135.76	 -263.51	  123.18
     19.5018	  131.00	  134.96	 -274.71	  122.70
     19.5353	  134.00	  134.18	 -270.93	  122.22
     19.5687	  147.00	  133.43	 -257.18	  121.74
     19.6021	  138.00	  132.70	 -265.45	  121.26
     19.6355	  123.00	  131.98	 -279.73	  120.78
     19.6689	  135.00	  131.30	 -267.05	  120.31
     19.7024	  137.00	  130.63	 -264.38	  119.85
     19.7358	  128.00	  129.98	 -272.73	  119.38
     19.7692	  129.00	  129.34	 -271.09	  118.91
     19.8026	  146.00	  128.71	 -253.46	  118.45
     19.8361	  125.00	  128.09	 -273.84	  117.98
     19.8695	  147.00	  127.48	 -251.23	  117.52
     19.9029	  165.00	  126.88	 -232.63	  117.05
     19.9363	  134.00	  126.29	 -263.04	  116.59
     19.9697	  124.00	  125.71	 -272.46	  116.12
     20.0032	  135.00	  125.13	 -260.88	  115.65
     20.0366	  108.00	  124.56	 -287.31	  115.19
     20.0700	  137.00	  123.99	 -257.74	  114.72
     20.1034	  137.00	  123.44	 -257.19	  114.26
     20.1369	  132.00	  122.88	 -261.63	  113.79
     20.1703	  151.00	  122.33	 -242.08	  113.32
     20.2037	  129.00	  121.79	 -263.54	  112.86
     20.2371	  111.00	  121.25	 -281.00	  112.39
     20.2705	  127.00	  120.71	 -264.46	  111.93
     20.3040	  105.00	  120.18	 -285.93	  111.46
     20.3374	  128.00	  119.65	 -262.40	  110.99
     20.3708	  136.00	  119.12	 -253.87	  110.53
     20.4042	  113.00	  118.60	 -276.35	  110.06
     20.4377	  129.00	  118.07	 -259.82	  109.60
     20.4711	  125.00	  117.56	 -263.31	  109.13
     20.5045	  103.00	  117.04	 -284.79	  108.66
     20.5379	  123.00	  116.53	 -264.28	  108.20
     20.5714	  134.00	  116.01	 -252.76	  107.73
     20.6048	  132.00	  115.50	 -254.25	  107.27
     20.6382	  141.00	  115.00	 -244.75	  106.80
     20.6716	  109.00	  114.49	 -276.24	  106.33
     20.7050	  121.00	  113.99	 -263.74	  105.87
     20.7385	  116.00	  113.48	 -268.23	  105.40
     20.7719	  110.00	  112.98	 -273.73	  104.94
     20.8053	  116.00	  112.48	 -267.23	  104.47
     20.8387	  124.00	  111.98	 -258.73	  104.00
     20.8722	  117.00	  111.49	 -265.24	  103.54
     20.9056	  119.00	  110.99	 -262.74	  103.07
     20.9390	  117.00	  110.50	 -264.25	  102.61
     20.9724	  132.00	  110.00	 -248.75	  102.14
     21.0058	  117.00	  109.51	 -263.26	  101.67
     21.0393	  111.00	  109.02	 -268.77	  101.21
     21.0727	   81.00	  108.53	 -298.28	  100.74
     21.1061	  121.00	  108.04	 -257.79	  100.28
     21.1395	   96.00	  107.55	 -282.30	   99.81
     21.1730	  106.00	  107.06	 -271.81	   99.34
     21.2064	  112.00	  106.57	 -265.32	   98.88
     21.2398	  109.00	  106.09	 -267.84	   98.41
     21.2732	   98.00	  105.60	 -278.35	   97.95
     21.3066	  131.00	  105.36	 -245.11	   97.48
     21.3401	  121.00	  104.87	 -254.62	   97.01
     21.3735	  116.00	  104.51	 -259.26	   96.55
     21.4069	  111.00	  104.03	 -263.78	   96.08
     21.4403	  106.00	  103.55	 -268.30	   95.62
     21.4738	  113.00	  103.16	 -260.91	   95.24
     21.5072	  112.00	  102.93	 -261.68	   95.02
     21.5406	  123.00	  102.70	 -250.45	   94.80
     21.5740	  117.00	  102.46	 -256.21	   94.58
     21.6075	  125.00	  102.23	 -247.98	   94.36
     21.6409	   98.00	  102.00	 -274.75	   94.14
     21.6743	  121.00	  101.77	 -251.52	   93.92
     21.7077	  100.00	  101.54	 -272.29	   93.70
     21.7411	  112.00	  101.31	 -260.06	   93.48
     21.7746	  123.00	  101.09	 -248.84	   93.26
     21.8080	  137.00	  100.86	 -234.61	   93.04
     21.8414	  118.00	  100.63	 -253.38	   92.82
     21.8748	  102.00	  100.40	 -269.15	   92.60
     21.9083	   98.00	  100.17	 -272.92	   92.39
     21.9417	   92.00	   99.95	 -278.70	   92.17
     21.9751	   95.00	   99.72	 -275.47	   91.95
     22.0085	  103.00	   99.50	 -267.25	   91.73
     22.0419	  102.00	   99.27	 -268.02	   91.51
     22.0754	  127.00	   99.04	 -242.79	   91.29
     22.1088	  105.00	   98.82	 -264.57	   91.07
     22.1422	  102.00	   98.59	 -267.34	   90.85
     22.1756	   98.00	   98.37	 -271.12	   90.63
     22.2091	  126.00	   98.14	 -242.89	   90.41
     22.2425	  113.00	   97.92	 -255.67	   90.19
     22.2759	  133.00	   97.70	 -235.45	   89.97
     22.3093	   94.00	   97.47	 -274.22	   89.75
     22.3427	  113.00	   97.25	 -255.00	   89.53
     22.3762	  103.00	   97.03	 -264.78	   89.31
     22.4096	  110.00	   96.80	 -257.55	   89.09
     22.4430	   98.00	   96.58	 -269.33	   88.87
     22.4764	   93.00	   96.36	 -274.11	   88.65
     22.5099	   91.00	   96.14	 -275.89	   88.43
     22.5433	  112.00	   95.91	 -254.66	   88.22
     22.5767	   96.00	   95.69	 -270.44	   88.00
     22.6101	   99.00	   95.47	 -267.22	   87.78
     22.6436	  103.00	   95.25	 -263.00	   87.56
     22.6770	  117.00	   95.03	 -248.78	   87.34
     22.7104	  124.00	   94.81	 -241.56	   87.12
     22.7438	  116.00	   94.59	 -249.34	   86.90
     22.7772	   81.00	   94.37	 -284.12	   86.68
     22.8107	   95.00	   94.15	 -269.90	   86.46
     22.8441	  110.00	   93.93	 -254.68	   86.24
     22.8775	  100.00	   93.71	 -264.46	   86.02
     22.9109	  113.00	   93.49	 -251.24	   85.80
     22.9444	   93.00	   93.27	 -271.02	   85.58
     22.9778	   89.00	   93.05	 -274.80	   85.36
     23.0112	   96.00	   92.83	 -267.58	   85.14
     23.0446	  104.00	   92.61	 -259.36	   84.92
     23.0780	  100.00	   92.39	 -263.14	   84.70
     23.1115	   96.00	   92.17	 -266.92	   84.48
     23.1449	   96.00	   91.95	 -266.70	   84.26
     23.1783	  102.00	   91.73	 -260.48	   84.05
     23.2117	  111.00	   91.52	 -251.27	   83.83
     23.2452	  103.00	   91.30	 -259.05	   83.61
     23.2786	   95.00	   91.08	 -266.83	   83.39
     23.3120	   85.00	   90.86	 -276.61	   83.17
     23.3454	  109.00	   90.64	 -252.39	   82.95
     23.3788	  102.00	   90.43	 -259.18	   82.73
     23.4123	  105.00	   90.21	 -255.96	   82.51
     23.4457	  113.00	   89.99	 -247.74	   82.29
     23.4791	  100.00	   89.78	 -260.53	   82.07
     23.5125	   73.00	   89.56	 -287.31	   81.85
     23.5460	  100.00	   89.34	 -260.09	   81.63
     23.5794	  100.00	   89.13	 -259.88	   81.41
     23.6128	   96.00	   88.91	 -263.66	   81.19
     23.6462	   97.00	   88.69	 -262.44	   80.97
     23.6796	  122.00	   88.48	 -237.23	   80.75
     23.7131	   93.00	   88.26	 -266.01	   80.53
     23.7465	   92.00	   88.05	 -266.80	   80.32
     23.7799	  108.00	   87.93	 -250.68	   80.19
     23.8133	   87.00	   87.80	 -271.55	   80.06
     23.8468	   98.00	   87.68	 -260.43	   79.93
     23.8802	  106.00	   87.55	 -252.30	   79.80
     23.9136	  108.00	   87.43	 -250.18	   79.67
     23.9470	   91.00	   87.30	 -267.05	   79.54
     23.9805	   85.00	   87.18	 -272.93	   79.41
     24.0139	  120.00	   87.05	 -237.80	   79.28
     24.0473	   99.00	   86.93	 -258.68	   79.15
     24.0807	   84.00	   86.80	 -273.55	   79.02
     24.1141	   80.00	   86.68	 -277.43	   78.89
     24.1476	   91.00	   86.56	 -266.31	   78.76
     24.1810	   98.00	   86.43	 -259.18	   78.63
     24.2144	   94.00	   86.31	 -263.06	   78.50
     24.2478	   92.00	   86.19	 -264.94	   78.37
     24.2813	  100.00	   86.06	 -256.81	   78.24
     24.3147	   91.00	   85.94	 -265.69	   78.11
     24.3481	   91.00	   85.82	 -265.57	   77.99
     24.3815	  120.00	   85.70	 -236.45	   77.86
     24.4149	   95.00	   85.57	 -261.32	   77.73
     24.4484	   99.00	   85.45	 -257.20	   77.60
     24.4818	   77.00	   85.33	 -279.08	   77.47
     24.5152	   89.00	   85.21	 -266.96	   77.34
     24.5486	   95.00	   85.09	 -260.84	   77.21
     24.5821	   63.00	   84.97	 -292.72	   77.08
     24.6155	   94.00	   84.85	 -261.60	   76.95
     24.6489	   96.00	   84.73	 -259.48	   76.82
     24.6823	   84.00	   84.61	 -271.36	   76.69
     24.7157	   82.00	   84.49	 -273.24	   76.56
     24.7492	   83.00	   84.37	 -272.12	   76.43
     24.7826	   70.00	   84.25	 -285.00	   76.30
     24.8160	   81.00	   84.13	 -273.88	   76.17
     24.8494	   77.00	   84.01	 -277.76	   76.04
     24.8829	   88.00	   83.89	 -266.64	   75.91
     24.9163	   80.00	   83.77	 -274.52	   75.78
     24.9497	  110.00	   83.65	 -244.40	   75.65
     24.9831	   73.00	   83.53	 -281.28	   75.52
     25.0166	   89.00	   83.42	 -265.17	   75.39
     25.0500	   88.00	   83.30	 -266.05	   75.26
     25.0834	   89.00	   83.18	 -264.93	   75.13
     25.1168	   87.00	   83.06	 -266.81	   75.00
     25.1502	   85.00	   82.95	 -268.70	   74.87
     25.1837	  105.00	   82.83	 -248.58	   74.74
     25.2171	   93.00	   82.72	 -260.47	   74.61
     25.2505	   74.00	   82.60	 -279.35	   74.48
     25.2839	   83.00	   82.49	 -270.24	   74.35
     25.3174	  104.00	   82.37	 -249.12	   74.22
     25.3508	   90.00	   82.26	 -263.01	   74.09
     25.3842	   76.00	   82.14	 -276.89	   73.96
     25.4176	   82.00	   82.03	 -270.78	   73.84
     25.4510	   81.00	   81.91	 -271.66	   73.71
     25.4845	   92.00	   81.80	 -260.55	   73.58
     25.5179	   69.00	   81.69	 -283.44	   73.45
     25.5513	   96.00	   81.58	 -256.33	   73.32
     25.5847	   85.00	   81.47	 -267.22	   73.19
     25.6182	   89.00	   81.35	 -263.10	   73.06
     25.6516	   73.00	   81.24	 -278.99	   72.93
     25.6850	   82.00	   81.14	 -269.89	   72.80
     25.7184	   95.00	   81.05	 -256.80	   72.70
     25.7518	   88.00	   80.97	 -263.72	   72.59
     25.7853	   95.00	   80.88	 -256.63	   72.48
     25.8187	   89.00	   80.79	 -262.54	   72.38
     25.8521	   94.00	   80.71	 -257.46	   72.27
     25.8855	   79.00	   80.62	 -272.37	   72.16
     25.9190	   71.00	   80.54	 -280.29	   72.05
     25.9524	   94.00	   80.46	 -257.21	   71.95
     25.9858	   81.00	   80.37	 -270.12	   71.84
     26.0192	   82.00	   80.29	 -269.04	   71.73
     26.0526	   80.00	   80.21	 -270.96	   71.63
     26.0861	   87.00	   80.13	 -263.88	   71.52
     26.1195	   78.00	   80.05	 -272.80	   71.41
     26.1529	   75.00	   79.97	 -275.72	   71.31
     26.1863	   91.00	   79.89	 -259.64	   71.20
     26.2198	   71.00	   79.81	 -279.56	   71.09
     26.2532	   78.00	   79.73	 -272.48	   70.98
     26.2866	   78.00	   79.66	 -272.41	   70.88
     26.3200	   78.00	   79.58	 -272.33	   70.77
     26.3535	   74.00	   79.51	 -276.26	   70.66
     26.3869	   83.00	   79.43	 -267.18	   70.56
     26.4203	   80.00	   79.36	 -270.11	   70.45
     26.4537	   94.00	   79.29	 -256.04	   70.34
     26.4871	   82.00	   79.22	 -267.97	   70.24
     26.5206	   68.00	   79.15	 -281.90	   70.13
     26.5540	   76.00	   79.99	 -274.74	   70.02
     26.5874	   68.00	   79.93	 -282.68	   69.91
     26.6208	   77.00	   80.32	 -274.07	   69.81
     26.6543	   80.00	   80.27	 -271.02	   69.70
     26.6877	   69.00	   80.22	 -281.97	   69.59
     26.7211	   95.00	   80.16	 -255.91	   69.49
     26.7545	   95.00	   80.11	 -255.86	   69.38
     26.7879	   70.00	   80.06	 -280.81	   69.27
     26.8214	   89.00	   80.01	 -261.76	   69.17
     26.8548	   73.00	   79.97	 -277.72	   69.06
     26.8882	   91.00	   79.92	 -259.67	   68.95
     26.9216	   66.00	   79.88	 -284.63	   68.85
     26.9551	   81.00	   79.84	 -269.59	   68.74
     26.9885	   85.00	   79.80	 -265.55	   68.63
     27.0219	   77.00	   79.76	 -273.51	   68.52
     27.0553	   82.00	   79.73	 -268.48	   68.42
     27.0887	   97.00	   79.69	 -253.44	   68.31
     27.1222	   80.00	   79.57	 -270.32	   68.20
     27.1556	   91.00	   79.54	 -259.29	   68.10
     27.1890	   95.00	   79.51	 -255.26	   67.99
     27.2224	   77.00	   79.49	 -273.24	   67.88
     27.2559	   76.00	   79.47	 -274.22	   67.78
     27.2893	   68.00	   79.45	 -282.20	   67.67
     27.3227	   98.00	   79.44	 -252.19	   67.56
     27.3561	   89.00	   79.42	 -261.17	   67.45
     27.3895	   87.00	   79.41	 -263.16	   67.35
     27.4230	   91.00	   79.41	 -259.16	   67.24
     27.4564	   90.00	   79.40	 -260.15	   67.13
     27.4898	   70.00	   79.40	 -280.15	   67.03
     27.5232	   87.00	   79.41	 -263.16	   66.92
     27.5567	   88.00	   79.42	 -262.17	   66.81
     27.5901	   81.00	   79.43	 -269.18	   66.71
     27.6235	   83.00	   79.45	 -267.20	   66.60
     27.6569	   62.00	   79.47	 -288.22	   66.49
     27.6904	   84.00	   79.49	 -266.24	   66.38
     27.7238	   84.00	   79.52	 -266.27	   66.28
     27.7572	   68.00	   79.60	 -282.35	   66.21
     27.7906	   80.00	   79.69	 -270.44	   66.15
     27.8240	   70.00	   79.78	 -280.53	   66.09
     27.8575	   92.00	   79.88	 -258.63	   66.03
     27.8909	   71.00	   79.98	 -279.73	   65.97
     27.9243	   84.00	   80.09	 -266.84	   65.90
     27.9577	   89.00	   80.21	 -261.96	   65.84
     27.9912	   85.00	   80.34	 -266.09	   65.78
     28.0246	   81.00	   80.47	 -270.22	   65.72
     28.0580	   84.00	   80.61	 -267.36	   65.66
     28.0914	   70.00	   80.77	 -281.52	   65.59
     28.1248	   69.00	   81.00	 -282.75	   65.53
     28.1583	   75.00	   81.17	 -276.92	   65.47
     28.1917	   82.00	   81.36	 -270.11	   65.41
     28.2251	   55.00	   81.59	 -297.34	   65.35
     28.2585	   78.00	   81.80	 -274.55	   65.28
     28.2920	   82.00	   82.02	 -270.77	   65.22
     28.3254	   66.00	   82.25	 -287.00	   65.16
     28.3588	   68.00	   82.50	 -285.25	   65.10
     28.3922	   85.00	   82.76	 -268.51	   65.04
     28.4256	   82.00	   83.05	 -271.80	   64.97
     28.4591	   85.00	   83.35	 -269.10	   64.91
     28.4925	   77.00	   83.67	 -277.42	   64.85
     28.5259	   78.00	   84.01	 -276.76	   64.79
     28.5593	   81.00	   84.37	 -274.12	   64.73
     28.5928	   96.00	   84.76	 -259.51	   64.66
     28.6262	   81.00	   85.18	 -274.93	   64.60
     28.6596	   89.00	   85.63	 -267.38	   64.54
     28.6930	   80.00	   86.10	 -276.85	   64.48
     28.7265	   90.00	   86.62	 -267.37	   64.42
     28.7599	   99.00	   87.16	 -258.91	   64.35
     28.7933	   89.00	   87.75	 -269.50	   64.29
     28.8267	  109.00	   88.39	 -250.14	   64.23
     28.8601	   77.00	   89.07	 -282.82	   64.17
     28.8936	   83.00	   89.81	 -277.56	   64.11
     28.9270	   85.00	   90.60	 -276.35	   64.04
     28.9604	   78.00	   91.46	 -284.21	   63.98
     28.9938	   77.00	   92.39	 -286.14	   63.92
     29.0273	  102.00	   93.39	 -262.14	   63.86
     29.0607	   95.00	   94.48	 -270.23	   63.80
     29.0941	  111.00	   95.67	 -255.42	   63.73
     29.1275	  113.00	   96.97	 -254.72	   63.67
     29.1609	   94.00	   98.38	 -275.13	   63.61
     29.1944	   92.00	   99.93	 -278.68	   63.55
     29.2278	  104.00	  101.63	 -268.38	   63.49
     29.2612	   97.00	  103.49	 -277.24	   63.42
     29.2946	   90.00	  105.55	 -286.30	   63.36
     29.3281	  111.00	  107.83	 -267.58	   63.30
     29.3615	  111.00	  110.35	 -270.10	   63.24
     29.3949	  104.00	  113.16	 -279.91	   63.18
     29.4283	   96.00	  116.28	 -291.03	   63.11
     29.4617	  112.00	  119.78	 -278.53	   63.05
     29.4952	  107.00	  123.71	 -287.46	   62.99
     29.5286	  109.00	  128.13	 -289.88	   62.93
     29.5620	  129.00	  133.11	 -274.86	   62.87
     29.5954	  119.00	  138.75	 -290.50	   62.80
     29.6289	  139.00	  145.14	 -276.89	   62.74
     29.6623	  148.00	  152.39	 -275.14	   62.68
     29.6957	  142.00	  160.62	 -289.38	   62.62
     29.7291	  141.00	  169.98	 -299.73	   62.56
     29.7626	  158.00	  180.60	 -293.35	   62.49
     29.7960	  169.00	  192.63	 -294.38	   62.43
     29.8294	  218.00	  206.20	 -258.95	   62.37
     29.8628	  209.00	  221.40	 -283.15	   62.31
     29.8962	  195.00	  238.25	 -314.00	   62.25
     29.9297	  203.00	  256.67	 -324.42	   62.18
     29.9631	  234.00	  276.37	 -313.12	   62.12
     29.9965	  282.00	  296.82	 -285.57	   62.06
     30.0299	  250.00	  317.14	 -337.89	   62.00
     30.0634	  314.00	  336.17	 -292.92	   61.93
     30.0968	  329.00	  352.44	 -294.19	   61.87
     30.1302	  375.00	  364.46	 -260.21	   61.81
     30.1636	  375.00	  370.97	 -266.72	   61.75
     30.1970	  321.00	  371.25	 -321.00	   61.69
     30.2305	  325.00	  365.28	 -311.03	   61.62
     30.2639	  296.00	  353.77	 -328.52	   61.56
     30.2973	  322.00	  337.93	 -286.68	   61.50
     30.3307	  311.00	  319.22	 -278.97	   61.44
     30.3642	  298.00	  299.08	 -271.83	   61.38
     30.3976	  223.00	  278.68	 -326.43	   61.31
     30.4310	  214.00	  258.91	 -315.66	   61.25
     30.4644	  223.00	  240.35	 -288.10	   61.19
     30.4978	  242.00	  223.30	 -252.05	   61.13
     30.5313	  171.00	  207.89	 -307.64	   61.07
     30.5647	  172.00	  194.10	 -292.85	   61.00
     30.5981	  150.00	  181.86	 -302.61	   60.94
     30.6315	  164.00	  171.04	 -277.79	   60.88
     30.6650	  134.00	  161.50	 -298.25	   60.82
     30.6984	  149.00	  153.10	 -274.85	   60.76
     30.7318	  131.00	  145.71	 -285.46	   60.69
     30.7652	  124.00	  139.19	 -285.94	   60.63
     30.7986	  126.00	  133.43	 -278.18	   60.57
     30.8321	  120.00	  128.35	 -279.10	   60.51
     30.8655	  127.00	  123.84	 -267.59	   60.45
     30.8989	  108.00	  119.83	 -282.58	   60.38
     30.9323	  128.00	  116.26	 -259.01	   60.32
     30.9658	  104.00	  113.07	 -279.82	   60.26
     30.9992	   99.00	  110.21	 -281.96	   60.20
     31.0326	   89.00	  107.64	 -289.39	   60.14
     31.0660	   99.00	  105.32	 -277.07	   60.07
     31.0995	   91.00	  103.23	 -282.98	   60.01
     31.1329	   93.00	  101.33	 -279.08	   59.95
     31.1663	  103.00	   99.60	 -267.35	   59.89
     31.1997	   97.00	   98.03	 -271.78	   59.83
     31.2331	  110.00	   96.60	 -257.35	   59.76
     31.2666	   82.00	   95.29	 -284.04	   59.70
     31.3000	   97.00	   94.09	 -267.84	   59.64
     31.3334	  113.00	   92.98	 -250.73	   59.58
     31.3668	   99.00	   91.97	 -263.72	   59.52
     31.4003	  100.00	   91.04	 -261.79	   59.45
     31.4337	   93.00	   90.18	 -267.93	   59.39
     31.4671	   80.00	   89.39	 -280.14	   59.33
     31.5005	   85.00	   88.66	 -274.41	   59.27
     31.5339	  104.00	   87.99	 -254.74	   59.21
     31.5674	   95.00	   87.37	 -263.12	   59.14
     31.6008	   94.00	   86.79	 -263.54	   59.08
     31.6342	   95.00	   86.26	 -262.01	   59.02
     31.6676	   84.00	   85.77	 -272.52	   58.96
     31.7011	  103.00	   85.32	 -253.07	   58.90
     31.7345	   91.00	   84.90	 -264.65	   58.83
     31.7679	   81.00	   84.52	 -274.27	   58.77
     31.8013	   76.00	   84.16	 -278.91	   58.70
     31.8347	   77.00	   83.82	 -277.57	   58.63
     31.8682	   69.00	   83.52	 -285.27	   58.56
     31.9016	   74.00	   83.24	 -279.98	   58.49
     31.9350	   87.00	   82.98	 -266.73	   58.42
     31.9684	   89.00	   82.74	 -264.49	   58.35
     32.0019	   67.00	   82.53	 -286.28	   58.28
     32.0353	   99.00	   82.34	 -254.09	   58.21
     32.0687	   82.00	   82.17	 -270.92	   58.14
     32.1021	   85.00	   82.01	 -267.76	   58.07
     32.1356	  102.00	   81.88	 -250.63	   58.00
     32.1690	   83.00	   81.76	 -269.51	   57.93
     32.2024	   83.00	   81.66	 -269.41	   57.86
     32.2358	   79.00	   81.57	 -273.32	   57.79
     32.2692	   77.00	   81.51	 -275.26	   57.72
     32.3027	   60.00	   81.45	 -292.20	   57.65
     32.3361	   88.00	   81.42	 -264.17	   57.58
     32.3695	   76.00	   81.39	 -276.14	   57.51
     32.4029	   80.00	   81.39	 -272.14	   57.44
     32.4364	   83.00	   81.40	 -269.15	   57.37
     32.4698	   80.00	   81.42	 -272.17	   57.30
     32.5032	   93.00	   81.46	 -259.21	   57.24
     32.5366	   82.00	   81.51	 -270.26	   57.17
     32.5700	   66.00	   81.58	 -286.33	   57.10
     32.6035	   82.00	   81.66	 -270.41	   57.03
     32.6369	   82.00	   81.76	 -270.51	   56.96
     32.6703	   62.00	   81.87	 -290.62	   56.89
     32.7037	   92.00	   81.99	 -260.74	   56.82
     32.7372	   75.00	   82.14	 -277.89	   56.75
     32.7706	   78.00	   82.30	 -275.05	   56.68
     32.8040	   98.00	   82.47	 -255.22	   56.61
     32.8374	   81.00	   82.66	 -272.41	   56.54
     32.8708	   76.00	   82.87	 -277.62	   56.47
     32.9043	   90.00	   83.10	 -263.85	   56.40
     32.9377	  103.00	   83.34	 -251.09	   56.33
     32.9711	   65.00	   83.61	 -289.36	   56.26
     33.0045	   91.00	   83.89	 -263.64	   56.19
     33.0380	   74.00	   84.19	 -280.94	   56.12
     33.0714	  113.00	   84.51	 -242.26	   56.05
     33.1048	   93.00	   84.86	 -262.61	   55.98
     33.1382	   87.00	   85.23	 -268.98	   55.91
     33.1716	   97.00	   85.62	 -259.37	   55.84
     33.2051	   93.00	   86.03	 -263.78	   55.77
     33.2385	  107.00	   86.47	 -250.22	   55.70
     33.2719	  105.00	   86.94	 -252.69	   55.63
     33.3053	   97.00	   87.44	 -261.19	   55.56
     33.3388	   91.00	   87.96	 -267.71	   55.49
     33.3722	   91.00	   88.52	 -268.27	   55.42
     33.4056	   88.00	   89.11	 -271.86	   55.35
     33.4390	  109.00	   89.74	 -251.49	   55.28
     33.4725	   91.00	   90.40	 -270.15	   55.21
     33.5059	   99.00	   91.10	 -262.85	   55.14
     33.5393	  111.00	   91.84	 -251.59	   55.07
     33.5727	   93.00	   92.63	 -270.38	   55.00
     33.6061	   89.00	   93.46	 -275.21	   54.93
     33.6396	  107.00	   94.35	 -258.10	   54.86
     33.6730	  117.00	   95.28	 -249.03	   54.79
     33.7064	   83.00	   96.28	 -284.03	   54.72
     33.7398	  104.00	   97.33	 -264.08	   54.65
     33.7733	  104.00	   98.45	 -265.20	   54.58
     33.8067	  105.00	   99.64	 -265.39	   54.51
     33.8401	  123.00	  100.90	 -248.65	   54.44
     33.8735	  131.00	  102.24	 -241.99	   54.37
     33.9069	  105.00	  103.67	 -269.42	   54.30
     33.9404	  112.00	  105.19	 -263.94	   54.23
     33.9738	  134.00	  107.01	 -243.76	   54.16
     34.0072	  102.00	  108.74	 -277.49	   54.10
     34.0406	  111.00	  110.59	 -270.34	   54.03
     34.0741	  116.00	  112.66	 -267.41	   53.96
     34.1075	  120.00	  114.77	 -265.52	   53.89
     34.1409	  117.00	  117.03	 -270.78	   53.82
     34.1743	  137.00	  119.46	 -253.21	   53.75
     34.2077	  134.00	  122.06	 -258.81	   53.68
     34.2412	  146.00	  124.85	 -249.60	   53.61
     34.2746	  150.00	  127.86	 -248.61	   53.54
     34.3080	  125.00	  131.10	 -276.85	   53.47
     34.3414	  157.00	  134.60	 -248.35	   53.40
     34.3749	  193.00	  138.38	 -216.13	   53.33
     34.4083	  174.00	  142.47	 -239.22	   53.26
     34.4417	  194.00	  146.91	 -223.66	   53.19
     34.4751	  197.00	  151.73	 -225.48	   53.11
     34.5085	  176.00	  156.98	 -251.73	   53.03
     34.5420	  195.00	  162.71	 -238.46	   52.95
     34.5754	  182.00	  168.97	 -257.72	   52.87
     34.6088	  193.00	  175.84	 -253.59	   52.79
     34.6422	  246.00	  183.39	 -208.14	   52.71
     34.6757	  189.00	  191.71	 -273.46	   52.63
     34.7091	  225.00	  200.89	 -246.64	   52.55
     34.7425	  237.00	  211.07	 -244.82	   52.47
     34.7759	  235.00	  222.37	 -258.12	   52.39
     34.8094	  250.00	  234.94	 -255.69	   52.32
     34.8428	  259.00	  248.98	 -260.73	   52.24
     34.8762	  257.00	  264.67	 -278.42	   52.16
     34.9096	  263.00	  282.26	 -290.01	   52.08
     34.9430	  312.00	  302.00	 -260.75	   52.00
     34.9765	  294.00	  324.18	 -300.93	   51.92
     35.0099	  337.00	  349.14	 -282.89	   51.84
     35.0433	  365.00	  377.22	 -282.97	   51.76
     35.0767	  400.00	  408.80	 -279.55	   51.68
     35.1102	  446.00	  444.26	 -269.01	   51.60
     35.1436	  459.00	  483.93	 -295.68	   51.52
     35.1770	  466.00	  528.13	 -332.88	   51.44
     35.2104	  579.00	  576.98	 -268.73	   51.36
     35.2438	  586.00	  630.42	 -315.17	   51.28
     35.2773	  635.00	  688.00	 -323.75	   51.20
     35.3107	  683.00	  748.75	 -336.50	   51.12
     35.3441	  734.00	  810.99	 -347.74	   51.04
     35.3775	  798.00	  872.32	 -345.07	   50.96
     35.4110	  836.00	  929.46	 -364.21	   50.88
     35.4444	  982.00	  978.65	 -267.40	   50.80
     35.4778	 1034.00	 1016.03	 -252.78	   50.72
     35.5112	 1062.00	 1038.30	 -247.05	   50.64
     35.5447	 1083.00	 1043.40	 -231.15	   50.56
     35.5781	 1052.00	 1030.92	 -249.67	   50.48
     35.6115	 1011.00	 1002.16	 -261.91	   50.40
     35.6449	  967.00	  959.83	 -263.58	   50.32
     35.6783	  919.00	  907.46	 -259.21	   50.24
     35.7118	  787.00	  848.82	 -332.57	   50.16
     35.7452	  726.00	  787.39	 -332.14	   50.08
     35.7786	  699.00	  726.01	 -297.76	   50.00
     35.8120	  588.00	  666.75	 -349.50	   49.92
     35.8455	  545.00	  611.02	 -336.77	   49.85
     35.8789	  530.00	  559.56	 -300.31	   49.77
     35.9123	  523.00	  512.70	 -260.45	   49.69
     35.9457	  433.00	  470.44	 -308.19	   49.61
     35.9791	  411.00	  432.57	 -292.32	   49.53
     36.0126	  407.00	  398.81	 -262.56	   49.45
     36.0460	  342.00	  368.79	 -297.54	   49.37
     36.0794	  343.00	  342.14	 -269.89	   49.29
     36.1128	  305.00	  318.51	 -284.26	   49.21
     36.1463	  293.00	  297.57	 -275.32	   49.13
     36.1797	  285.00	  278.99	 -264.74	   49.05
     36.2131	  239.00	  262.52	 -294.27	   48.97
     36.2465	  241.00	  247.90	 -277.65	   48.89
     36.2799	  214.00	  234.91	 -291.66	   48.81
     36.3134	  229.00	  223.38	 -265.13	   48.73
     36.3468	  215.00	  213.14	 -268.89	   48.65
     36.3802	  201.00	  204.05	 -273.80	   48.57
     36.4136	  170.00	  195.99	 -296.74	   48.49
     36.4471	  175.00	  188.88	 -284.63	   48.41
     36.4805	  178.00	  182.61	 -275.36	   48.33
     36.5139	  164.00	  177.14	 -283.89	   48.25
     36.5473	  167.00	  172.40	 -276.15	   48.17
     36.5807	  160.00	  168.35	 -279.10	   48.09
     36.6142	  156.00	  164.96	 -279.71	   48.01
     36.6476	  150.00	  162.20	 -282.95	   47.93
     36.6810	  156.00	  160.07	 -274.82	   47.85
     36.7144	  168.00	  158.56	 -261.31	   47.77
     36.7479	  138.00	  157.65	 -290.40	   47.69
     36.7813	  151.00	  157.34	 -277.09	   47.61
     36.8147	  153.00	  157.64	 -275.39	   47.53
     36.8481	  134.00	  158.51	 -295.26	   47.45
     36.8815	  172.00	  159.93	 -258.68	   47.38
     36.9150	  143.00	  161.84	 -289.59	   47.30
     36.9484	  151.00	  164.12	 -283.87	   47.22
     36.9818	  186.00	  166.62	 -251.37	   47.14
     37.0152	  176.00	  169.13	 -263.88	   47.06
     37.0487	  162.00	  171.39	 -280.14	   46.98
     37.0821	  179.00	  173.09	 -264.84	   46.90
     37.1155	  178.00	  173.95	 -266.70	   46.82
     37.1489	  166.00	  173.72	 -278.47	   46.74
     37.1824	  168.00	  172.27	 -275.02	   46.66
     37.2158	  179.00	  169.56	 -261.31	   46.57
     37.2492	  152.00	  165.70	 -284.45	   46.46
     37.2826	  149.00	  160.89	 -282.64	   46.35
     37.3160	  145.00	  155.41	 -281.16	   46.24
     37.3495	  132.00	  149.52	 -288.27	   46.13
     37.3829	  133.00	  143.48	 -281.23	   46.02
     37.4163	  112.00	  137.50	 -296.25	   45.91
     37.4497	  133.00	  131.73	 -269.48	   45.80
     37.4832	  106.00	  126.27	 -291.02	   45.69
     37.5166	   99.00	  121.18	 -292.93	   45.58
     37.5500	   88.00	  116.48	 -299.23	   45.47
     37.5834	  119.00	  112.17	 -263.92	   45.36
     37.6168	   76.00	  108.24	 -302.99	   45.25
     37.6503	   82.00	  104.66	 -293.41	   45.14
     37.6837	   80.00	  101.40	 -292.15	   45.03
     37.7171	   91.00	   98.44	 -278.19	   44.92
     37.7505	   85.00	   95.74	 -281.49	   44.81
     37.7840	   84.00	   93.29	 -280.04	   44.70
     37.8174	   81.00	   91.04	 -280.79	   44.59
     37.8508	   88.00	   88.98	 -271.73	   44.48
     37.8842	   82.00	   87.09	 -275.84	   44.37
     37.9176	   71.00	   85.35	 -285.10	   44.26
     37.9511	   77.00	   83.75	 -277.50	   44.15
     37.9845	   90.00	   82.26	 -263.01	   44.04
     38.0179	   76.00	   80.87	 -275.62	   43.92
     38.0513	   82.00	   79.59	 -268.34	   43.81
     38.0848	   75.00	   78.38	 -274.13	   43.70
     38.1182	   74.00	   77.26	 -274.01	   43.59
     38.1516	   85.00	   76.20	 -261.95	   43.48
     38.1850	   76.00	   75.20	 -269.95	   43.37
     38.2185	   74.00	   74.26	 -271.01	   43.26
     38.2519	   82.00	   73.38	 -262.13	   43.15
     38.2853	   89.00	   72.54	 -254.29	   43.04
     38.3187	   89.00	   71.74	 -253.49	   42.93
     38.3521	   64.00	   70.98	 -277.73	   42.82
     38.3856	   88.00	   70.26	 -253.01	   42.71
     38.4190	   55.00	   69.57	 -285.32	   42.60
     38.4524	   65.00	   68.91	 -274.66	   42.49
     38.4858	   80.00	   68.28	 -259.03	   42.38
     38.5193	   68.00	   67.68	 -270.43	   42.27
     38.5527	   51.00	   67.10	 -286.85	   42.16
     38.5861	   71.00	   66.55	 -266.30	   42.05
     38.6195	   58.00	   66.01	 -278.76	   41.94
     38.6529	   60.00	   65.50	 -276.25	   41.83
     38.6864	   62.00	   65.00	 -273.75	   41.72
     38.7198	   63.00	   64.53	 -272.28	   41.61
     38.7532	   54.00	   64.07	 -280.82	   41.50
     38.7866	   56.00	   63.62	 -278.37	   41.39
     38.8201	   69.00	   63.19	 -264.94	   41.28
     38.8535	   51.00	   62.78	 -282.53	   41.17
     38.8869	   46.00	   62.37	 -287.12	   41.06
     38.9203	   48.00	   61.98	 -284.73	   40.95
     38.9537	   62.00	   61.60	 -270.35	   40.84
     38.9872	   55.00	   61.24	 -276.99	   40.73
     39.0206	   56.00	   60.88	 -275.63	   40.62
     39.0540	   56.00	   60.29	 -275.04	   40.51
     39.0874	   61.00	   59.96	 -269.71	   40.40
     39.1209	   54.00	   59.51	 -276.26	   40.29
     39.1543	   46.00	   59.20	 -283.95	   40.18
     39.1877	   47.00	   58.89	 -282.64	   40.07
     39.2211	   42.00	   58.65	 -287.40	   40.01
     39.2546	   52.00	   58.42	 -277.17	   39.97
     39.2880	   51.00	   58.20	 -277.95	   39.93
     39.3214	   40.00	   57.99	 -288.74	   39.88
     39.3548	   59.00	   57.79	 -269.54	   39.84
     39.3882	   47.00	   57.60	 -281.35	   39.80
     39.4217	   51.00	   57.41	 -277.16	   39.75
     39.4551	   47.00	   57.22	 -280.97	   39.71
     39.4885	   52.00	   57.05	 -275.80	   39.67
     39.5219	   44.00	   56.87	 -283.62	   39.62
     39.5554	   30.00	   56.71	 -297.46	   39.58
     39.5888	   59.00	   56.55	 -268.30	   39.54
     39.6222	   44.00	   56.39	 -283.14	   39.49
     39.6556	   51.00	   56.24	 -275.99	   39.45
     39.6890	   56.00	   56.10	 -270.85	   39.41
     39.7225	   51.00	   55.96	 -275.71	   39.36
     39.7559	   38.00	   55.83	 -288.58	   39.32
     39.7893	   55.00	   55.70	 -271.45	   39.28
     39.8227	   41.00	   55.57	 -285.32	   39.23
     39.8562	   47.00	   55.45	 -279.20	   39.19
     39.8896	   48.00	   55.34	 -278.09	   39.14
     39.9230	   39.00	   55.23	 -286.98	   39.10
     39.9564	   41.00	   55.12	 -284.87	   39.06
     39.9898	   53.00	   55.02	 -272.77	   39.01
     40.0233	   46.00	   54.92	 -279.67	   38.97
     40.0567	   61.00	   54.83	 -264.58	   38.93
     40.0901	   39.00	   54.74	 -286.49	   38.88
     40.1235	   38.00	   54.65	 -287.40	   38.84
     40.1570	   65.00	   54.57	 -260.32	   38.80
     40.1904	   49.00	   54.50	 -276.25	   38.75
     40.2238	   40.00	   54.42	 -285.17	   38.71
     40.2572	   45.00	   54.36	 -280.11	   38.67
     40.2906	   68.00	   54.29	 -257.04	   38.62
     40.3241	   51.00	   54.24	 -273.99	   38.58
     40.3575	   41.00	   54.18	 -283.93	   38.54
     40.3909	   47.00	   54.13	 -277.88	   38.49
     40.4243	   44.00	   54.09	 -280.84	   38.45
     40.4578	   30.00	   54.05	 -294.80	   38.41
     40.4912	   45.00	   54.01	 -279.76	   38.36
     40.5246	   52.00	   53.98	 -272.73	   38.32
     40.5580	   51.00	   53.96	 -273.71	   38.28
     40.5915	   51.00	   53.94	 -273.69	   38.23
     40.6249	   44.00	   53.92	 -280.67	   38.19
     40.6583	   48.00	   53.91	 -276.66	   38.15
     40.6917	   54.00	   53.91	 -270.66	   38.10
     40.7251	   44.00	   53.91	 -280.66	   38.06
     40.7586	   47.00	   53.92	 -277.67	   38.02
     40.7920	   56.00	   53.93	 -268.68	   37.97
     40.8254	   53.00	   53.95	 -271.70	   37.93
     40.8588	   52.00	   53.98	 -272.73	   37.89
     40.8923	   51.00	   54.01	 -273.76	   37.84
     40.9257	   47.00	   54.05	 -277.80	   37.80
     40.9591	   56.00	   54.10	 -268.85	   37.76
     40.9925	   60.00	   54.15	 -264.90	   37.71
     41.0259	   52.00	   54.22	 -272.97	   37.67
     41.0594	   46.00	   54.29	 -279.04	   37.63
     41.0928	   55.00	   54.37	 -270.12	   37.58
     41.1262	   56.00	   54.46	 -269.21	   37.54
     41.1596	   44.00	   54.56	 -281.31	   37.50
     41.1931	   53.00	   54.67	 -272.42	   37.45
     41.2265	   48.00	   54.79	 -277.54	   37.41
     41.2599	   53.00	   54.93	 -272.68	   37.37
     41.2933	   61.00	   55.07	 -264.82	   37.32
     41.3267	   51.00	   55.23	 -274.98	   37.28
     41.3602	   51.00	   55.41	 -275.16	   37.24
     41.3936	   47.00	   55.55	 -279.30	   37.15
     41.4270	   48.00	   55.71	 -278.46	   37.06
     41.4604	   53.00	   55.88	 -273.63	   36.97
     41.4939	   59.00	   56.08	 -267.83	   36.88
     41.5273	   55.00	   56.29	 -272.04	   36.79
     41.5607	   59.00	   56.52	 -268.27	   36.70
     41.5941	   44.00	   56.78	 -283.53	   36.61
     41.6276	   41.00	   57.06	 -286.81	   36.52
     41.6610	   49.00	   57.37	 -279.12	   36.43
     41.6944	   51.00	   57.70	 -277.45	   36.34
     41.7278	   50.00	   58.07	 -278.82	   36.26
     41.7612	   47.00	   58.47	 -282.22	   36.17
     41.7947	   55.00	   58.90	 -274.65	   36.08
     41.8281	   61.00	   59.37	 -269.12	   35.99
     41.8615	   61.00	   59.89	 -269.64	   35.90
     41.8949	   65.00	   60.45	 -266.20	   35.81
     41.9284	   67.00	   61.06	 -264.81	   35.72
     41.9618	   62.00	   61.73	 -270.48	   35.63
     41.9952	   77.00	   62.46	 -256.21	   35.54
     42.0286	   58.00	   63.26	 -276.01	   35.45
     42.0620	   62.00	   64.13	 -272.88	   35.36
     42.0955	   58.00	   65.09	 -277.84	   35.27
     42.1289	   73.00	   66.13	 -263.88	   35.19
     42.1623	   62.00	   67.28	 -276.03	   35.10
     42.1957	   64.00	   68.54	 -275.29	   35.01
     42.2292	   79.00	   69.92	 -261.67	   34.92
     42.2626	   87.00	   71.45	 -255.20	   34.83
     42.2960	   84.00	   73.13	 -259.88	   34.74
     42.3294	   69.00	   74.99	 -276.74	   34.65
     42.3628	   90.00	   77.05	 -257.80	   34.56
     42.3963	   71.00	   79.33	 -279.08	   34.47
     42.4297	   78.00	   81.86	 -274.61	   34.38
     42.4631	  103.00	   84.68	 -252.43	   34.29
     42.4965	   84.00	   87.81	 -274.56	   34.20
     42.5300	  110.00	   91.30	 -252.05	   34.12
     42.5634	  102.00	   95.18	 -263.93	   34.03
     42.5968	  119.00	   99.52	 -251.27	   33.94
     42.6302	  128.00	  104.34	 -247.09	   33.85
     42.6637	  135.00	  109.72	 -245.47	   33.76
     42.6971	  127.00	  115.70	 -259.45	   33.67
     42.7305	  129.00	  122.32	 -264.07	   33.58
     42.7639	  156.00	  129.64	 -244.39	   33.49
     42.7973	  162.00	  137.67	 -246.42	   33.40
     42.8308	  177.00	  146.42	 -240.17	   33.31
     42.8642	  201.00	  155.85	 -225.60	   33.22
     42.8976	  184.00	  165.85	 -252.60	   33.13
     42.9310	  215.00	  176.26	 -232.01	   33.05
     42.9645	  230.00	  186.81	 -227.56	   32.96
     42.9979	  240.00	  197.14	 -227.89	   32.87
     43.0313	  234.00	  206.79	 -243.54	   32.78
     43.0647	  262.00	  215.24	 -223.99	   32.69
     43.0981	  265.00	  221.96	 -227.71	   32.60
     43.1316	  264.00	  226.47	 -233.22	   32.51
     43.1650	  259.00	  228.45	 -240.20	   32.42
     43.1984	  273.00	  227.74	 -225.49	   32.33
     43.2318	  272.00	  224.42	 -223.17	   32.24
     43.2653	  273.00	  218.73	 -216.48	   32.15
     43.2987	  262.00	  211.09	 -219.84	   32.06
     43.3321	  218.00	  201.98	 -254.73	   31.98
     43.3655	  180.00	  191.90	 -282.65	   31.89
     43.3989	  224.00	  181.33	 -228.08	   31.80
     43.4324	  211.00	  170.69	 -230.44	   31.71
     43.4658	  165.00	  160.27	 -266.02	   31.62
     43.4992	  195.00	  150.31	 -226.06	   31.53
     43.5326	  174.00	  140.96	 -237.71	   31.44
     43.5661	  163.00	  132.28	 -240.03	   31.35
     43.5995	  150.00	  124.31	 -245.06	   31.26
     43.6329	  124.00	  117.03	 -263.78	   31.17
     43.6663	  132.00	  110.43	 -249.18	   31.08
     43.6997	  111.00	  104.45	 -264.20	   31.00
     43.7332	  141.00	   99.06	 -228.81	   30.91
     43.7666	  124.00	   94.19	 -240.94	   30.82
     43.8000	   87.00	   89.80	 -273.55	   30.73
     43.8334	   87.00	   85.84	 -269.59	   30.64
     43.8669	   96.00	   82.26	 -257.01	   30.55
     43.9003	  102.00	   79.02	 -247.77	   30.46
     43.9337	   74.00	   76.08	 -272.83	   30.37
     43.9671	   82.00	   73.42	 -262.17	   30.28
     44.0005	   80.00	   71.10	 -261.85	   30.19
     44.0340	   76.00	   68.89	 -263.64	   30.10
     44.0674	   93.00	   66.88	 -244.63	   30.01
     44.1008	   70.00	   65.03	 -265.78	   29.93
     44.1342	   67.00	   63.39	 -267.14	   29.84
     44.1677	   74.00	   61.83	 -258.58	   29.75
     44.2011	   66.00	   60.47	 -265.22	   29.74
     44.2345	   75.00	   59.23	 -254.98	   29.74
     44.2679	   64.00	   58.09	 -264.84	   29.74
     44.3014	   67.00	   57.03	 -260.78	   29.74
     44.3348	   79.00	   56.06	 -247.81	   29.74
     44.3682	   50.00	   55.15	 -275.90	   29.74
     44.4016	   52.00	   54.31	 -273.06	   29.74
     44.4350	   68.00	   53.53	 -256.28	   29.74
     44.4685	   61.00	   52.81	 -262.56	   29.74
     44.5019	   63.00	   51.22	 -258.97	   29.74
     44.5353	   51.00	   50.60	 -270.35	   29.74
     44.5687	   49.00	   50.01	 -271.76	   29.74
     44.6022	   55.00	   49.01	 -264.76	   29.74
     44.6356	   52.00	   48.50	 -267.25	   29.74
     44.6690	   48.00	   48.02	 -270.77	   29.74
     44.7024	   55.00	   47.57	 -263.32	   29.74
     44.7358	   46.00	   47.15	 -271.90	   29.74
     44.7693	   60.00	   46.75	 -257.50	   29.74
     44.8027	   36.00	   46.38	 -281.13	   29.74
     44.8361	   36.00	   46.02	 -280.77	   29.74
     44.8695	   52.00	   45.69	 -264.44	   29.74
     44.9030	   47.00	   45.38	 -269.13	   29.74
     44.9364	   39.00	   45.08	 -276.83	   29.74
     44.9698	   45.00	   44.79	 -270.54	   29.74
     45.0032	   39.00	   44.53	 -276.28	   29.74
     45.0367	   41.00	   44.27	 -274.02	   29.74
     45.0701	   38.00	   44.03	 -276.78	   29.74
     45.1035	   46.00	   43.81	 -268.56	   29.74
     45.1369	   29.00	   43.59	 -285.34	   29.74
     45.1703	   39.00	   43.39	 -275.14	   29.74
     45.2038	   41.00	   43.19	 -272.94	   29.74
     45.2372	   38.00	   43.00	 -275.75	   29.74
     45.2706	   27.00	   42.83	 -286.58	   29.74
     45.3040	   41.00	   42.66	 -272.41	   29.74
     45.3375	   41.00	   42.50	 -272.25	   29.74
     45.3709	   56.00	   42.35	 -257.10	   29.74
     45.4043	   52.00	   42.20	 -260.95	   29.74
     45.4377	   46.00	   42.06	 -266.81	   29.74
     45.4711	   34.00	   41.93	 -278.68	   29.74
     45.5046	   39.00	   41.81	 -273.56	   29.74
     45.5380	   51.00	   41.69	 -261.44	   29.74
     45.5714	   42.00	   41.57	 -270.32	   29.74
     45.6048	   48.00	   41.47	 -264.22	   29.74
     45.6383	   41.00	   41.36	 -271.11	   29.74
     45.6717	   45.00	   41.26	 -267.01	   29.74
     45.7051	   47.00	   41.17	 -264.92	   29.74
     45.7385	   41.00	   41.08	 -270.83	   29.74
     45.7719	   39.00	   41.00	 -272.75	   29.74
     45.8054	   36.00	   40.92	 -275.67	   29.74
     45.8388	   44.00	   40.85	 -267.60	   29.74
     45.8722	   38.00	   40.77	 -273.52	   29.74
     45.9056	   37.00	   40.71	 -274.46	   29.74
     45.9391	   42.00	   40.65	 -269.40	   29.74
     45.9725	   44.00	   40.59	 -267.34	   29.74
     46.0059	   37.00	   40.53	 -274.28	   29.74
     46.0393	   40.00	   40.48	 -271.23	   29.74
     46.0728	   41.00	   40.44	 -270.19	   29.74
     46.1062	   35.00	   40.40	 -276.15	   29.74
     46.1396	   39.00	   40.36	 -272.11	   29.74
     46.1730	   33.00	   40.25	 -278.00	   29.74
     46.2064	   39.00	   40.22	 -271.97	   29.74
     46.2399	   42.00	   40.20	 -268.95	   29.74
     46.2733	   32.00	   40.15	 -278.90	   29.74
     46.3067	   33.00	   40.13	 -277.88	   29.74
     46.3401	   45.00	   40.12	 -265.87	   29.73
     46.3736	   41.00	   40.11	 -269.86	   29.73
     46.4070	   35.00	   40.11	 -275.86	   29.72
     46.4404	   41.00	   40.12	 -269.87	   29.72
     46.4738	   36.00	   40.13	 -274.88	   29.71
     46.5072	   44.00	   40.15	 -266.90	   29.71
     46.5407	   35.00	   40.18	 -275.93	   29.70
     46.5741	   42.00	   40.22	 -268.97	   29.69
     46.6075	   33.00	   40.27	 -278.02	   29.69
     46.6409	   40.00	   40.33	 -271.08	   29.68
     46.6744	   42.00	   40.41	 -269.16	   29.68
     46.7078	   38.00	   40.50	 -273.25	   29.67
     46.7412	   26.00	   40.60	 -285.35	   29.67
     46.7746	   37.00	   40.72	 -274.47	   29.66
     46.8080	   32.00	   40.85	 -279.60	   29.66
     46.8415	   52.00	   41.00	 -259.75	   29.65
     46.8749	   36.00	   41.17	 -275.92	   29.65
     46.9083	   45.00	   41.36	 -267.11	   29.64
     46.9417	   41.00	   41.56	 -271.31	   29.64
     46.9752	   29.00	   41.78	 -283.53	   29.63
     47.0086	   31.00	   42.00	 -281.75	   29.63
     47.0420	   48.00	   42.23	 -264.98	   29.62
     47.0754	   44.00	   42.46	 -269.21	   29.61
     47.1088	   45.00	   42.67	 -268.42	   29.61
     47.1423	   36.00	   42.86	 -277.61	   29.60
     47.1757	   31.00	   43.00	 -282.75	   29.60
     47.2091	   44.00	   43.10	 -269.85	   29.59
     47.2425	   41.00	   43.15	 -272.90	   29.59
     47.2760	   42.00	   43.13	 -271.88	   29.58
     47.3094	   29.00	   43.05	 -284.80	   29.58
     47.3428	   35.00	   42.92	 -278.67	   29.57
     47.3762	   44.00	   43.08	 -269.83	   29.57
     47.4097	   47.00	   42.86	 -266.61	   29.56
     47.4431	   40.00	   42.61	 -273.36	   29.56
     47.4765	   44.00	   42.34	 -269.09	   29.55
     47.5099	   47.00	   42.23	 -265.98	   29.54
     47.5433	   52.00	   41.95	 -260.70	   29.54
     47.5768	   37.00	   41.68	 -275.43	   29.53
     47.6102	   42.00	   41.43	 -270.18	   29.53
     47.6436	   39.00	   41.18	 -272.93	   29.52
     47.6770	   37.00	   40.95	 -274.70	   29.52
     47.7105	   46.00	   40.74	 -265.49	   29.51
     47.7439	   40.00	   40.55	 -271.30	   29.51
     47.7773	   42.00	   40.37	 -269.12	   29.50
     47.8107	   42.00	   40.21	 -268.96	   29.50
     47.8441	   36.00	   40.06	 -274.81	   29.49
     47.8776	   29.00	   39.93	 -281.68	   29.49
     47.9110	   40.00	   39.80	 -270.55	   29.48
     47.9444	   44.00	   39.69	 -266.44	   29.48
     47.9778	   45.00	   39.59	 -265.34	   29.47
     48.0113	   33.00	   39.50	 -277.25	   29.46
     48.0447	   31.00	   39.41	 -279.16	   29.46
     48.0781	   36.00	   39.33	 -274.08	   29.45
     48.1115	   38.00	   39.26	 -272.01	   29.45
     48.1449	   39.00	   39.20	 -270.95	   29.44
     48.1784	   39.00	   39.14	 -270.89	   29.44
     48.2118	   31.00	   39.08	 -278.83	   29.43
     48.2452	   44.00	   39.03	 -265.78	   29.43
     48.2786	   49.00	   38.98	 -260.73	   29.42
     48.3121	   37.00	   38.94	 -272.69	   29.42
     48.3455	   42.00	   38.90	 -267.65	   29.41
     48.3789	   37.00	   38.86	 -272.61	   29.41
     48.4123	   41.00	   38.83	 -268.58	   29.40
     48.4458	   45.00	   38.80	 -264.55	   29.40
     48.4792	   40.00	   38.77	 -269.52	   29.39
     48.5126	   52.00	   38.74	 -257.49	   29.38
     48.5460	   46.00	   38.71	 -263.46	   29.38
     48.5794	   35.00	   38.69	 -274.44	   29.37
     48.6129	   39.00	   38.67	 -270.42	   29.37
     48.6463	   40.00	   38.65	 -269.40	   29.36
     48.6797	   53.00	   38.63	 -256.38	   29.36
     48.7131	   37.00	   38.61	 -272.36	   29.35
     48.7466	   44.00	   38.60	 -265.35	   29.35
     48.7800	   38.00	   38.58	 -271.33	   29.34
     48.8134	   27.00	   38.57	 -282.32	   29.34
     48.8468	   34.00	   38.56	 -275.31	   29.33
     48.8802	   42.00	   38.55	 -267.30	   29.33
     48.9137	   35.00	   38.54	 -274.29	   29.32
     48.9471	   35.00	   38.53	 -274.28	   29.31
     48.9805	   37.00	   38.52	 -272.27	   29.31
     49.0139	   35.00	   38.51	 -274.26	   29.30
     49.0474	   37.00	   38.50	 -272.25	   29.30
     49.0808	   40.00	   38.50	 -269.25	   29.29
     49.1142	   30.00	   38.49	 -279.24	   29.29
     49.1476	   26.00	   38.49	 -283.24	   29.28
     49.1810	   34.00	   38.49	 -275.24	   29.28
     49.2145	   47.00	   38.49	 -262.24	   29.27
     49.2479	   35.00	   38.48	 -274.23	   29.27
     49.2813	   45.00	   38.48	 -264.23	   29.26
     49.3147	   45.00	   38.48	 -264.23	   29.26
     49.3482	   33.00	   38.48	 -276.23	   29.25
     49.3816	   29.00	   38.49	 -280.24	   29.25
     49.4150	   56.00	   38.49	 -253.24	   29.24
     49.4484	   41.00	   38.49	 -268.24	   29.23
     49.4818	   44.00	   38.50	 -265.25	   29.23
     49.5153	   30.00	   38.50	 -279.25	   29.22
     49.5487	   46.00	   38.51	 -263.26	   29.22
     49.5821	   47.00	   38.51	 -262.26	   29.21
     49.6155	   48.00	   38.52	 -261.27	   29.21
     49.6490	   32.00	   38.53	 -277.28	   29.20
     49.6824	   35.00	   38.53	 -274.28	   29.20
     49.7158	   39.00	   38.54	 -270.29	   29.19
     49.7492	   42.00	   38.55	 -267.30	   29.19
     49.7826	   33.00	   38.56	 -276.31	   29.18
     49.8161	   42.00	   38.57	 -267.32	   29.18
     49.8495	   35.00	   38.59	 -274.34	   29.17
     49.8829	   39.00	   38.60	 -270.35	   29.17
     49.9163	   40.00	   38.61	 -269.36	   29.16
     49.9498	   36.00	   38.63	 -273.38	   29.15
     49.9832	   48.00	   38.64	 -261.39	   29.15
     50.0166	   36.00	   38.66	 -273.41	   29.14
     50.0500	   49.00	   38.67	 -260.42	   29.14
     50.0835	   51.00	   38.69	 -258.44	   29.13
     50.1169	   47.00	   38.71	 -262.46	   29.13
     50.1503	   26.00	   38.73	 -283.48	   29.12
     50.1837	   26.00	   38.75	 -283.50	   29.12
     50.2171	   37.00	   38.77	 -272.52	   29.11
     50.2506	   41.00	   38.80	 -268.55	   29.11
     50.2840	   36.00	   38.82	 -273.57	   29.10
     50.3174	   40.00	   38.84	 -269.59	   29.10
     50.3508	   47.00	   38.87	 -262.62	   29.09
     50.3843	   36.00	   38.90	 -273.65	   29.08
     50.4177	   45.00	   38.92	 -264.67	   29.08
     50.4511	   41.00	   38.95	 -268.70	   29.07
     50.4845	   49.00	   38.98	 -260.73	   29.07
     50.5179	   38.00	   39.02	 -271.77	   29.06
     50.5514	   52.00	   39.05	 -257.80	   29.06
     50.5848	   56.00	   39.08	 -253.83	   29.05
     50.6182	   44.00	   39.12	 -265.87	   29.05
     50.6516	   42.00	   39.16	 -267.91	   29.04
     50.6851	   45.00	   39.19	 -264.94	   29.04
     50.7185	   26.00	   39.23	 -283.98	   29.03
     50.7519	   31.00	   39.28	 -279.03	   29.03
     50.7853	   42.00	   39.32	 -268.07	   29.02
     50.8187	   47.00	   39.36	 -263.11	   29.02
     50.8522	   45.00	   39.41	 -265.16	   29.01
     50.8856	   41.00	   39.46	 -269.21	   29.00
     50.9190	   39.00	   39.51	 -271.26	   29.00
     50.9524	   39.00	   39.57	 -271.32	   28.99
     50.9859	   45.00	   39.62	 -265.37	   28.99
     51.0193	   41.00	   39.68	 -269.43	   28.98
     51.0527	   36.00	   39.74	 -274.49	   28.98
     51.0861	   30.00	   39.80	 -280.55	   28.97
     51.1196	   32.00	   39.87	 -278.62	   28.97
     51.1530	   42.00	   39.93	 -268.68	   28.96
     51.1864	   44.00	   40.00	 -266.75	   28.96
     51.2198	   42.00	   40.08	 -268.83	   28.95
     51.2532	   42.00	   40.15	 -268.90	   28.95
     51.2867	   27.00	   40.23	 -283.98	   28.94
     51.3201	   35.00	   40.32	 -276.07	   28.94
     51.3535	   38.00	   40.41	 -273.16	   28.93
     51.3869	   32.00	   40.50	 -279.25	   28.92
     51.4204	   35.00	   40.59	 -276.34	   28.92
     51.4538	   38.00	   40.69	 -273.44	   28.91
     51.4872	   31.00	   40.80	 -280.55	   28.91
     51.5206	   46.00	   40.91	 -265.66	   28.90
     51.5540	   50.00	   41.02	 -261.77	   28.90
     51.5875	   49.00	   41.14	 -262.89	   28.89
     51.6209	   39.00	   41.27	 -273.02	   28.89
     51.6543	   36.00	   41.40	 -276.15	   28.88
     51.6877	   47.00	   41.54	 -265.29	   28.88
     51.7212	   39.00	   41.68	 -273.43	   28.87
     51.7546	   39.00	   41.84	 -273.59	   28.87
     51.7880	   32.00	   42.00	 -280.75	   28.86
     51.8214	   44.00	   42.17	 -268.92	   28.85
     51.8548	   39.00	   42.34	 -274.09	   28.85
     51.8883	   35.00	   42.53	 -278.28	   28.84
     51.9217	   39.00	   42.73	 -274.48	   28.84
     51.9551	   36.00	   42.94	 -277.69	   28.83
     51.9885	   52.00	   43.16	 -261.91	   28.83
     52.0220	   47.00	   43.40	 -267.15	   28.82
     52.0554	   55.00	   43.65	 -259.40	   28.82
     52.0888	   36.00	   43.91	 -278.66	   28.81
     52.1222	   39.00	   44.19	 -275.94	   28.81
     52.1557	   50.00	   44.49	 -265.24	   28.80
     52.1891	   41.00	   44.81	 -274.56	   28.80
     52.2225	   53.00	   45.14	 -262.89	   28.79
     52.2559	   36.00	   45.50	 -280.25	   28.78
     52.2893	   40.00	   45.89	 -276.64	   28.78
     52.3228	   48.00	   46.09	 -268.84	   28.77
     52.3562	   45.00	   46.54	 -272.29	   28.77
     52.3896	   31.00	   47.01	 -286.76	   28.76
     52.4230	   46.00	   47.52	 -272.27	   28.75
     52.4565	   49.00	   47.97	 -269.72	   28.75
     52.4899	   62.00	   48.56	 -257.31	   28.74
     52.5233	   46.00	   49.20	 -273.95	   28.74
     52.5567	   45.00	   49.90	 -275.65	   28.73
     52.5901	   38.00	   50.65	 -283.40	   28.73
     52.6236	   46.00	   51.46	 -276.21	   28.72
     52.6570	   52.00	   52.34	 -271.09	   28.71
     52.6904	   54.00	   53.78	 -270.53	   28.71
     52.7238	   52.00	   54.83	 -273.58	   28.70
     52.7573	   68.00	   55.98	 -258.73	   28.70
     52.7907	   51.00	   57.23	 -276.98	   28.69
     52.8241	   51.00	   58.60	 -278.35	   28.68
     52.8575	   58.00	   60.33	 -273.08	   28.68
     52.8909	   67.00	   61.97	 -265.72	   28.67
     52.9244	   67.00	   63.76	 -267.51	   28.67
     52.9578	   68.00	   65.72	 -268.47	   28.66
     52.9912	   55.00	   67.87	 -283.62	   28.66
     53.0246	   62.00	   70.20	 -278.95	   28.65
     53.0581	   73.00	   72.75	 -270.50	   28.64
     53.0915	   83.00	   75.51	 -263.26	   28.64
     53.1249	   66.00	   78.48	 -283.23	   28.63
     53.1583	   67.00	   81.67	 -285.42	   28.63
     53.1917	   84.00	   85.06	 -271.81	   28.62
     53.2252	   92.00	   88.61	 -267.36	   28.61
     53.2586	   98.00	   92.29	 -265.04	   28.61
     53.2920	   98.00	   96.02	 -268.77	   28.60
     53.3254	  103.00	   99.71	 -267.46	   28.60
     53.3589	   88.00	  103.26	 -286.01	   28.59
     53.3923	  108.00	  106.52	 -269.27	   28.59
     53.4257	   93.00	  109.37	 -287.12	   28.58
     53.4591	  118.00	  111.68	 -264.43	   28.57
     53.4926	  112.00	  113.31	 -272.06	   28.57
     53.5260	  129.00	  114.21	 -255.96	   28.56
     53.5594	  110.00	  114.31	 -275.06	   28.56
     53.5928	  118.00	  113.63	 -266.38	   28.55
     53.6262	  106.00	  112.22	 -276.97	   28.55
     53.6597	   96.00	  110.16	 -284.91	   28.54
     53.6931	  111.00	  107.55	 -267.30	   28.53
     53.7265	   97.00	  104.53	 -278.28	   28.53
     53.7599	  107.00	  101.23	 -264.98	   28.52
     53.7934	   83.00	   97.75	 -285.50	   28.52
     53.8268	   79.00	   94.22	 -285.97	   28.51
     53.8602	  103.00	   90.73	 -258.48	   28.50
     53.8936	   95.00	   87.33	 -263.08	   28.50
     53.9270	   67.00	   84.09	 -287.84	   28.49
     53.9605	   85.00	   81.03	 -266.78	   28.49
     53.9939	   69.00	   78.18	 -279.93	   28.48
     54.0273	   74.00	   75.55	 -272.30	   28.48
     54.0607	   89.00	   73.12	 -254.87	   28.47
     54.0942	   85.00	   70.91	 -256.66	   28.46
     54.1276	   80.00	   68.89	 -259.64	   28.46
     54.1610	   78.00	   67.06	 -259.81	   28.45
     54.1944	   69.00	   65.40	 -267.15	   28.45
     54.2278	   84.00	   63.90	 -250.65	   28.44
     54.2613	   75.00	   62.55	 -258.30	   28.43
     54.2947	   66.00	   61.34	 -266.09	   28.43
     54.3281	   76.00	   60.24	 -254.99	   28.42
     54.3615	   62.00	   59.26	 -268.01	   28.42
     54.3950	   59.00	   58.39	 -270.14	   28.41
     54.4284	   51.00	   57.60	 -277.35	   28.41
     54.4618	   60.00	   56.90	 -267.65	   28.40
     54.4952	   66.00	   56.28	 -261.03	   28.39
     54.5287	   64.00	   55.73	 -262.48	   28.39
     54.5621	   50.00	   55.25	 -276.00	   28.38
     54.5955	   55.00	   54.82	 -270.57	   28.38
     54.6289	   60.00	   54.45	 -265.20	   28.37
     54.6623	   77.00	   54.13	 -247.88	   28.36
     54.6958	   66.00	   53.86	 -258.61	   28.36
     54.7292	   61.00	   53.64	 -263.39	   28.35
     54.7626	   62.00	   53.46	 -262.21	   28.35
     54.7960	   55.00	   53.31	 -269.06	   28.34
     54.8295	   54.00	   53.21	 -269.96	   28.34
     54.8629	   48.00	   53.14	 -275.89	   28.33
     54.8963	   53.00	   53.11	 -270.86	   28.32
     54.9297	   55.00	   53.10	 -268.85	   28.32
     54.9631	   49.00	   53.14	 -274.89	   28.31
     54.9966	   54.00	   53.20	 -269.95	   28.31
     55.0300	   55.00	   53.30	 -269.05	   28.30
     55.0634	   50.00	   53.42	 -274.17	   28.30
     55.0968	   56.00	   53.58	 -268.33	   28.29
     55.1303	   59.00	   53.77	 -265.52	   28.28
     55.1637	   53.00	   53.99	 -271.74	   28.28
     55.1971	   64.00	   54.24	 -260.99	   28.27
     55.2305	   73.00	   54.52	 -252.27	   28.27
     55.2639	   66.00	   54.84	 -259.59	   28.26
     55.2974	   63.00	   55.19	 -262.94	   28.25
     55.3308	   63.00	   55.58	 -263.33	   28.25
     55.3642	   67.00	   56.00	 -259.75	   28.24
     55.3976	   63.00	   56.46	 -264.21	   28.24
     55.4311	   58.00	   56.97	 -269.72	   28.23
     55.4645	   71.00	   57.51	 -257.26	   28.23
     55.4979	   65.00	   58.10	 -263.85	   28.22
     55.5313	   69.00	   58.73	 -260.48	   28.21
     55.5648	   56.00	   59.42	 -274.17	   28.21
     55.5982	   62.00	   60.16	 -268.91	   28.20
     55.6316	   75.00	   60.95	 -256.70	   28.20
     55.6650	   59.00	   61.81	 -273.56	   28.19
     55.6984	   80.00	   62.73	 -253.48	   28.18
     55.7319	   75.00	   63.72	 -259.47	   28.18
     55.7653	   89.00	   64.80	 -246.55	   28.17
     55.7987	   69.00	   65.96	 -267.71	   28.17
     55.8321	   78.00	   67.20	 -259.95	   28.16
     55.8656	   78.00	   68.53	 -261.28	   28.16
     55.8990	   69.00	   69.98	 -271.73	   28.15
     55.9324	   78.00	   71.54	 -264.29	   28.14
     55.9658	   68.00	   73.23	 -275.98	   28.14
     55.9992	   92.00	   75.05	 -253.80	   28.13
     56.0327	   80.00	   77.02	 -267.77	   28.13
     56.0661	   69.00	   79.17	 -280.92	   28.12
     56.0995	   84.00	   81.49	 -268.24	   28.11
     56.1329	  104.00	   84.01	 -250.76	   28.11
     56.1664	   92.00	   86.76	 -265.51	   28.10
     56.1998	  108.00	   89.75	 -252.50	   28.10
     56.2332	   92.00	   93.01	 -271.76	   28.09
     56.2666	   96.00	   96.56	 -271.31	   28.09
     56.3000	   97.00	  100.43	 -274.18	   28.08
     56.3335	  108.00	  104.67	 -267.42	   28.07
     56.3669	  113.00	  109.29	 -267.04	   28.07
     56.4003	  104.00	  114.34	 -281.09	   28.06
     56.4337	  123.00	  119.86	 -267.61	   28.06
     56.4672	  149.00	  125.87	 -247.62	   28.05
     56.5006	  135.00	  132.43	 -268.18	   28.04
     56.5340	  148.00	  139.57	 -262.32	   28.04
     56.5674	  136.00	  147.31	 -282.06	   28.03
     56.6008	  154.00	  155.68	 -272.43	   28.03
     56.6343	  167.00	  164.69	 -268.44	   28.02
     56.6677	  141.00	  174.32	 -304.07	   28.02
     56.7011	  165.00	  184.53	 -290.28	   28.01
     56.7345	  155.00	  195.24	 -310.99	   28.00
     56.7680	  228.00	  206.32	 -249.07	   28.00
     56.8014	  204.00	  217.59	 -284.34	   27.99
     56.8348	  244.00	  228.80	 -255.55	   27.99
     56.8682	  221.00	  239.67	 -289.42	   27.98
     56.9017	  244.00	  249.84	 -276.59	   27.98
     56.9351	  238.00	  258.91	 -291.66	   27.97
     56.9685	  266.00	  266.53	 -271.28	   27.96
     57.0019	  262.00	  272.34	 -281.09	   27.96
     57.0353	  257.00	  276.06	 -289.81	   27.95
     57.0688	  235.00	  277.53	 -313.28	   27.95
     57.1022	  291.00	  276.69	 -256.44	   27.94
     57.1356	  243.00	  273.58	 -301.33	   27.93
     57.1690	  290.00	  268.40	 -249.15	   27.93
     57.2025	  254.00	  261.40	 -278.15	   27.92
     57.2359	  238.00	  252.88	 -285.63	   27.92
     57.2693	  261.00	  243.22	 -252.97	   27.91
     57.3027	  223.00	  232.74	 -280.49	   27.91
     57.3361	  218.00	  221.81	 -274.56	   27.90
     57.3696	  193.00	  210.70	 -288.45	   27.89
     57.4030	  196.00	  199.67	 -274.42	   27.89
     57.4364	  182.00	  188.92	 -277.67	   27.88
     57.4698	  200.00	  178.59	 -249.34	   27.88
     57.5033	  151.00	  168.79	 -288.54	   27.87
     57.5367	  175.00	  159.57	 -255.32	   27.86
     57.5701	  151.00	  150.96	 -270.71	   27.86
     57.6035	  139.00	  142.97	 -274.72	   27.85
     57.6369	  121.00	  135.59	 -285.34	   27.85
     57.6704	  128.00	  128.79	 -271.54	   27.84
     57.7038	  128.00	  122.54	 -265.29	   27.84
     57.7372	  117.00	  116.80	 -270.55	   27.83
     57.7706	  111.00	  111.55	 -271.30	   27.82
     57.8041	  123.00	  106.73	 -254.48	   27.82
     57.8375	   95.00	  102.32	 -278.07	   27.81
     57.8709	  102.00	   98.28	 -267.03	   27.81
     57.9043	  102.00	   94.58	 -263.33	   27.80
     57.9378	   62.00	   91.18	 -299.93	   27.79
     57.9712	   93.00	   88.06	 -265.81	   27.79
     58.0046	   77.00	   85.20	 -278.95	   27.78
     58.0380	   87.00	   82.56	 -266.31	   27.78
     58.0714	   79.00	   80.14	 -271.89	   27.77
     58.1049	   77.00	   77.90	 -271.65	   27.77
     58.1383	   83.00	   75.84	 -263.59	   27.76
     58.1717	   85.00	   73.94	 -259.69	   27.75
     58.2051	   81.00	   72.17	 -261.92	   27.75
     58.2386	   65.00	   70.54	 -276.29	   27.74
     58.2720	   81.00	   69.03	 -258.78	   27.74
     58.3054	   90.00	   67.62	 -248.37	   27.73
     58.3388	   54.00	   66.31	 -283.06	   27.73
     58.3722	   69.00	   65.10	 -266.85	   27.72
     58.4057	   70.00	   63.97	 -264.72	   27.71
     58.4391	   67.00	   62.91	 -266.66	   27.71
     58.4725	   64.00	   61.93	 -268.68	   27.70
     58.5059	   59.00	   61.01	 -272.76	   27.70
     58.5394	   60.00	   60.15	 -270.90	   27.69
     58.5728	   64.00	   59.35	 -266.10	   27.68
     58.6062	   62.00	   58.60	 -267.35	   27.68
     58.6396	   68.00	   57.90	 -260.65	   27.67
     58.6730	   56.00	   57.24	 -271.99	   27.67
     58.7065	   61.00	   56.62	 -266.37	   27.66
     58.7399	   45.00	   56.05	 -281.80	   27.66
     58.7733	   51.00	   55.51	 -275.26	   27.65
     58.8067	   54.00	   55.00	 -271.75	   27.64
     58.8402	   56.00	   54.52	 -269.27	   27.64
     58.8736	   39.00	   54.08	 -285.83	   27.63
     58.9070	   44.00	   53.66	 -280.41	   27.63
     58.9404	   52.00	   53.27	 -272.02	   27.62
     58.9739	   41.00	   52.91	 -282.66	   27.61
     59.0073	   51.00	   52.57	 -272.32	   27.61
     59.0407	   50.00	   52.25	 -273.00	   27.60
     59.0741	   51.00	   51.95	 -271.70	   27.60
     59.1075	   59.00	   51.68	 -263.43	   27.59
     59.1410	   63.00	   51.42	 -259.17	   27.59
     59.1744	   53.00	   51.18	 -268.93	   27.58
     59.2078	   52.00	   50.96	 -269.71	   27.57
     59.2412	   52.00	   50.76	 -269.51	   27.57
     59.2747	   51.00	   50.57	 -270.32	   27.56
     59.3081	   66.00	   50.40	 -255.15	   27.56
     59.3415	   44.00	   50.24	 -276.99	   27.55
     59.3749	   52.00	   50.10	 -268.85	   27.54
     59.4083	   50.00	   49.97	 -270.72	   27.54
     59.4418	   47.00	   49.86	 -273.61	   27.53
     59.4752	   48.00	   49.76	 -272.51	   27.53
     59.5086	   48.00	   49.68	 -272.43	   27.52
     59.5420	   42.00	   49.60	 -278.35	   27.52
     59.5755	   45.00	   49.54	 -275.29	   27.51
     59.6089	   48.00	   49.49	 -272.24	   27.50
     59.6423	   50.00	   49.46	 -270.21	   27.50
     59.6757	   45.00	   49.43	 -275.18	   27.49
     59.7091	   52.00	   49.42	 -268.17	   27.49
     59.7426	   47.00	   49.42	 -273.17	   27.48
     59.7760	   50.00	   49.43	 -270.18	   27.48
     59.8094	   40.00	   49.46	 -280.21	   27.47
     59.8428	   58.00	   49.49	 -262.24	   27.46
     59.8763	   49.00	   49.54	 -271.29	   27.46
     59.9097	   50.00	   49.60	 -270.35	   27.45
     59.9431	   75.00	   49.68	 -245.43	   27.45
     59.9765	   37.00	   49.76	 -283.51	   27.44
     60.0099	   51.00	   49.86	 -269.61	   27.43
     60.0434	   59.00	   49.97	 -261.72	   27.43
     60.0768	   59.00	   50.09	 -261.84	   27.42
     60.1102	   68.00	   50.23	 -252.98	   27.42
     60.1436	   50.00	   50.38	 -271.13	   27.41
     60.1771	   46.00	   50.54	 -275.29	   27.41
     60.2105	   61.00	   50.72	 -260.47	   27.40
     60.2439	   52.00	   50.91	 -269.66	   27.39
     60.2773	   67.00	   51.12	 -254.87	   27.39
     60.3107	   54.00	   51.34	 -268.09	   27.38
     60.3442	   55.00	   51.58	 -267.33	   27.38
     60.3776	   67.00	   51.84	 -255.59	   27.37
     60.4110	   59.00	   52.12	 -263.87	   27.36
     60.4444	   53.00	   52.41	 -270.16	   27.36
     60.4779	   46.00	   52.72	 -277.47	   27.35
     60.5113	   61.00	   53.05	 -262.80	   27.35
     60.5447	   56.00	   53.41	 -268.16	   27.34
     60.5781	   53.00	   53.78	 -271.53	   27.34
     60.6116	   51.00	   54.18	 -273.93	   27.33
     60.6450	   56.00	   54.65	 -269.40	   27.32
     60.6784	   62.00	   55.10	 -263.85	   27.32
     60.7118	   67.00	   55.57	 -259.32	   27.31
     60.7452	   60.00	   56.08	 -266.83	   27.31
     60.7787	   58.00	   56.61	 -269.36	   27.30
     60.8121	   54.00	   57.18	 -273.93	   27.29
     60.8455	   61.00	   57.80	 -267.55	   27.29
     60.8789	   65.00	   58.44	 -264.19	   27.28
     60.9124	   78.00	   59.11	 -251.86	   27.28
     60.9458	   64.00	   59.83	 -266.58	   27.27
     60.9792	   55.00	   60.59	 -276.34	   27.27
     61.0126	   64.00	   61.40	 -268.15	   27.26
     61.0460	   47.00	   62.26	 -286.01	   27.25
     61.0795	   69.00	   63.17	 -264.92	   27.25
     61.1129	   55.00	   64.14	 -279.89	   27.24
     61.1463	   76.00	   65.17	 -259.92	   27.24
     61.1797	   69.00	   66.27	 -268.02	   27.23
     61.2132	   82.00	   67.43	 -256.18	   27.23
     61.2466	   83.00	   68.68	 -256.43	   27.22
     61.2800	   73.00	   70.01	 -267.76	   27.21
     61.3134	   79.00	   71.43	 -263.18	   27.21
     61.3468	   70.00	   72.95	 -273.70	   27.20
     61.3803	   90.00	   74.57	 -255.32	   27.20
     61.4137	   76.00	   76.31	 -271.06	   27.19
     61.4471	   97.00	   78.18	 -251.93	   27.18
     61.4805	   98.00	   80.18	 -252.93	   27.18
     61.5140	  112.00	   82.33	 -241.08	   27.17
     61.5474	  100.00	   84.65	 -255.40	   27.17
     61.5808	   87.00	   87.14	 -270.89	   27.16
     61.6142	  118.00	   89.82	 -242.57	   27.16
     61.6477	  100.00	   92.72	 -263.47	   27.15
     61.6811	  120.00	   95.85	 -246.60	   27.14
     61.7145	  109.00	   99.23	 -260.98	   27.14
     61.7479	  108.00	  102.90	 -265.65	   27.13
     61.7813	  118.00	  106.86	 -259.61	   27.13
     61.8148	  127.00	  111.16	 -254.91	   27.12
     61.8482	  121.00	  115.82	 -265.57	   27.11
     61.8816	  126.00	  120.87	 -265.62	   27.11
     61.9150	  156.00	  126.36	 -241.11	   27.10
     61.9485	  129.00	  132.31	 -274.06	   27.10
     61.9819	  151.00	  138.77	 -258.52	   27.09
     62.0153	  156.00	  145.77	 -260.52	   27.09
     62.0487	  171.00	  153.36	 -253.11	   27.08
     62.0821	  190.00	  161.56	 -242.31	   27.07
     62.1156	  201.00	  170.41	 -240.16	   27.07
     62.1490	  193.00	  179.93	 -257.68	   27.06
     62.1824	  209.00	  190.13	 -251.88	   27.06
     62.2158	  199.00	  201.00	 -272.75	   27.05
     62.2493	  236.00	  212.51	 -247.26	   27.04
     62.2827	  251.00	  224.59	 -244.34	   27.04
     62.3161	  275.00	  237.14	 -232.89	   27.03
     62.3495	  261.00	  250.01	 -259.76	   27.03
     62.3829	  273.00	  263.00	 -260.75	   27.02
     62.4164	  299.00	  275.83	 -247.58	   27.02
     62.4498	  297.00	  288.20	 -261.95	   27.01
     62.4832	  331.00	  299.76	 -239.51	   27.00
     62.5166	  290.00	  310.11	 -290.86	   27.00
     62.5501	  372.00	  318.91	 -217.66	   26.99
     62.5835	  315.00	  325.79	 -281.54	   26.99
     62.6169	  357.00	  330.48	 -244.23	   26.98
     62.6503	  365.00	  332.80	 -238.55	   26.98
     62.6838	  387.00	  332.66	 -216.41	   26.97
     62.7172	  364.00	  330.10	 -236.85	   26.96
     62.7506	  333.00	  325.23	 -262.98	   26.96
     62.7840	  339.00	  318.28	 -250.03	   26.95
     62.8174	  325.00	  309.52	 -255.27	   26.95
     62.8509	  320.00	  299.29	 -250.04	   26.94
     62.8843	  304.00	  287.92	 -254.67	   26.93
     62.9177	  320.00	  275.76	 -226.51	   26.93
     62.9511	  287.00	  263.14	 -246.89	   26.92
     62.9846	  266.00	  250.34	 -255.09	   26.92
     63.0180	  259.00	  237.61	 -249.36	   26.91
     63.0514	  254.00	  225.06	 -241.81	   26.91
     63.0848	  269.00	  213.03	 -214.78	   26.90
     63.1182	  204.00	  201.53	 -268.28	   26.89
     63.1517	  229.00	  190.64	 -232.39	   26.89
     63.1851	  187.00	  180.33	 -264.08	   26.88
     63.2185	  194.00	  170.74	 -247.49	   26.88
     63.2519	  175.00	  161.80	 -257.55	   26.87
     63.2854	  175.00	  153.50	 -249.25	   26.86
     63.3188	  171.00	  145.82	 -245.57	   26.86
     63.3522	  156.00	  138.71	 -253.46	   26.85
     63.3856	  168.00	  132.14	 -234.89	   26.85
     63.4190	  145.00	  126.09	 -251.84	   26.84
     63.4525	  149.00	  120.50	 -242.25	   26.84
     63.4859	  128.00	  115.45	 -258.20	   26.83
     63.5193	  118.00	  110.69	 -263.44	   26.82
     63.5527	  111.00	  106.30	 -266.05	   26.82
     63.5862	  119.00	  102.25	 -254.00	   26.81
     63.6196	  105.00	   98.50	 -264.25	   26.81
     63.6530	  106.00	   95.04	 -259.79	   26.80
     63.6864	   90.00	   91.88	 -272.63	   26.79
     63.7198	  112.00	   88.91	 -247.66	   26.79
     63.7533	   96.00	   86.15	 -260.90	   26.78
     63.7867	   92.00	   83.58	 -262.33	   26.78
     63.8201	   96.00	   81.20	 -255.95	   26.77
     63.8535	   99.00	   78.98	 -250.73	   26.77
     63.8870	   93.00	   76.91	 -254.66	   26.76
     63.9204	   74.00	   74.99	 -271.74	   26.75
     63.9538	   84.00	   73.18	 -259.93	   26.75
     63.9872	   73.00	   71.50	 -269.25	   26.74
     64.0207	   76.00	   69.92	 -264.67	   26.74
     64.0541	   70.00	   68.44	 -269.19	   26.73
     64.0875	   73.00	   67.05	 -264.80	   26.72
     64.1209	   69.00	   65.75	 -267.50	   26.72
     64.1543	   58.00	   64.53	 -277.28	   26.71
     64.1878	   79.00	   63.38	 -255.13	   26.71
     64.2212	   66.00	   62.29	 -267.04	   26.70
     64.2546	   51.00	   61.27	 -281.02	   26.70
     64.2880	   60.00	   60.31	 -271.06	   26.69
     64.3214	   76.00	   59.40	 -254.15	   26.68
     64.3549	   80.00	   58.54	 -249.29	   26.68
     64.3883	   42.00	   57.73	 -286.48	   26.67
     64.4217	   61.00	   57.02	 -266.77	   26.67
     64.4551	   61.00	   56.29	 -266.04	   26.66
     64.4886	   73.00	   55.61	 -253.36	   26.66
     64.5220	   49.00	   54.96	 -276.71	   26.65
     64.5554	   54.00	   54.35	 -271.10	   26.64
     64.5888	   45.00	   53.78	 -279.53	   26.64
     64.6223	   54.00	   53.23	 -269.98	   26.63
     64.6557	   58.00	   52.74	 -265.49	   26.63
     64.6891	   48.00	   52.26	 -275.01	   26.62
     64.7225	   52.00	   51.80	 -270.55	   26.61
     64.7559	   51.00	   51.37	 -271.12	   26.61
     64.7894	   58.00	   50.96	 -263.71	   26.60
     64.8228	   55.00	   50.58	 -266.33	   26.60
     64.8562	   58.00	   50.23	 -262.98	   26.59
     64.8896	   60.00	   49.89	 -260.64	   26.59
     64.9231	   48.00	   49.58	 -272.33	   26.58
     64.9565	   63.00	   49.30	 -257.05	   26.57
     64.9899	   45.00	   49.03	 -274.78	   26.57
     65.0233	   39.00	   48.79	 -280.54	   26.56
     65.0567	   35.00	   48.57	 -284.32	   26.56
     65.0902	   35.00	   48.38	 -284.13	   26.55
     65.1236	   40.00	   48.20	 -278.95	   26.54
     65.1570	   41.00	   48.05	 -277.80	   26.54
     65.1904	   52.00	   47.92	 -266.67	   26.53
     65.2239	   51.00	   47.82	 -267.57	   26.53
     65.2573	   78.00	   47.74	 -240.49	   26.52
     65.2907	   50.00	   47.68	 -268.43	   26.52
     65.3241	   44.00	   47.65	 -274.40	   26.51
     65.3576	   36.00	   47.64	 -282.39	   26.50
     65.3910	   37.00	   47.65	 -281.40	   26.50
     65.4244	   49.00	   47.69	 -269.44	   26.49
     65.4578	   52.00	   47.75	 -266.50	   26.49
     65.4912	   29.00	   47.83	 -289.58	   26.48
     65.5247	   34.00	   47.93	 -284.68	   26.47
     65.5581	   41.00	   48.04	 -277.79	   26.47
     65.5915	   36.00	   48.16	 -282.91	   26.46
     65.6249	   42.00	   48.28	 -277.03	   26.46
     65.6584	   59.00	   48.39	 -260.14	   26.45
     65.6918	   55.00	   48.50	 -264.25	   26.45
     65.7252	   44.00	   48.58	 -275.33	   26.44
     65.7586	   36.00	   48.63	 -283.38	   26.43
     65.7920	   46.00	   48.65	 -273.40	   26.43
     65.8255	   38.00	   48.62	 -281.37	   26.42
     65.8589	   54.00	   48.55	 -265.30	   26.42
     65.8923	   38.00	   48.42	 -281.17	   26.41
     65.9257	   40.00	   48.25	 -279.00	   26.41
     65.9592	   41.00	   48.02	 -277.77	   26.40
     65.9926	   42.00	   47.75	 -276.50	   26.39
     66.0260	   45.00	   47.44	 -273.19	   26.39
     66.0594	   37.00	   47.09	 -280.84	   26.38
     66.0928	   39.00	   46.72	 -278.47	   26.38
     66.1263	   39.00	   46.33	 -278.08	   26.37
     66.1597	   41.00	   45.93	 -275.68	   26.36
     66.1931	   37.00	   45.52	 -279.27	   26.36
     66.2265	   34.00	   45.11	 -281.86	   26.35
     66.2600	   46.00	   44.71	 -269.46	   26.35
     66.2934	   36.00	   44.32	 -279.07	   26.34
     66.3268	   33.00	   43.94	 -281.69	   26.34
     66.3602	   52.00	   43.57	 -262.32	   26.33
     66.3937	   37.00	   43.22	 -276.97	   26.32
     66.4271	   27.00	   42.89	 -286.64	   26.32
     66.4605	   38.00	   42.58	 -275.33	   26.31
     66.4939	   36.00	   42.28	 -277.03	   26.31
     66.5273	   34.00	   42.00	 -278.75	   26.30
     66.5608	   33.00	   41.74	 -279.49	   26.29
     66.5942	   22.00	   41.49	 -290.24	   26.29
     66.6276	   30.00	   41.26	 -282.01	   26.28
     66.6610	   24.00	   41.04	 -287.79	   26.28
     66.6945	   40.00	   40.48	 -271.23	   26.27
     66.7279	   41.00	   40.29	 -270.04	   26.27
     66.7613	   40.00	   40.10	 -270.85	   26.26
     66.7947	   32.00	   39.93	 -278.68	   26.25
     66.8281	   36.00	   39.77	 -274.52	   26.25
     66.8616	   32.00	   39.45	 -278.20	   26.24
     66.8950	   33.00	   39.30	 -277.05	   26.24
     66.9284	   35.00	   39.17	 -274.92	   26.23
     66.9618	   35.00	   39.04	 -274.79	   26.22
     66.9953	   27.00	   38.92	 -282.67	   26.22
     67.0287	   45.00	   38.80	 -264.55	   26.21
     67.0621	   38.00	   38.69	 -271.44	   26.21
     67.0955	   31.00	   38.58	 -278.33	   26.20
     67.1289	   34.00	   38.49	 -275.24	   26.20
     67.1624	   32.00	   38.39	 -277.14	   26.19
     67.1958	   35.00	   38.30	 -274.05	   26.18
     67.2292	   32.00	   38.21	 -276.96	   26.18
     67.2626	   36.00	   38.13	 -272.88	   26.17
     67.2961	   47.00	   38.05	 -261.80	   26.17
     67.3295	   34.00	   37.98	 -274.73	   26.16
     67.3629	   30.00	   37.91	 -278.66	   26.16
     67.3963	   30.00	   37.84	 -278.59	   26.15
     67.4297	   33.00	   37.77	 -275.52	   26.14
     67.4632	   25.00	   37.71	 -283.46	   26.14
     67.4966	   39.00	   37.65	 -269.40	   26.13
     67.5300	   21.00	   37.59	 -287.34	   26.13
     67.5634	   20.00	   37.54	 -288.29	   26.12
     67.5969	   29.00	   37.48	 -279.23	   26.11
     67.6303	   36.00	   37.43	 -272.18	   26.11
     67.6637	   32.00	   37.39	 -276.14	   26.10
     67.6971	   36.00	   37.34	 -272.09	   26.10
     67.7306	   33.00	   37.30	 -275.05	   26.09
     67.7640	   24.00	   37.25	 -284.00	   26.09
     67.7974	   30.00	   37.21	 -277.96	   26.08
     67.8308	   39.00	   37.18	 -268.93	   26.07
     67.8642	   34.00	   37.14	 -273.89	   26.07
     67.8977	   38.00	   37.11	 -269.86	   26.06
     67.9311	   30.00	   37.07	 -277.82	   26.06
     67.9645	   39.00	   37.04	 -268.79	   26.05
     67.9979	   36.00	   37.01	 -271.76	   26.04
     68.0314	   39.00	   36.99	 -268.74	   26.04
     68.0648	   25.00	   36.96	 -282.71	   26.03
     68.0982	   35.00	   36.94	 -272.69	   26.03
     68.1316	   26.00	   36.95	 -281.70	   26.02
     68.1650	   32.00	   36.93	 -275.68	   26.02
     68.1985	   24.00	   36.91	 -283.66	   26.01
     68.2319	   31.00	   36.89	 -276.64	   26.00
     68.2653	   41.00	   36.87	 -266.62	   26.00
     68.2987	   39.00	   36.86	 -268.61	   25.99
     68.3322	   37.00	   36.86	 -270.61	   25.98
     68.3656	   44.00	   36.84	 -263.59	   25.97
     68.3990	   33.00	   36.83	 -274.58	   25.96
     68.4324	   37.00	   36.81	 -270.56	   25.95
     68.4659	   41.00	   36.80	 -266.55	   25.94
     68.4993	   29.00	   36.79	 -278.54	   25.93
     68.5327	   37.00	   36.78	 -270.53	   25.92
     68.5661	   37.00	   36.78	 -270.53	   25.90
     68.5995	   35.00	   36.77	 -272.52	   25.89
     68.6330	   20.00	   36.77	 -287.52	   25.88
     68.6664	   27.00	   36.77	 -280.52	   25.87
     68.6998	   35.00	   36.77	 -272.52	   25.86
     68.7332	   36.00	   36.77	 -271.52	   25.85
     68.7666	   17.00	   36.78	 -290.53	   25.84
     68.8001	   37.00	   36.79	 -270.54	   25.83
     68.8335	   29.00	   36.79	 -278.54	   25.82
     68.8669	   37.00	   36.80	 -270.55	   25.81
     68.9003	   24.00	   36.82	 -283.57	   25.80
     68.9338	   38.00	   36.83	 -269.58	   25.79
     68.9672	   36.00	   36.85	 -271.60	   25.78
     69.0006	   37.00	   36.87	 -270.62	   25.77
     69.0340	   34.00	   36.89	 -273.64	   25.76
     69.0675	   41.00	   36.92	 -266.67	   25.75
     69.1009	   34.00	   36.95	 -273.70	   25.74
     69.1343	   23.00	   36.98	 -284.73	   25.72
     69.1677	   31.00	   37.01	 -276.76	   25.71
     69.2011	   33.00	   37.05	 -274.80	   25.70
     69.2346	   27.00	   37.09	 -280.84	   25.69
     69.2680	   41.00	   37.13	 -266.88	   25.68
     69.3014	   21.00	   37.18	 -286.93	   25.67
     69.3348	   51.00	   37.23	 -256.98	   25.66
     69.3683	   29.00	   37.29	 -279.04	   25.65
     69.4017	   44.00	   37.35	 -264.10	   25.64
     69.4351	   33.00	   37.41	 -275.16	   25.63
     69.4685	   22.00	   37.48	 -286.23	   25.62
     69.5019	   46.00	   37.55	 -262.30	   25.61
     69.5354	   38.00	   37.63	 -270.38	   25.60
     69.5688	   31.00	   37.72	 -277.47	   25.59
     69.6022	   30.00	   37.81	 -278.56	   25.58
     69.6356	   32.00	   37.91	 -276.66	   25.57
     69.6691	   27.00	   38.02	 -281.77	   25.55
     69.7025	   24.00	   38.13	 -284.88	   25.54
     69.7359	   29.00	   38.25	 -280.00	   25.53
     69.7693	   20.00	   38.39	 -289.14	   25.52
     69.8027	   35.00	   38.53	 -274.28	   25.51
     69.8362	   26.00	   38.68	 -283.43	   25.50
     69.8696	   45.00	   38.84	 -264.59	   25.49
     69.9030	   36.00	   39.02	 -273.77	   25.48
     69.9364	   27.00	   39.20	 -282.95	   25.47
     69.9699	   36.00	   39.41	 -274.16	   25.46
     70.0033	   26.00	   39.62	 -284.37	   25.45
     70.0367	   37.00	   39.86	 -273.61	   25.44
     70.0701	   40.00	   40.11	 -270.86	   25.43
     70.1036	   46.00	   40.38	 -265.13	   25.42
     70.1370	   29.00	   40.67	 -282.42	   25.41
     70.1704	   32.00	   40.99	 -279.74	   25.40
     70.2038	   41.00	   41.33	 -271.08	   25.38
     70.2372	   37.00	   41.69	 -275.44	   25.37
     70.2707	   40.00	   42.08	 -272.83	   25.36
     70.3041	   41.00	   42.51	 -272.26	   25.35
     70.3375	   38.00	   42.96	 -275.71	   25.34
     70.3709	   42.00	   43.45	 -272.20	   25.33
     70.4044	   26.00	   43.98	 -288.73	   25.32
     70.4378	   39.00	   44.54	 -276.29	   25.31
     70.4712	   38.00	   45.14	 -277.89	   25.30
     70.5046	   45.00	   45.79	 -271.54	   25.29
     70.5380	   47.00	   46.47	 -270.22	   25.28
     70.5715	   49.00	   47.20	 -268.95	   25.27
     70.6049	   42.00	   47.97	 -276.72	   25.26
     70.6383	   46.00	   48.77	 -273.52	   25.25
     70.6717	   47.00	   49.60	 -273.35	   25.24
     70.7052	   32.00	   50.46	 -289.21	   25.23
     70.7386	   49.00	   51.33	 -273.08	   25.21
     70.7720	   47.00	   52.21	 -275.96	   25.20
     70.8054	   44.00	   53.08	 -279.83	   25.19
     70.8388	   48.00	   53.93	 -276.68	   25.18
     70.8723	   56.00	   54.72	 -269.47	   25.17
     70.9057	   38.00	   55.45	 -288.20	   25.16
     70.9391	   41.00	   56.09	 -285.84	   25.15
     70.9725	   65.00	   56.62	 -262.37	   25.14
     71.0060	   42.00	   57.04	 -285.79	   25.13
     71.0394	   49.00	   57.32	 -279.07	   25.12
     71.0728	   51.00	   57.47	 -277.22	   25.11
     71.1062	   67.00	   57.47	 -261.22	   25.10
     71.1396	   44.00	   57.33	 -284.08	   25.09
     71.1731	   53.00	   57.05	 -274.80	   25.08
     71.2065	   58.00	   56.66	 -269.41	   25.07
     71.2399	   52.00	   56.15	 -274.90	   25.06
     71.2733	   46.00	   55.55	 -280.30	   25.05
     71.3068	   55.00	   54.88	 -270.63	   25.03
     71.3402	   61.00	   54.15	 -263.90	   25.02
     71.3736	   47.00	   53.38	 -277.13	   25.01
     71.4070	   50.00	   52.60	 -273.35	   25.00
     71.4405	   56.00	   51.80	 -266.55	   24.99
     71.4739	   52.00	   51.01	 -269.76	   24.98
     71.5073	   44.00	   50.23	 -276.98	   24.97
     71.5407	   37.00	   49.48	 -283.23	   24.96
     71.5741	   52.00	   48.77	 -267.52	   24.95
     71.6076	   41.00	   48.09	 -277.84	   24.94
     71.6410	   38.00	   47.45	 -280.20	   24.93
     71.6744	   51.00	   46.85	 -266.60	   24.92
     71.7078	   35.00	   46.29	 -282.04	   24.91
     71.7413	   46.00	   45.78	 -270.53	   24.90
     71.7747	   44.00	   45.30	 -272.05	   24.89
     71.8081	   38.00	   44.87	 -277.62	   24.88
     71.8415	   51.00	   44.47	 -264.22	   24.86
     71.8749	   46.00	   44.12	 -268.87	   24.85
     71.9084	   36.00	   43.79	 -278.54	   24.84
     71.9418	   51.00	   43.50	 -263.25	   24.83
     71.9752	   49.00	   43.25	 -265.00	   24.82
     72.0086	   27.00	   43.02	 -286.77	   24.81
     72.0421	   39.00	   42.82	 -274.57	   24.80
     72.0755	   46.00	   42.65	 -267.40	   24.79
     72.1089	   35.00	   42.50	 -278.25	   24.78
     72.1423	   37.00	   42.38	 -276.13	   24.77
     72.1758	   48.00	   42.29	 -265.04	   24.76
     72.2092	   41.00	   42.21	 -271.96	   24.75
     72.2426	   40.00	   42.16	 -272.91	   24.74
     72.2760	   38.00	   42.13	 -274.88	   24.73
     72.3094	   40.00	   42.12	 -272.87	   24.72
     72.3429	   33.00	   42.13	 -279.88	   24.71
     72.3763	   54.00	   42.16	 -258.91	   24.69
     72.4097	   46.00	   42.21	 -266.96	   24.68
     72.4431	   45.00	   42.28	 -268.03	   24.67
     72.4766	   39.00	   42.37	 -274.12	   24.66
     72.5100	   37.00	   42.48	 -276.23	   24.65
     72.5434	   47.00	   42.14	 -265.89	   24.64
     72.5768	   40.00	   42.29	 -273.04	   24.63
     72.6102	   40.00	   42.47	 -273.22	   24.62
     72.6437	   44.00	   42.67	 -269.42	   24.61
     72.6771	   46.00	   42.89	 -267.64	   24.60
     72.7105	   51.00	   43.13	 -262.88	   24.59
     72.7439	   49.00	   43.17	 -264.92	   24.58
     72.7774	   58.00	   43.46	 -256.21	   24.57
     72.8108	   48.00	   43.79	 -266.54	   24.56
     72.8442	   46.00	   44.14	 -268.89	   24.55
     72.8776	   37.00	   44.52	 -278.27	   24.54
     72.9110	   49.00	   44.94	 -266.69	   24.52
     72.9445	   41.00	   45.39	 -275.14	   24.51
     72.9779	   40.00	   45.88	 -276.63	   24.50
     73.0113	   47.00	   46.40	 -270.15	   24.49
     73.0447	   47.00	   46.97	 -270.72	   24.48
     73.0782	   50.00	   47.59	 -268.34	   24.47
     73.1116	   50.00	   48.25	 -269.00	   24.46
     73.1450	   53.00	   48.96	 -266.71	   24.45
     73.1784	   40.00	   49.73	 -280.48	   24.44
     73.2118	   59.00	   50.56	 -262.31	   24.43
     73.2453	   44.00	   51.45	 -278.20	   24.42
     73.2787	   36.00	   52.41	 -287.16	   24.41
     73.3121	   48.00	   53.44	 -276.19	   24.40
     73.3455	   52.00	   54.55	 -273.30	   24.39
     73.3790	   58.00	   55.74	 -268.49	   24.38
     73.4124	   46.00	   57.02	 -281.77	   24.37
     73.4458	   60.00	   58.39	 -269.14	   24.36
     73.4792	   67.00	   59.85	 -263.60	   24.34
     73.5126	   61.00	   61.41	 -271.16	   24.33
     73.5461	   67.00	   63.06	 -266.81	   24.32
     73.5795	   60.00	   64.82	 -275.57	   24.31
     73.6129	   55.00	   66.67	 -282.42	   24.30
     73.6463	   74.00	   68.62	 -265.37	   24.29
     73.6798	   66.00	   70.64	 -275.39	   24.28
     73.7132	   73.00	   72.74	 -270.49	   24.27
     73.7466	   66.00	   74.89	 -279.64	   24.26
     73.7800	   75.00	   77.06	 -272.81	   24.25
     73.8135	   74.00	   79.25	 -276.00	   24.24
     73.8469	   64.00	   81.39	 -288.14	   24.23
     73.8803	   84.00	   83.47	 -270.22	   24.22
     73.9137	   97.00	   85.44	 -259.19	   24.21
     73.9471	   82.00	   87.25	 -276.00	   24.20
     73.9806	   67.00	   88.87	 -292.62	   24.19
     74.0140	   74.00	   90.26	 -287.01	   24.17
     74.0474	   85.00	   91.38	 -277.13	   24.16
     74.0808	   95.00	   92.21	 -267.96	   24.15
     74.1143	   92.00	   92.74	 -271.49	   24.14
     74.1477	   92.00	   92.96	 -271.71	   24.13
     74.1811	   79.00	   92.89	 -284.64	   24.12
     74.2145	   79.00	   92.53	 -284.28	   24.11
     74.2479	   66.00	   91.93	 -296.68	   24.10
     74.2814	   89.00	   91.09	 -272.84	   24.09
     74.3148	   65.00	   90.08	 -295.83	   24.08
     74.3482	   87.00	   88.91	 -272.66	   24.07
     74.3816	   67.00	   87.64	 -291.39	   24.06
     74.4151	   68.00	   86.30	 -289.05	   24.05
     74.4485	   69.00	   84.94	 -286.69	   24.04
     74.4819	   54.00	   83.59	 -300.34	   24.03
     74.5153	   75.00	   82.27	 -278.02	   24.02
     74.5488	   64.00	   81.02	 -287.77	   24.00
     74.5822	   81.00	   79.86	 -269.61	   23.99
     74.6156	   68.00	   78.79	 -281.54	   23.98
     74.6490	   66.00	   77.83	 -282.58	   23.97
     74.6824	   83.00	   76.99	 -264.74	   23.96
     74.7159	   74.00	   76.26	 -273.01	   23.95
     74.7493	   70.00	   75.63	 -276.38	   23.94
     74.7827	   64.00	   75.10	 -281.85	   23.93
     74.8161	   70.00	   74.65	 -275.40	   23.92
     74.8495	   62.00	   74.26	 -283.01	   23.91
     74.8830	   63.00	   73.92	 -281.67	   23.90
     74.9164	   63.00	   73.59	 -281.34	   23.89
     74.9498	   75.00	   73.27	 -269.02	   23.88
     74.9832	   62.00	   72.91	 -281.66	   23.87
     75.0167	   62.00	   72.51	 -281.26	   23.86
     75.0501	   59.00	   72.03	 -283.78	   23.85
     75.0835	   65.00	   71.48	 -277.23	   23.83
     75.1169	   51.00	   70.83	 -290.58	   23.82
     75.1504	   56.00	   70.08	 -284.83	   23.81
     75.1838	   51.00	   69.23	 -288.98	   23.80
     75.2172	   60.00	   68.28	 -279.03	   23.79
     75.2506	   60.00	   67.24	 -277.99	   23.78
     75.2840	   41.00	   66.18	 -295.93	   23.77
     75.3175	   59.00	   65.00	 -276.75	   23.76
     75.3509	   49.00	   63.76	 -285.51	   23.75
     75.3843	   54.00	   62.49	 -279.24	   23.74
     75.4177	   69.00	   61.20	 -262.95	   23.73
     75.4512	   48.00	   59.90	 -282.65	   23.72
     75.4846	   61.00	   58.61	 -268.36	   23.71
     75.5180	   49.00	   57.36	 -279.11	   23.70
     75.5514	   49.00	   56.12	 -277.87	   23.69
     75.5848	   52.00	   54.91	 -273.66	   23.68
     75.6183	   58.00	   53.75	 -266.50	   23.67
     75.6517	   47.00	   52.63	 -276.38	   23.65
     75.6851	   42.00	   51.56	 -280.31	   23.64
     75.7185	   38.00	   50.55	 -283.30	   23.63
     75.7520	   59.00	   49.59	 -261.34	   23.62
     75.7854	   58.00	   48.69	 -261.44	   23.61
     75.8188	   42.00	   47.83	 -276.58	   23.60
     75.8522	   49.00	   47.02	 -268.77	   23.59
     75.8857	   42.00	   46.27	 -275.02	   23.58
     75.9191	   42.00	   45.54	 -274.29	   23.57
     75.9525	   53.00	   44.88	 -262.63	   23.56
     75.9859	   41.00	   44.25	 -274.00	   23.55
     76.0193	   41.00	   43.66	 -273.41	   23.54
     76.0528	   30.00	   43.11	 -283.86	   23.53
     76.0862	   40.00	   42.59	 -273.34	   23.52
     76.1196	   42.00	   42.10	 -270.85	   23.51
     76.1530	   38.00	   41.64	 -274.39	   23.50
     76.1865	   41.00	   41.21	 -270.96	   23.48
     76.2199	   41.00	   40.81	 -270.56	   23.47
     76.2533	   40.00	   40.43	 -271.18	   23.46
     76.2867	   26.00	   40.07	 -284.82	   23.45
     76.3201	   29.00	   39.74	 -281.49	   23.44
     76.3536	   35.00	   39.42	 -275.17	   23.43
     76.3870	   35.00	   39.13	 -274.88	   23.42
     76.4204	   42.00	   38.85	 -267.60	   23.41
     76.4538	   25.00	   38.58	 -284.33	   23.40
     76.4873	   39.00	   38.33	 -270.08	   23.39
     76.5207	   29.00	   38.10	 -279.85	   23.38
     76.5541	   30.00	   37.88	 -278.63	   23.37
     76.5875	   40.00	   37.67	 -268.42	   23.36
     76.6209	   38.00	   37.47	 -270.22	   23.35
     76.6544	   31.00	   37.29	 -277.04	   23.34
     76.6878	   33.00	   37.11	 -274.86	   23.33
     76.7212	   23.00	   36.94	 -284.69	   23.31
     76.7546	   31.00	   36.79	 -276.54	   23.30
     76.7881	   24.00	   36.64	 -283.39	   23.29
     76.8215	   30.00	   36.50	 -277.25	   23.28
     76.8549	   40.00	   36.37	 -267.12	   23.27
     76.8883	   42.00	   36.25	 -265.00	   23.26
     76.9218	   40.00	   36.14	 -266.89	   23.25
     76.9552	   37.00	   36.03	 -269.78	   23.24
     76.9886	   31.00	   35.93	 -275.68	   23.23
     77.0220	   30.00	   35.84	 -276.59	   23.22
     77.0554	   35.00	   35.75	 -271.50	   23.21
     77.0889	   30.00	   35.67	 -276.42	   23.20
     77.1223	   29.00	   35.59	 -277.34	   23.19
     77.1557	   27.00	   35.53	 -279.28	   23.18
     77.1891	   24.00	   35.46	 -282.21	   23.17
     77.2225	   23.00	   35.41	 -283.16	   23.16
     77.2560	   32.00	   35.36	 -274.11	   23.15
     77.2894	   35.00	   35.32	 -271.07	   23.13
     77.3228	   35.00	   35.28	 -271.03	   23.12
     77.3562	   34.00	   35.25	 -272.00	   23.11
     77.3897	   26.00	   35.22	 -279.97	   23.10
     77.4231	   35.00	   35.20	 -270.95	   23.09
     77.4565	   22.00	   35.19	 -283.94	   23.08
     77.4899	   25.00	   35.18	 -280.93	   23.07
     77.5234	   24.00	   35.18	 -281.93	   23.06
     77.5568	   36.00	   35.18	 -269.93	   23.05
     77.5902	   37.00	   35.19	 -268.94	   23.04
     77.6236	   37.00	   35.21	 -268.96	   23.03
     77.6570	   31.00	   35.24	 -274.99	   23.02
     77.6905	   33.00	   35.27	 -273.02	   23.01
     77.7239	   22.00	   35.31	 -284.06	   23.00
     77.7573	   30.00	   35.36	 -276.11	   22.99
     77.7907	   22.00	   35.42	 -284.17	   22.98
     77.8242	   33.00	   35.49	 -273.24	   22.96
     77.8576	   36.00	   35.57	 -270.32	   22.95
     77.8910	   33.00	   35.83	 -273.58	   22.94
     77.9244	   49.00	   35.93	 -257.68	   22.93
     77.9578	   27.00	   36.04	 -279.79	   22.92
     77.9913	   26.00	   36.16	 -280.91	   22.91
     78.0247	   30.00	   36.30	 -277.05	   22.90
     78.0581	   34.00	   36.45	 -273.20	   22.89
     78.0915	   27.00	   36.61	 -280.36	   22.88
     78.1250	   39.00	   36.79	 -268.54	   22.87
     78.1584	   46.00	   37.07	 -261.82	   22.86
     78.1918	   39.00	   37.28	 -269.03	   22.85
     78.2252	   33.00	   37.51	 -275.26	   22.84
     78.2587	   29.00	   37.76	 -279.51	   22.83
     78.2921	   26.00	   38.04	 -282.79	   22.82
     78.3255	   34.00	   38.33	 -275.08	   22.81
     78.3589	   23.00	   38.64	 -286.39	   22.79
     78.3923	   44.00	   38.98	 -265.73	   22.78
     78.4258	   34.00	   39.34	 -276.09	   22.77
     78.4592	   38.00	   39.73	 -272.48	   22.76
     78.4926	   45.00	   40.14	 -265.89	   22.75
     78.5260	   44.00	   40.57	 -267.32	   22.74
     78.5595	   44.00	   41.03	 -267.78	   22.73
     78.5929	   38.00	   41.50	 -274.25	   22.72
     78.6263	   48.00	   42.00	 -264.75	   22.71
     78.6597	   26.00	   42.51	 -287.26	   22.70
     78.6931	   45.00	   43.03	 -268.78	   22.69
     78.7266	   42.00	   43.56	 -272.31	   22.68
     78.7600	   52.00	   44.08	 -262.83	   22.67
     78.7934	   47.00	   44.60	 -268.35	   22.66
     78.8268	   37.00	   45.09	 -278.84	   22.65
     78.8603	   41.00	   45.56	 -275.31	   22.64
     78.8937	   47.00	   45.98	 -269.73	   22.62
     78.9271	   51.00	   46.36	 -266.11	   22.61
     78.9605	   30.00	   46.68	 -287.43	   22.60
     78.9939	   52.00	   46.92	 -265.67	   22.59
     79.0274	   34.00	   47.09	 -283.84	   22.58
     79.0608	   45.00	   47.19	 -272.94	   22.57
     79.0942	   35.00	   47.20	 -282.95	   22.56
     79.1276	   45.00	   47.12	 -272.87	   22.55
     79.1611	   46.00	   46.97	 -271.72	   22.54
     79.1945	   40.00	   46.74	 -277.49	   22.53
     79.2279	   36.00	   46.44	 -281.19	   22.52
     79.2613	   44.00	   46.08	 -272.83	   22.51
     79.2947	   46.00	   45.66	 -270.41	   22.50
     79.3282	   33.00	   45.20	 -282.95	   22.49
     79.3616	   33.00	   44.70	 -282.45	   22.48
     79.3950	   39.00	   44.17	 -275.92	   22.47
     79.4284	   29.00	   43.62	 -285.37	   22.46
     79.4619	   37.00	   43.06	 -276.81	   22.44
     79.4953	   37.00	   42.50	 -276.25	   22.43
     79.5287	   32.00	   41.94	 -280.69	   22.42
     79.5621	   38.00	   41.39	 -274.14	   22.41
     79.5956	   47.00	   40.85	 -264.60	   22.40
     79.6290	   40.00	   40.33	 -271.08	   22.39
     79.6624	   44.00	   39.83	 -266.58	   22.38
     79.6958	   33.00	   39.35	 -277.10	   22.37
     79.7292	   51.00	   38.89	 -258.64	   22.36
     79.7627	   30.00	   38.46	 -279.21	   22.35
     79.7961	   33.00	   38.05	 -275.80	   22.34
     79.8295	   40.00	   37.66	 -268.41	   22.33
     79.8629	   36.00	   37.29	 -272.04	   22.32
     79.8964	   35.00	   36.94	 -272.69	   22.31
     79.9298	   27.00	   36.62	 -280.37	   22.30
     79.9632	   33.00	   36.32	 -274.07	   22.29
     79.9966	   26.00	   36.03	 -280.78	   22.27
     80.0300	   26.00	   35.76	 -280.51	   22.26
     80.0635	   27.00	   35.51	 -279.26	   22.25
     80.0969	   29.00	   35.28	 -277.03	   22.24
     80.1303	   35.00	   35.06	 -270.81	   22.23
     80.1637	   32.00	   34.85	 -273.60	   22.22
     80.1972	   38.00	   34.66	 -267.41	   22.21
     80.2306	   27.00	   34.48	 -278.23	   22.20
     80.2640	   30.00	   34.31	 -275.06	   22.19
     80.2974	   40.00	   34.15	 -264.90	   22.18
     80.3308	   34.00	   34.00	 -270.75	   22.17
     80.3643	   30.00	   33.86	 -274.61	   22.16
     80.3977	   34.00	   33.74	 -270.49	   22.15
     80.4311	   22.00	   33.61	 -282.36	   22.14
     80.4645	   27.00	   33.50	 -277.25	   22.13
     80.4980	   31.00	   33.40	 -273.15	   22.12
     80.5314	   42.00	   33.30	 -262.05	   22.10
     80.5648	   22.00	   33.21	 -281.96	   22.09
     80.5982	   16.00	   33.12	 -287.87	   22.08
     80.6317	   26.00	   33.05	 -277.80	   22.07
     80.6651	   30.00	   32.98	 -273.73	   22.06
     80.6985	   22.00	   32.91	 -281.66	   22.05
     80.7319	   23.00	   32.85	 -280.60	   22.04
     80.7653	   30.00	   32.79	 -273.54	   22.03
     80.7988	   19.00	   32.74	 -284.49	   22.02
     80.8322	   30.00	   32.70	 -273.45	   22.01
     80.8656	   32.00	   32.66	 -271.41	   22.00
     80.8990	   26.00	   32.63	 -277.38	   21.99
     80.9324	   40.00	   32.60	 -263.35	   21.98
     80.9659	   34.00	   32.58	 -269.33	   21.97
     80.9993	   27.00	   32.56	 -276.31	   21.96
     81.0327	   23.00	   32.54	 -280.29	   21.95
     81.0661	   25.00	   32.54	 -278.29	   21.93
     81.0996	   21.00	   32.53	 -282.28	   21.92
     81.1330	   18.00	   32.53	 -285.28	   21.91
     81.1664	   32.00	   32.54	 -271.29	   21.90
     81.1998	   31.00	   32.56	 -272.31	   21.89
     81.2333	   24.00	   32.57	 -279.32	   21.88
     81.2667	   24.00	   32.60	 -279.35	   21.87
     81.3001	   20.00	   32.63	 -283.38	   21.86
     81.3335	   20.00	   32.66	 -283.41	   21.85
     81.3669	   35.00	   32.71	 -268.46	   21.84
     81.4004	   37.00	   32.75	 -266.50	   21.83
     81.4338	   31.00	   32.77	 -272.52	   21.82
     81.4672	   36.00	   32.82	 -267.57	   21.81
     81.5006	   23.00	   32.89	 -280.64	   21.80
     81.5341	   30.00	   32.96	 -273.71	   21.79
     81.5675	   33.00	   33.03	 -270.78	   21.78
     81.6009	   34.00	   33.11	 -269.86	   21.77
     81.6343	   35.00	   33.16	 -268.91	   21.75
     81.6677	   25.00	   33.24	 -278.99	   21.74
     81.7012	   40.00	   33.32	 -264.07	   21.73
     81.7346	   29.00	   33.40	 -275.15	   21.72
     81.7680	   31.00	   33.47	 -273.22	   21.71
     81.8014	   37.00	   33.54	 -267.29	   21.70
     81.8349	   27.00	   33.60	 -277.35	   21.69
     81.8683	   33.00	   33.65	 -271.40	   21.68
     81.9017	   36.00	   33.69	 -268.44	   21.67
     81.9351	   36.00	   33.72	 -268.47	   21.66
     81.9686	   26.00	   33.74	 -278.49	   21.65
     82.0020	   22.00	   33.74	 -282.49	   21.64
     82.0354	   20.00	   33.73	 -284.48	   21.63
     82.0688	   33.00	   33.70	 -271.45	   21.62
     82.1022	   41.00	   33.66	 -263.41	   21.61
     82.1357	   23.00	   33.60	 -281.35	   21.60
     82.1691	   30.00	   33.53	 -274.28	   21.58
     82.2025	   37.00	   33.52	 -267.27	   21.57
     82.2359	   35.00	   33.43	 -269.18	   21.56
     82.2694	   34.00	   33.33	 -270.08	   21.55
     82.3028	   23.00	   33.22	 -280.97	   21.54
     82.3362	   25.00	   33.11	 -278.86	   21.53
     82.3696	   30.00	   33.00	 -273.75	   21.52
     82.4030	   44.00	   32.89	 -259.64	   21.51
     82.4365	   29.00	   32.77	 -274.52	   21.50
     82.4699	   33.00	   32.65	 -270.40	   21.49
     82.5033	   29.00	   32.57	 -274.32	   21.48
     82.5367	   20.00	   32.46	 -283.21	   21.47
     82.5702	   24.00	   32.35	 -279.10	   21.46
     82.6036	   30.00	   32.25	 -273.00	   21.45
     82.6370	   25.00	   32.15	 -277.90	   21.44
     82.6704	   24.00	   32.05	 -278.80	   21.43
     82.7038	   26.00	   31.96	 -276.71	   21.41
     82.7373	   30.00	   31.88	 -272.63	   21.40
     82.7707	   32.00	   31.80	 -270.55	   21.39
     82.8041	   35.00	   31.72	 -267.47	   21.38
     82.8375	   25.00	   31.65	 -277.40	   21.37
     82.8710	   23.00	   31.58	 -279.33	   21.36
     82.9044	   25.00	   31.51	 -277.26	   21.35
     82.9378	   31.00	   31.45	 -271.20	   21.34
     82.9712	   33.00	   31.40	 -269.15	   21.33
     83.0046	   31.00	   31.35	 -271.10	   21.32
     83.0381	   34.00	   31.30	 -268.05	   21.31
     83.0715	   21.00	   31.26	 -281.01	   21.31
     83.1049	   36.00	   31.23	 -265.98	   21.31
     83.1383	   38.00	   31.20	 -263.95	   21.31
     83.1718	   29.00	   31.17	 -272.92	   21.30
     83.2052	   27.00	   31.15	 -274.90	   21.30
     83.2386	   30.00	   31.13	 -271.88	   21.30
     83.2720	   30.00	   31.11	 -271.86	   21.30
     83.3055	   29.00	   31.09	 -272.84	   21.30
     83.3389	   32.00	   31.08	 -269.83	   21.29
     83.3723	   40.00	   31.07	 -261.82	   21.29
     83.4057	   22.00	   31.06	 -279.81	   21.29
     83.4391	   37.00	   31.05	 -264.80	   21.29
     83.4726	   23.00	   31.04	 -278.79	   21.29
     83.5060	   32.00	   31.04	 -269.79	   21.28
     83.5394	   29.00	   31.04	 -272.79	   21.28
     83.5728	   30.00	   31.04	 -271.79	   21.28
     83.6063	   26.00	   31.04	 -275.79	   21.28
     83.6397	   32.00	   31.04	 -269.79	   21.28
     83.6731	   25.00	   31.05	 -276.80	   21.28
     83.7065	   27.00	   31.05	 -274.80	   21.27
     83.7399	   23.00	   31.06	 -278.81	   21.27
     83.7734	   32.00	   31.07	 -269.82	   21.27
     83.8068	   26.00	   31.08	 -275.83	   21.27
     83.8402	   33.00	   31.09	 -268.84	   21.27
     83.8736	   23.00	   31.11	 -278.86	   21.26
     83.9071	   29.00	   31.12	 -272.87	   21.26
     83.9405	   24.00	   31.14	 -277.89	   21.26
     83.9739	   15.00	   31.16	 -286.91	   21.26
     84.0073	   24.00	   31.18	 -277.93	   21.26
     84.0407	   26.00	   31.20	 -275.95	   21.26
     84.0742	   24.00	   31.22	 -277.97	   21.25
     84.1076	   31.00	   31.24	 -270.99	   21.25
     84.1410	   27.00	   31.27	 -275.02	   21.25
     84.1744	   36.00	   31.30	 -266.05	   21.25
     84.2079	   20.00	   31.33	 -282.08	   21.25
     84.2413	   34.00	   31.36	 -268.11	   21.24
     84.2747	   26.00	   31.39	 -276.14	   21.24
     84.3081	   31.00	   31.42	 -271.17	   21.24
     84.3416	   39.00	   31.46	 -263.21	   21.24
     84.3750	   29.00	   31.50	 -273.25	   21.24
     84.4084	   27.00	   31.54	 -275.29	   21.23
     84.4418	   38.00	   31.58	 -264.33	   21.23
     84.4752	   26.00	   31.62	 -276.37	   21.23
     84.5087	   30.00	   31.67	 -272.42	   21.23
     84.5421	   31.00	   31.72	 -271.47	   21.23
     84.5755	   32.00	   31.77	 -270.52	   21.23
     84.6089	   26.00	   31.82	 -276.57	   21.22
     84.6424	   20.00	   31.77	 -282.52	   21.22
     84.6758	   30.00	   31.82	 -272.57	   21.22
     84.7092	   30.00	   31.88	 -272.63	   21.22
     84.7426	   30.00	   31.95	 -272.70	   21.22
     84.7760	   32.00	   32.01	 -270.76	   21.21
     84.8095	   30.00	   32.08	 -272.83	   21.21
     84.8429	   37.00	   32.15	 -265.90	   21.21
     84.8763	   38.00	   32.18	 -264.93	   21.21
     84.9097	   30.00	   32.25	 -273.00	   21.21
     84.9432	   35.00	   32.34	 -268.09	   21.20
     84.9766	   47.00	   32.42	 -256.17	   21.20
     85.0100	   51.00	   32.51	 -252.26	   21.20
     85.0434	   37.00	   32.60	 -266.35	   21.20
     85.0768	   21.00	   32.70	 -282.45	   21.20
     85.1103	   36.00	   32.80	 -267.55	   21.20
     85.1437	   35.00	   32.91	 -268.66	   21.19
     85.1771	   24.00	   33.02	 -279.77	   21.19
     85.2105	   34.00	   33.14	 -269.89	   21.19
     85.2440	   42.00	   33.26	 -262.01	   21.19
     85.2774	   33.00	   33.39	 -271.14	   21.19
     85.3108	   33.00	   33.53	 -271.28	   21.18
     85.3442	   41.00	   33.67	 -263.42	   21.18
     85.3776	   32.00	   33.82	 -272.57	   21.18
     85.4111	   25.00	   33.98	 -279.73	   21.18
     85.4445	   17.00	   34.14	 -287.89	   21.18
     85.4779	   26.00	   34.32	 -279.07	   21.17
     85.5113	   26.00	   34.50	 -279.25	   21.17
     85.5448	   35.00	   34.69	 -270.44	   21.17
     85.5782	   38.00	   34.89	 -267.64	   21.17
     85.6116	   32.00	   35.11	 -273.86	   21.17
     85.6450	   34.00	   35.33	 -272.08	   21.17
     85.6785	   36.00	   35.57	 -270.32	   21.16
     85.7119	   33.00	   35.77	 -273.52	   21.16
     85.7453	   29.00	   36.04	 -277.79	   21.16
     85.7787	   45.00	   36.32	 -262.07	   21.16
     85.8121	   42.00	   36.62	 -265.37	   21.16
     85.8456	   42.00	   36.93	 -265.68	   21.15
     85.8790	   35.00	   37.26	 -273.01	   21.15
     85.9124	   37.00	   37.61	 -271.36	   21.15
     85.9458	   26.00	   37.95	 -282.70	   21.15
     85.9793	   29.00	   38.34	 -280.09	   21.15
     86.0127	   35.00	   38.76	 -274.51	   21.15
     86.0461	   27.00	   39.19	 -282.94	   21.14
     86.0795	   39.00	   39.65	 -271.40	   21.14
     86.1129	   35.00	   40.14	 -275.89	   21.14
     86.1464	   51.00	   40.64	 -260.39	   21.14
     86.1798	   44.00	   41.18	 -267.93	   21.14
     86.2132	   38.00	   41.74	 -274.49	   21.13
     86.2466	   36.00	   42.33	 -277.08	   21.13
     86.2801	   55.00	   42.94	 -258.69	   21.13
     86.3135	   35.00	   43.57	 -279.32	   21.13
     86.3469	   40.00	   44.23	 -274.98	   21.13
     86.3803	   31.00	   44.90	 -284.65	   21.12
     86.4137	   41.00	   45.59	 -275.34	   21.12
     86.4472	   39.00	   46.29	 -278.04	   21.12
     86.4806	   45.00	   47.00	 -272.75	   21.12
     86.5140	   40.00	   47.70	 -278.45	   21.12
     86.5474	   37.00	   48.40	 -282.15	   21.12
     86.5809	   53.00	   49.07	 -266.82	   21.11
     86.6143	   40.00	   49.72	 -280.47	   21.11
     86.6477	   54.00	   50.34	 -267.09	   21.11
     86.6811	   53.00	   50.91	 -268.66	   21.11
     86.7146	   54.00	   51.42	 -268.17	   21.11
     86.7480	   46.00	   51.88	 -276.63	   21.10
     86.7814	   45.00	   52.26	 -278.01	   21.10
     86.8148	   53.00	   52.56	 -270.31	   21.10
     86.8482	   48.00	   52.78	 -275.53	   21.10
     86.8817	   50.00	   52.93	 -273.68	   21.10
     86.9151	   46.00	   52.98	 -277.73	   21.09
     86.9485	   44.00	   52.96	 -279.71	   21.09
     86.9819	   55.00	   52.86	 -268.61	   21.09
     87.0154	   52.00	   52.68	 -271.43	   21.09
     87.0488	   46.00	   52.44	 -277.19	   21.09
     87.0822	   54.00	   52.14	 -268.89	   21.09
     87.1156	   52.00	   51.78	 -270.53	   21.08
     87.1490	   55.00	   51.39	 -267.14	   21.08
     87.1825	   49.00	   50.95	 -272.70	   21.08
     87.2159	   47.00	   50.49	 -274.24	   21.08
     87.2493	   47.00	   50.01	 -273.76	   21.08
     87.2827	   34.00	   49.52	 -286.27	   21.07
     87.3162	   42.00	   49.03	 -277.78	   21.07
     87.3496	   41.00	   48.54	 -278.29	   21.07
     87.3830	   41.00	   48.07	 -277.82	   21.07
     87.4164	   49.00	   47.60	 -269.35	   21.07
     87.4498	   47.00	   47.16	 -270.91	   21.06
     87.4833	   35.00	   46.74	 -282.49	   21.06
     87.5167	   52.00	   46.34	 -265.09	   21.06
     87.5501	   49.00	   45.98	 -267.73	   21.06
     87.5835	   46.00	   45.64	 -270.39	   21.06
     87.6170	   64.00	   45.33	 -252.08	   21.06
     87.6504	   34.00	   45.06	 -281.81	   21.05
     87.6838	   44.00	   44.81	 -271.56	   21.05
     87.7172	   36.00	   44.60	 -279.35	   21.05
     87.7506	   40.00	   44.42	 -275.17	   21.05
     87.7841	   38.00	   44.28	 -277.03	   21.05
     87.8175	   44.00	   44.16	 -270.91	   21.04
     87.8509	   45.00	   44.08	 -269.83	   21.04
     87.8843	   39.00	   44.02	 -275.77	   21.04
     87.9178	   47.00	   44.00	 -267.75	   21.04
     87.9512	   56.00	   44.01	 -258.76	   21.04
     87.9846	   51.00	   44.05	 -263.80	   21.04
     88.0180	   52.00	   44.12	 -262.87	   21.03
     88.0515	   61.00	   44.22	 -253.97	   21.03
     88.0849	   50.00	   44.35	 -265.10	   21.03
     88.1183	   48.00	   44.51	 -267.26	   21.03
     88.1517	   60.00	   44.71	 -255.46	   21.03
     88.1851	   52.00	   44.93	 -263.68	   21.02
     88.2186	   51.00	   45.19	 -264.94	   21.02
     88.2520	   51.00	   45.48	 -265.23	   21.02
     88.2854	   40.00	   45.80	 -276.55	   21.02
     88.3188	   41.00	   46.16	 -275.91	   21.02
     88.3523	   36.00	   46.55	 -281.30	   21.01
     88.3857	   53.00	   46.98	 -264.73	   21.01
     88.4191	   44.00	   47.45	 -274.20	   21.01
     88.4525	   45.00	   47.96	 -273.71	   21.01
     88.4859	   53.00	   48.51	 -266.26	   21.01
     88.5194	   49.00	   49.11	 -270.86	   21.01
     88.5528	   54.00	   49.75	 -266.50	   21.00
     88.5862	   39.00	   50.44	 -282.19	   21.00
     88.6196	   59.00	   51.17	 -262.92	   21.00
     88.6531	   59.00	   51.97	 -263.72	   21.00
     88.6865	   60.00	   52.81	 -263.56	   21.00
     88.7199	   47.00	   53.72	 -277.47	   20.99
     88.7533	   60.00	   54.68	 -265.43	   20.99
     88.7868	   59.00	   55.71	 -267.46	   20.99
     88.8202	   62.00	   56.81	 -265.56	   20.99
     88.8536	   62.00	   57.97	 -266.72	   20.99
     88.8870	   66.00	   59.21	 -263.96	   20.98
     88.9204	   62.00	   60.53	 -269.28	   20.98
     88.9539	   62.00	   61.92	 -270.67	   20.98
     88.9873	   68.00	   63.39	 -266.14	   20.98
     89.0207	   67.00	   64.94	 -268.69	   20.98
     89.0541	   80.00	   66.60	 -257.35	   20.98
     89.0875	   60.00	   68.32	 -279.07	   20.97
     89.1210	   61.00	   70.12	 -279.87	   20.97
     89.1544	   83.00	   72.00	 -259.75	   20.97
     89.1878	   75.00	   73.95	 -269.70	   20.97
     89.2212	   59.00	   75.97	 -287.72	   20.97
     89.2547	   91.00	   78.05	 -257.80	   20.96
     89.2881	   91.00	   80.18	 -259.93	   20.96
     89.3215	   65.00	   82.35	 -288.10	   20.96
     89.3549	   59.00	   84.54	 -296.29	   20.96
     89.3884	   81.00	   86.71	 -276.46	   20.96
     89.4218	   85.00	   88.86	 -274.61	   20.95
     89.4552	   78.00	   90.96	 -283.71	   20.95
     89.4886	   80.00	   92.97	 -283.72	   20.95
     89.5220	   81.00	   94.88	 -284.63	   20.95
     89.5555	   77.00	   96.64	 -290.39	   20.95
     89.5889	   84.00	   98.23	 -284.98	   20.95
     89.6223	   87.00	   99.62	 -283.37	   20.94
     89.6557	   77.00	  100.78	 -294.53	   20.94
     89.6892	   97.00	  101.70	 -275.45	   20.94
     89.7226	   84.00	  102.35	 -289.10	   20.94
     89.7560	   85.00	  102.73	 -288.48	   20.94
     89.7894	   88.00	  102.82	 -285.57	   20.93
     89.8228	   97.00	  102.64	 -276.39	   20.93
     89.8563	   98.00	  102.18	 -274.93	   20.93
     89.8897	   75.00	  101.46	 -297.21	   20.93
     89.9231	   79.00	  100.48	 -292.23	   20.93
     89.9565	   85.00	   99.25	 -285.00	   20.93
     89.9900	  104.00	   97.84	 -264.59	   20.92
     90.0234	   88.00	   96.25	 -279.00	   20.92
     90.0568	   97.00	   94.50	 -268.25	   20.92
     90.0902	   63.00	   92.62	 -300.37	   20.92
     90.1236	  102.00	   90.63	 -259.38	   20.92
     90.1571	   51.00	   88.56	 -308.31	   20.91
     90.1905	   80.00	   86.42	 -277.17	   20.91
     90.2239	   67.00	   84.27	 -288.02	   20.91
     90.2573	   64.00	   82.10	 -288.85	   20.91
     90.2908	   78.00	   79.95	 -272.70	   20.91
     90.3242	   79.00	   77.82	 -269.57	   20.90
     90.3576	   68.00	   75.72	 -278.47	   20.90
     90.3910	   68.00	   73.68	 -276.43	   20.90
     90.4245	   62.00	   71.70	 -280.45	   20.90
     90.4579	   82.00	   69.78	 -258.53	   20.90
     90.4913	   42.00	   67.94	 -296.69	   20.90
     90.5247	   67.00	   66.17	 -269.92	   20.89
     90.5581	   61.00	   64.48	 -274.23	   20.89
     90.5916	   54.00	   62.86	 -279.61	   20.89
     90.6250	   56.00	   61.32	 -276.07	   20.89
     90.6584	   64.00	   59.86	 -266.61	   20.89
     90.6918	   59.00	   58.47	 -270.22	   20.88
     90.7253	   48.00	   57.15	 -279.90	   20.88
     90.7587	   61.00	   55.91	 -265.66	   20.88
     90.7921	   29.00	   54.73	 -296.48	   20.88
     90.8255	   54.00	   53.61	 -270.36	   20.88
     90.8589	   48.00	   52.56	 -275.31	   20.87
     90.8924	   59.00	   51.56	 -263.31	   20.87
     90.9258	   49.00	   50.62	 -272.37	   20.87
     90.9592	   42.00	   49.73	 -278.48	   20.87
     90.9926	   45.00	   48.89	 -274.64	   20.87
     91.0261	   46.00	   48.09	 -272.84	   20.87
     91.0595	   40.00	   47.34	 -278.09	   20.86
     91.0929	   44.00	   46.64	 -273.39	   20.86
     91.1263	   48.00	   45.97	 -268.72	   20.86
     91.1598	   36.00	   45.33	 -280.08	   20.86
     91.1932	   48.00	   44.73	 -267.48	   20.86
     91.2266	   39.00	   44.17	 -275.92	   20.85
     91.2600	   53.00	   43.63	 -261.38	   20.85
     91.2934	   38.00	   43.13	 -275.88	   20.85
     91.3269	   42.00	   42.65	 -271.40	   20.85
     91.3603	   56.00	   42.19	 -256.94	   20.85
     91.3937	   45.00	   41.76	 -267.51	   20.85
     91.4271	   48.00	   41.36	 -264.11	   20.84
     91.4605	   39.00	   40.97	 -272.72	   20.84
     91.4940	   42.00	   40.61	 -269.36	   20.84
     91.5274	   48.00	   40.26	 -263.01	   20.84
     91.5608	   29.00	   39.94	 -281.69	   20.84
     91.5942	   35.00	   39.73	 -275.48	   20.83
     91.6277	   32.00	   39.44	 -278.19	   20.83
     91.6611	   32.00	   39.16	 -277.91	   20.83
     91.6945	   41.00	   38.90	 -268.65	   20.83
     91.7279	   41.00	   38.65	 -268.40	   20.83
     91.7614	   38.00	   38.42	 -271.17	   20.82
     91.7948	   49.00	   38.20	 -259.95	   20.82
     91.8282	   50.00	   37.99	 -258.74	   20.82
     91.8616	   42.00	   37.79	 -266.54	   20.82
     91.8950	   31.00	   37.60	 -277.35	   20.82
     91.9285	   42.00	   37.48	 -266.23	   20.82
     91.9619	   37.00	   37.31	 -271.06	   20.81
     91.9953	   29.00	   37.15	 -278.90	   20.81
     92.0287	   23.00	   37.01	 -284.76	   20.81
     92.0622	   32.00	   36.87	 -275.62	   20.81
     92.0956	   51.00	   36.74	 -256.49	   20.81
     92.1290	   41.00	   36.62	 -266.37	   20.80
     92.1624	   36.00	   36.51	 -271.26	   20.80
     92.1958	   39.00	   36.41	 -268.16	   20.80
     92.2293	   31.00	   36.31	 -276.06	   20.80
     92.2627	   46.00	   36.23	 -260.98	   20.80
     92.2961	   32.00	   36.15	 -274.90	   20.79
     92.3295	   47.00	   36.08	 -259.83	   20.79
     92.3630	   33.00	   36.01	 -273.76	   20.79
     92.3964	   30.00	   35.96	 -276.71	   20.79
     92.4298	   38.00	   35.91	 -268.66	   20.79
     92.4632	   45.00	   35.89	 -261.64	   20.79
     92.4967	   34.00	   35.85	 -272.60	   20.78
     92.5301	   38.00	   35.83	 -268.58	   20.78
     92.5635	   38.00	   35.81	 -268.56	   20.78
     92.5969	   39.00	   35.79	 -267.54	   20.78
     92.6303	   31.00	   35.79	 -275.54	   20.78
     92.6638	   33.00	   35.79	 -273.54	   20.77
     92.6972	   47.00	   35.80	 -259.55	   20.77
     92.7306	   47.00	   35.82	 -259.57	   20.77
     92.7640	   44.00	   35.85	 -262.60	   20.77
     92.7975	   33.00	   35.89	 -273.64	   20.77
     92.8309	   38.00	   35.93	 -268.68	   20.76
     92.8643	   39.00	   35.98	 -267.73	   20.76
     92.8977	   41.00	   36.03	 -265.78	   20.76
     92.9311	   31.00	   36.10	 -275.85	   20.76
     92.9646	   34.00	   36.18	 -272.93	   20.76
     92.9980	   32.00	   36.26	 -275.01	   20.76
     93.0314	   36.00	   36.36	 -271.11	   20.75
     93.0648	   38.00	   36.46	 -269.21	   20.75
     93.0983	   31.00	   36.57	 -276.32	   20.75
     93.1317	   27.00	   36.70	 -280.45	   20.75
     93.1651	   49.00	   36.84	 -258.59	   20.75
     93.1985	   38.00	   36.99	 -269.74	   20.74
     93.2319	   33.00	   37.15	 -274.90	   20.74
     93.2654	   38.00	   37.33	 -270.08	   20.74
     93.2988	   31.00	   37.52	 -277.27	   20.74
     93.3322	   42.00	   37.73	 -266.48	   20.74
     93.3656	   46.00	   37.95	 -262.70	   20.74
     93.3991	   33.00	   38.18	 -275.93	   20.73
     93.4325	   38.00	   38.44	 -271.19	   20.73
     93.4659	   42.00	   38.71	 -267.46	   20.73
     93.4993	   38.00	   39.00	 -271.75	   20.73
     93.5327	   34.00	   39.31	 -276.06	   20.73
     93.5662	   44.00	   39.64	 -266.39	   20.72
     93.5996	   35.00	   39.99	 -275.74	   20.72
     93.6330	   40.00	   40.36	 -271.11	   20.72
     93.6664	   40.00	   40.76	 -271.51	   20.72
     93.6999	   51.00	   41.18	 -260.93	   20.72
     93.7333	   36.00	   41.62	 -276.37	   20.71
     93.7667	   31.00	   42.09	 -281.84	   20.71
     93.8001	   38.00	   42.58	 -275.33	   20.71
     93.8335	   41.00	   43.10	 -272.85	   20.71
     93.8670	   54.00	   43.64	 -260.39	   20.71
     93.9004	   40.00	   44.21	 -274.96	   20.71
     93.9338	   40.00	   44.81	 -275.56	   20.70
     93.9672	   26.00	   45.43	 -290.18	   20.70
     94.0007	   51.00	   46.07	 -265.82	   20.70
     94.0341	   46.00	   46.73	 -271.48	   20.70
     94.0675	   45.00	   47.41	 -273.16	   20.70
     94.1009	   45.00	   48.10	 -273.85	   20.69
     94.1344	   47.00	   48.80	 -272.55	   20.69
     94.1678	   52.00	   49.50	 -268.25	   20.69
     94.2012	   41.00	   50.20	 -279.95	   20.69
     94.2346	   37.00	   50.89	 -284.64	   20.69
     94.2680	   46.00	   51.56	 -276.31	   20.68
     94.3015	   55.00	   52.21	 -267.96	   20.68
     94.3349	   47.00	   52.83	 -276.58	   20.68
     94.3683	   54.00	   53.40	 -270.15	   20.68
     94.4017	   54.00	   53.92	 -270.67	   20.68
     94.4352	   47.00	   54.38	 -278.13	   20.68
     94.4686	   65.00	   54.77	 -260.52	   20.67
     94.5020	   50.00	   55.09	 -275.84	   20.67
     94.5354	   66.00	   55.33	 -260.08	   20.67
     94.5688	   47.00	   55.49	 -279.24	   20.67
     94.6023	   51.00	   55.57	 -275.32	   20.67
     94.6357	   34.00	   55.55	 -292.30	   20.66
     94.6691	   56.00	   55.45	 -270.20	   20.66
     94.7025	   40.00	   55.27	 -286.02	   20.66
     94.7360	   38.00	   55.01	 -287.76	   20.66
     94.7694	   51.00	   54.67	 -274.42	   20.66
     94.8028	   41.00	   54.26	 -284.01	   20.65
     94.8362	   44.00	   53.79	 -280.54	   20.65
     94.8697	   58.00	   53.26	 -266.01	   20.65
     94.9031	   47.00	   52.68	 -276.43	   20.65
     94.9365	   41.00	   52.05	 -281.80	   20.65
     94.9699	   46.00	   51.40	 -276.15	   20.65
     95.0033	   54.00	   50.71	 -267.46	   20.64
     95.0368	   61.00	   50.01	 -259.76	   20.64
     95.0702	   44.00	   49.29	 -276.04	   20.64
     95.1036	   37.00	   48.56	 -282.31	   20.64
     95.1370	   48.00	   47.83	 -270.58	   20.64
     95.1705	   42.00	   47.11	 -275.86	   20.63
     95.2039	   46.00	   46.39	 -271.14	   20.63
     95.2373	   40.00	   45.69	 -276.44	   20.63
     95.2707	   49.00	   45.00	 -266.75	   20.63
     95.3041	   42.00	   44.33	 -273.08	   20.63
     95.3376	   52.00	   43.69	 -262.44	   20.63
     95.3710	   51.00	   43.06	 -262.81	   20.62
     95.4044	   39.00	   42.46	 -274.21	   20.62
     95.4378	   50.00	   41.87	 -262.62	   20.62
     95.4713	   51.00	   41.32	 -261.07	   20.62
     95.5047	   40.00	   40.79	 -271.54	   20.62
     95.5381	   34.00	   40.28	 -277.03	   20.61
     95.5715	   39.00	   39.79	 -271.54	   20.61
     95.6049	   34.00	   39.33	 -276.08	   20.61
     95.6384	   40.00	   38.89	 -269.64	   20.61
     95.6718	   44.00	   38.47	 -265.22	   20.61
     95.7052	   37.00	   38.07	 -271.82	   20.60
     95.7386	   39.00	   37.69	 -269.44	   20.60
     95.7721	   44.00	   37.33	 -264.08	   20.60
     95.8055	   45.00	   36.99	 -262.74	   20.60
     95.8389	   32.00	   36.70	 -275.45	   20.60
     95.8723	   45.00	   36.40	 -262.15	   20.60
     95.9057	   37.00	   36.10	 -269.85	   20.59
     95.9392	   35.00	   35.82	 -271.57	   20.59
     95.9726	   31.00	   35.56	 -275.31	   20.59
     96.0060	   34.00	   35.31	 -272.06	   20.59
     96.0394	   34.00	   35.07	 -271.82	   20.59
     96.0729	   37.00	   34.84	 -268.59	   20.58
     96.1063	   29.00	   34.62	 -276.37	   20.58
     96.1397	   33.00	   34.42	 -272.17	   20.58
     96.1731	   42.00	   34.24	 -262.99	   20.58
     96.2066	   42.00	   34.06	 -262.81	   20.58
     96.2400	   29.00	   33.88	 -275.63	   20.57
     96.2734	   44.00	   33.71	 -260.46	   20.57
     96.3068	   40.00	   33.55	 -264.30	   20.57
     96.3402	   30.00	   33.40	 -274.15	   20.57
     96.3737	   33.00	   33.25	 -271.00	   20.57
     96.4071	   39.00	   33.11	 -264.86	   20.57
     96.4405	   29.00	   32.98	 -274.73	   20.56
     96.4739	   40.00	   32.85	 -263.60	   20.56
     96.5074	   32.00	   32.73	 -271.48	   20.56
     96.5408	   22.00	   32.61	 -281.36	   20.56
     96.5742	   38.00	   32.50	 -265.25	   20.56
     96.6076	   22.00	   32.39	 -281.14	   20.55
     96.6410	   34.00	   32.29	 -269.04	   20.55
     96.6745	   39.00	   32.19	 -263.94	   20.55
     96.7079	   21.00	   32.10	 -281.85	   20.55
     96.7413	   24.00	   32.01	 -278.76	   20.55
     96.7747	   34.00	   31.93	 -268.68	   20.54
     96.8082	   23.00	   31.84	 -279.59	   20.54
     96.8416	   37.00	   31.77	 -265.52	   20.54
     96.8750	   27.00	   31.69	 -275.44	   20.54
     96.9084	   27.00	   31.62	 -275.37	   20.54
     96.9418	   33.00	   31.55	 -269.30	   20.54
     96.9753	   32.00	   31.48	 -270.23	   20.53
     97.0087	   25.00	   31.42	 -277.17	   20.53
     97.0421	   35.00	   31.36	 -267.11	   20.53
     97.0755	   29.00	   31.30	 -273.05	   20.53
     97.1090	   26.00	   31.25	 -276.00	   20.53
     97.1424	   30.00	   31.19	 -271.94	   20.52
     97.1758	   31.00	   31.14	 -270.89	   20.52
     97.2092	   29.00	   31.09	 -272.84	   20.52
     97.2427	   37.00	   31.04	 -264.79	   20.52
     97.2761	   29.00	   31.00	 -272.75	   20.52
     97.3095	   35.00	   30.95	 -266.70	   20.52
     97.3429	   24.00	   30.91	 -277.66	   20.51
     97.3763	   31.00	   30.87	 -270.62	   20.51
     97.4098	   41.00	   30.83	 -260.58	   20.51
     97.4432	   26.00	   30.79	 -275.54	   20.51
     97.4766	   25.00	   30.75	 -276.50	   20.51
     97.5100	   33.00	   30.72	 -268.47	   20.50
     97.5434	   21.00	   30.68	 -280.43	   20.50
     97.5769	   33.00	   30.65	 -268.40	   20.50
     97.6103	   19.00	   30.61	 -282.36	   20.50
     97.6437	   25.00	   30.58	 -276.33	   20.50
     97.6771	   25.00	   30.55	 -276.30	   20.49
     97.7106	   31.00	   30.52	 -270.27	   20.49
     97.7440	   25.00	   30.49	 -276.24	   20.49
     97.7774	   31.00	   30.46	 -270.21	   20.49
     97.8108	   24.00	   30.43	 -277.18	   20.49
     97.8443	   23.00	   30.40	 -278.15	   20.49
     97.8777	   26.00	   30.38	 -275.13	   20.48
     97.9111	   33.00	   30.35	 -268.10	   20.48
     97.9445	   35.00	   30.33	 -266.08	   20.48
     97.9779	   32.00	   30.30	 -269.05	   20.48
     98.0114	   32.00	   30.28	 -269.03	   20.48
     98.0448	   32.00	   30.26	 -269.01	   20.47
     98.0782	   35.00	   30.24	 -265.99	   20.47
     98.1116	   29.00	   30.22	 -271.97	   20.47
     98.1451	   23.00	   30.20	 -277.95	   20.47
     98.1785	   27.00	   30.18	 -273.93	   20.47
     98.2119	   34.00	   30.16	 -266.91	   20.46
     98.2453	   23.00	   30.14	 -277.89	   20.46
     98.2787	   34.00	   30.13	 -266.88	   20.46
     98.3122	   30.00	   30.11	 -270.86	   20.46
     98.3456	   35.00	   30.10	 -265.85	   20.46
     98.3790	   36.00	   30.04	 -264.79	   20.46
     98.4124	   25.00	   30.03	 -275.78	   20.45
     98.4459	   39.00	   30.02	 -261.77	   20.45
     98.4793	   29.00	   30.01	 -271.76	   20.45
     98.5127	   27.00	   30.00	 -273.75	   20.45
     98.5461	   39.00	   29.99	 -261.74	   20.45
     98.5796	   26.00	   29.98	 -274.73	   20.44
     98.6130	   27.00	   29.97	 -273.72	   20.44
     98.6464	   25.00	   29.97	 -275.72	   20.44
     98.6798	   37.00	   29.94	 -263.69	   20.44
     98.7132	   30.00	   29.93	 -270.68	   20.44
     98.7467	   31.00	   29.93	 -269.68	   20.43
     98.7801	   18.00	   29.93	 -282.68	   20.43
     98.8135	   39.00	   29.92	 -261.67	   20.43
     98.8469	   24.00	   29.92	 -276.67	   20.43
     98.8804	   23.00	   29.92	 -277.67	   20.43
     98.9138	   39.00	   29.92	 -261.67	   20.43
     98.9472	   19.00	   29.92	 -281.67	   20.42
     98.9806	   30.00	   29.92	 -270.67	   20.42
     99.0140	   30.00	   29.92	 -270.67	   20.42
     99.0475	   35.00	   29.92	 -265.67	   20.42
     99.0809	   27.00	   29.92	 -273.67	   20.42
     99.1143	   36.00	   29.93	 -264.68	   20.41
     99.1477	   24.00	   29.93	 -276.68	   20.41
     99.1812	   27.00	   29.94	 -273.69	   20.41
     99.2146	   29.00	   29.94	 -271.69	   20.41
     99.2480	   23.00	   29.95	 -277.70	   20.41
     99.2814	   32.00	   29.96	 -268.71	   20.41
     99.3148	   33.00	   29.96	 -267.71	   20.40
     99.3483	   31.00	   29.97	 -269.72	   20.40
     99.3817	   34.00	   29.98	 -266.73	   20.40
     99.4151	   23.00	   29.99	 -277.74	   20.40
     99.4485	   34.00	   30.00	 -266.75	   20.40
     99.4820	   26.00	   30.02	 -274.77	   20.39
     99.5154	   30.00	   30.03	 -270.78	   20.39
     99.5488	   35.00	   30.04	 -265.79	   20.39
     99.5822	   34.00	   30.06	 -266.81	   20.39
     99.6156	   50.00	   30.07	 -250.82	   20.39
     99.6491	   20.00	   30.09	 -280.84	   20.38
     99.6825	   26.00	   30.11	 -274.86	   20.38
     99.7159	   34.00	   30.13	 -266.88	   20.38
     99.7493	   30.00	   30.15	 -270.90	   20.38
     99.7828	   39.00	   30.17	 -261.92	   20.38
     99.8162	   30.00	   30.19	 -270.94	   20.38
     99.8496	   19.00	   30.21	 -281.96	   20.37
     99.8830	   27.00	   30.24	 -273.99	   20.37
     99.9165	   45.00	   30.26	 -256.01	   20.37
     99.9499	   40.00	   30.29	 -261.04	   20.37
     99.9833	   25.00	   30.63	 -276.38	   20.37
     18.3613	        	        	        	        	       0	(  1  1  1)	  0  1 :  1
     18.4067	        	        	        	        	       0	(  1  1  1)	  0  2 :  1
     30.1574	        	        	        	        	       0	(  2  2  0)	  0  1 :  1
     30.2331	        	        	        	        	       0	(  2  2  0)	  0  2 :  1
     35.5086	        	        	        	        	       0	(  1  1  3)	  0  1 :  1
     35.5987	        	        	        	        	       0	(  1  1  3)	  0  2 :  1
     37.1403	        	        	        	        	       0	(  2  2  2)	  0  1 :  1
     37.2348	        	        	        	        	       0	(  2  2  2)	  0  2 :  1
     43.1389	        	        	        	        	       0	(  0  0  4)	  0  1 :  1
     43.2502	        	        	        	        	       0	(  0  0  4)	  0  2 :  1
     47.2255	        	        	        	        	       0	(  1  3  3)	  0  1 :  1
     47.3485	        	        	        	        	       0	(  1  3  3)	  0  2 :  1
     53.4995	        	        	        	        	       0	(  4  2  2)	  0  1 :  1
     53.6414	        	        	        	        	       0	(  4  2  2)	  0  2 :  1
     57.0254	        	        	        	        	       0	(  5  1  1)	  0  1 :  1
     57.0254	        	        	        	        	       0	(  3  3  3)	  0  1 :  1
     57.1783	        	        	        	        	       0	(  5  1  1)	  0  2 :  1
     57.1783	        	        	        	        	       0	(  3  3  3)	  0  2 :  1
     62.6122	        	        	        	        	       0	(  4  0  4)	  0  1 :  1
     62.7835	        	        	        	        	       0	(  4  0  4)	  0  2 :  1
     65.8289	        	        	        	        	       0	(  3  5  1)	  0  1 :  1
     66.0112	        	        	        	        	       0	(  3  5  1)	  0  2 :  1
     66.8827	        	        	        	        	       0	(  4  4  2)	  0  1 :  1
     67.0687	        	        	        	        	       0	(  4  4  2)	  0  2 :  1
     71.0206	        	        	        	        	       0	(  0  6  2)	  0  1 :  1
     71.2216	        	        	        	        	       0	(  0  6  2)	  0  2 :  1
     74.0564	        	        	        	        	       0	(  3  5  3)	  0  1 :  1
     74.2689	        	        	        	        	       0	(  3  5  3)	  0  2 :  1
     75.0577	        	        	        	        	       0	(  2  6  2)	  0  1 :  1
     75.2741	        	        	        	        	       0	(  2  6  2)	  0  2 :  1
     79.0196	        	        	        	        	       0	(  4  4  4)	  0  1 :  1
     79.2520	        	        	        	        	       0	(  4  4  4)	  0  2 :  1
     81.9553	        	        	        	        	       0	(  5  1  5)	  0  1 :  1
     81.9553	        	        	        	        	       0	(  7  1  1)	  0  1 :  1
     82.2001	        	        	        	        	       0	(  7  1  1)	  0  2 :  1
     82.2001	        	        	        	        	       0	(  5  1  5)	  0  2 :  1
     86.8046	        	        	        	        	       0	(  4  2  6)	  0  1 :  1
     87.0712	        	        	        	        	       0	(  4  2  6)	  0  2 :  1
     89.7008	        	        	        	        	       0	(  5  5  3)	  0  1 :  1
     89.7008	        	        	        	        	       0	(  7  1  3)	  0  1 :  1
     89.9812	        	        	        	        	       0	(  7  1  3)	  0  2 :  1
     89.9812	        	        	        	        	       0	(  5  5  3)	  0  2 :  1
     94.5294	        	        	        	        	       0	(  0  8  0)	  0  1 :  1
     94.8346	        	        	        	        	       0	(  0  8  0)	  0  2 :  1
     97.4397	        	        	        	        	       0	(  3  7  3)	  0  1 :  1
     97.7609	        	        	        	        	       0	(  3  7  3)	  0  2 :  1
     98.4137	        	        	        	        	       0	(  6  4  4)	  0  1 :  1
     98.7405	        	        	        	        	       0	(  6  4  4)	  0  2 :  1
    102.3371	        	        	        	        	       0	(  2  2  8)	  0  1 :  1
    102.3371	        	        	        	        	       0	(  6  6  0)	  0  1 :  1
    102.6876	        	        	        	        	       0	(  2  2  8)	  0  2 :  1
    102.6876	        	        	        	        	       0	(  6  6  0)	  0  2 :  1
    105.3176	        	        	        	        	       0	(  5  7  1)	  0  1 :  1
    105.3176	        	        	        	        	       0	(  5  5  5)	  0  1 :  1
    105.6874	        	        	        	        	       0	(  5  7  1)	  0  2 :  1
    105.6874	        	        	        	        	       0	(  5  5  5)	  0  2 :  1
    106.3201	        	        	        	        	       0	(  6  2  6)	  0  1 :  1
    106.6968	        	        	        	        	       0	(  6  2  6)	  0  2 :  1
    110.3858	        	        	        	        	       0	(  4  0  8)	  0  1 :  1
    110.7919	        	        	        	        	       0	(  4  0  8)	  0  2 :  1
    113.5057	        	        	        	        	       0	(  3  5  7)	  0  1 :  1
    113.5057	        	        	        	        	       0	(  9  1  1)	  0  1 :  1
    113.9364	        	        	        	        	       0	(  3  5  7)	  0  2 :  1
    113.9364	        	        	        	        	       0	(  9  1  1)	  0  2 :  1
    114.5617	        	        	        	        	       0	(  4  8  2)	  0  1 :  1
    115.0013	        	        	        	        	       0	(  4  8  2)	  0  2 :  1
    118.8817	        	        	        	        	       0	(  6  4  6)	  0  1 :  1
    119.3603	        	        	        	        	       0	(  6  4  6)	  0  2 :  1
    122.2420	        	        	        	        	       0	(  1  9  3)	  0  1 :  1
    122.7546	        	        	        	        	       0	(  1  9  3)	  0  2 :  1
    128.1448	        	        	        	        	       0	(  4  4  8)	  0  1 :  1
    128.7270	        	        	        	        	       0	(  4  4  8)	  0  2 :  1
    131.9237	        	        	        	        	       0	(  5  7  5)	  0  1 :  1
    131.9237	        	        	        	        	       0	(  7  7  1)	  0  1 :  1
    131.9237	        	        	        	        	       0	(  3  3  9)	  0  1 :  1
    132.5589	        	        	        	        	       0	(  5  7  5)	  0  2 :  1
    132.5589	        	        	        	        	       0	(  7  7  1)	  0  2 :  1
    132.5589	        	        	        	        	       0	(  3  3  9)	  0  2 :  1
    138.7888	        	        	        	        	       0	( 10  2  0)	  0  1 :  1
    138.7888	        	        	        	        	       0	(  8  2  6)	  0  1 :  1
    139.5443	        	        	        	        	       0	( 10  2  0)	  0  2 :  1
    139.5443	        	        	        	        	       0	(  8  2  6)	  0  2 :  1
    143.3956	        	        	        	        	       0	(  3  7  7)	  0  1 :  1
    143.3956	        	        	        	        	       0	(  5  9  1)	  0  1 :  1
    144.2566	        	        	        	        	       0	(  3  7  7)	  0  2 :  1
    144.2566	        	        	        	        	       0	(  5  9  1)	  0  2 :  1
    145.0447	        	        	        	        	       0	( 10  2  2)	  0  1 :  1
    145.0447	        	        	        	        	       0	(  6  6  6)	  0  1 :  1
    145.9503	        	        	        	        	       0	( 10  2  2)	  0  2 :  1
    145.9503	        	        	        	        	       0	(  6  6  6)	  0  2 :  1
