 Fe3O4   Chi2:  1.6377  CELL:    8.39468   8.39468   8.39468   90.0000   90.0000   90.0000   SPGR: 227:1                  TEMP:      0.00
  1   2543     1.54060     1.54439     0.00000     0.02449     0.00000    0
    94     0     1
       0.00000      28.00000
 2Theta	Yobs	Ycal	Yobs-Ycal	Backg	Posr	(hkl)	K
     15.0232	 158.000	  58.316	-153.500	  55.179
     15.0566	 145.000	  58.266	-153.500	  55.128
     15.0901	 154.000	  58.216	-153.500	  55.078
     15.1235	 155.000	  58.165	-153.500	  55.028
     15.1569	 157.000	  58.115	-153.500	  54.978
     15.1903	 162.000	  58.065	-153.500	  54.928
     15.2237	 150.000	  58.015	-153.500	  54.877
     15.2572	 158.000	  57.965	-153.500	  54.827
     15.2906	 139.000	  57.915	-153.500	  54.777
     15.3240	 143.000	  57.865	-153.500	  54.727
     15.3574	 144.000	  57.815	-153.500	  54.677
     15.3909	 129.000	  57.765	-153.500	  54.627
     15.4243	 155.000	  57.715	-153.500	  54.577
     15.4577	 146.000	  57.665	-153.500	  54.527
     15.4911	 154.000	  57.615	-153.500	  54.478
     15.5245	 138.000	  57.565	-153.500	  54.428
     15.5580	 136.000	  57.515	-153.500	  54.378
     15.5914	 132.000	  57.466	-153.500	  54.328
     15.6248	 154.000	  57.416	-153.500	  54.278
     15.6582	 149.000	  57.366	-153.500	  54.229
     15.6917	 125.000	  57.316	-153.500	  54.179
     15.7251	 124.000	  57.267	-153.500	  54.129
     15.7585	 153.000	  57.217	-153.500	  54.079
     15.7919	 155.000	  57.167	-153.500	  54.030
     15.8254	 165.000	  57.118	-153.500	  53.980
     15.8588	 124.000	  57.068	-153.500	  53.931
     15.8922	 150.000	  57.019	-153.500	  53.881
     15.9256	 146.000	  56.969	-153.500	  53.832
     15.9590	 141.000	  56.920	-153.500	  53.782
     15.9925	 135.000	  56.870	-153.500	  53.733
     16.0259	 137.000	  56.821	-153.500	  53.683
     16.0593	 136.000	  56.771	-153.500	  53.634
     16.0927	 129.000	  56.722	-153.500	  53.584
     16.1262	 114.000	  56.672	-153.500	  53.535
     16.1596	  96.000	  56.623	-153.500	  53.486
     16.1930	 142.000	  56.574	-153.500	  53.436
     16.2264	 116.000	  56.525	-153.500	  53.387
     16.2598	 115.000	  56.475	-153.500	  53.338
     16.2933	 125.000	  56.426	-153.500	  53.289
     16.3267	 100.000	  56.377	-153.500	  53.239
     16.3601	 117.000	  56.328	-153.500	  53.190
     16.3935	 119.000	  56.279	-153.500	  53.141
     16.4270	 135.000	  56.229	-153.500	  53.092
     16.4604	 109.000	  56.180	-153.500	  53.043
     16.4938	 138.000	  56.131	-153.500	  52.994
     16.5272	 114.000	  56.082	-153.500	  52.945
     16.5606	 128.000	  56.033	-153.500	  52.896
     16.5941	 135.000	  55.984	-153.500	  52.847
     16.6275	 100.000	  55.935	-153.500	  52.798
     16.6609	 121.000	  55.886	-153.500	  52.749
     16.6943	 123.000	  55.837	-153.500	  52.700
     16.7278	 133.000	  55.789	-153.500	  52.651
     16.7612	 115.000	  55.740	-153.500	  52.602
     16.7946	 122.000	  55.691	-153.500	  52.554
     16.8280	 141.000	  55.642	-153.500	  52.505
     16.8615	 118.000	  55.593	-153.500	  52.456
     16.8949	 116.000	  55.545	-153.500	  52.407
     16.9283	 139.000	  55.496	-153.500	  52.359
     16.9617	 122.000	  55.447	-153.500	  52.310
     16.9951	 124.000	  55.399	-153.500	  52.261
     17.0286	 116.000	  55.350	-153.500	  52.213
     17.0620	 125.000	  55.301	-153.500	  52.164
     17.0954	 111.000	  55.253	-153.500	  52.115
     17.1288	 116.000	  55.204	-153.500	  52.067
     17.1623	 117.000	  55.156	-153.500	  52.018
     17.1957	 130.000	  55.107	-153.500	  51.970
     17.2291	 115.000	  55.059	-153.500	  51.921
     17.2625	 138.000	  55.011	-153.500	  51.873
     17.2959	 113.000	  54.962	-153.500	  51.825
     17.3294	 126.000	  54.914	-153.500	  51.776
     17.3628	 117.000	  54.865	-153.500	  51.728
     17.3962	 106.000	  54.817	-153.500	  51.680
     17.4296	 115.000	  54.769	-153.500	  51.631
     17.4631	 128.000	  54.721	-153.500	  51.583
     17.4965	 117.000	  54.672	-153.500	  51.535
     17.5299	  92.000	  54.624	-153.500	  51.487
     17.5633	 110.000	  54.576	-153.500	  51.438
     17.5967	  98.000	  54.528	-153.500	  51.390
     17.6302	 128.000	  54.480	-153.500	  51.342
     17.6636	 133.000	  54.432	-153.500	  51.294
     17.6970	  86.000	  54.384	-153.500	  51.246
     17.7304	 115.000	  54.335	-153.500	  51.198
     17.7639	 106.000	  54.287	-153.500	  51.150
     17.7973	 100.000	  54.239	-153.500	  51.102
     17.8307	  88.000	  54.192	-153.500	  51.054
     17.8641	 122.000	  54.144	-153.500	  51.006
     17.8975	 109.000	  54.096	-153.500	  50.958
     17.9310	 102.000	  54.048	-153.500	  50.910
     17.9644	 105.000	  54.000	-153.500	  50.862
     17.9978	 108.000	  53.952	-153.500	  50.815
     18.0312	  91.000	  53.904	-153.500	  50.767
     18.0647	 116.000	  53.857	-153.500	  50.719
     18.0981	 144.000	  53.809	-153.500	  50.671
     18.1315	 121.000	  53.761	-153.500	  50.624
     18.1649	 111.000	  53.713	-153.500	  50.576
     18.1984	 139.000	  53.666	-153.500	  50.528
     18.2318	 128.000	  53.618	-153.500	  50.481
     18.2652	 131.000	  53.571	-153.500	  50.433
     18.2986	 161.000	  53.523	-153.500	  50.386
     18.3320	 108.000	  53.476	-153.500	  50.338
     18.3655	 133.000	  53.428	-153.500	  50.291
     18.3989	 136.000	  53.380	-153.500	  50.243
     18.4323	 128.000	  53.333	-153.500	  50.196
     18.4657	 113.000	  53.286	-153.500	  50.148
     18.4992	 111.000	  53.238	-153.500	  50.101
     18.5326	 131.000	  53.191	-153.500	  50.053
     18.5660	 130.000	  53.143	-153.500	  50.006
     18.5994	  86.000	  53.096	-153.500	  49.959
     18.6328	  94.000	  53.049	-153.500	  49.911
     18.6663	 108.000	  53.002	-153.500	  49.864
     18.6997	 110.000	  52.954	-153.500	  49.817
     18.7331	 100.000	  52.907	-153.500	  49.770
     18.7665	 102.000	  52.860	-153.500	  49.722
     18.8000	  94.000	  52.813	-153.500	  49.675
     18.8334	 101.000	  52.766	-153.500	  49.628
     18.8668	  94.000	  52.719	-153.500	  49.581
     18.9002	 103.000	  52.672	-153.500	  49.534
     18.9336	  92.000	  52.624	-153.500	  49.487
     18.9671	 101.000	  52.577	-153.500	  49.440
     19.0005	 101.000	  52.530	-153.500	  49.393
     19.0339	 101.000	  52.483	-153.500	  49.346
     19.0673	  83.000	  52.437	-153.500	  49.299
     19.1008	  88.000	  52.390	-153.500	  49.252
     19.1342	  94.000	  52.343	-153.500	  49.205
     19.1676	  85.000	  52.296	-153.500	  49.158
     19.2010	  81.000	  52.249	-153.500	  49.112
     19.2345	 104.000	  52.202	-153.500	  49.065
     19.2679	  88.000	  52.156	-153.500	  49.018
     19.3013	  84.000	  52.109	-153.500	  48.971
     19.3347	  82.000	  52.062	-153.500	  48.925
     19.3681	  65.000	  52.015	-153.500	  48.878
     19.4016	 109.000	  51.969	-153.500	  48.831
     19.4350	  82.000	  51.922	-153.500	  48.785
     19.4684	  78.000	  51.876	-153.500	  48.738
     19.5018	  89.000	  51.829	-153.500	  48.691
     19.5353	  83.000	  51.782	-153.500	  48.645
     19.5687	  95.000	  51.736	-153.500	  48.598
     19.6021	 108.000	  51.689	-153.500	  48.552
     19.6355	 100.000	  51.643	-153.500	  48.505
     19.6689	  90.000	  51.596	-153.500	  48.459
     19.7024	  89.000	  51.550	-153.500	  48.413
     19.7358	  90.000	  51.504	-153.500	  48.366
     19.7692	  94.000	  51.457	-153.500	  48.320
     19.8026	  81.000	  51.411	-153.500	  48.274
     19.8361	 100.000	  51.365	-153.500	  48.227
     19.8695	  82.000	  51.318	-153.500	  48.181
     19.9029	  75.000	  51.272	-153.500	  48.135
     19.9363	  76.000	  51.226	-153.500	  48.088
     19.9697	  81.000	  51.180	-153.500	  48.042
     20.0032	  65.000	  51.134	-153.500	  47.996
     20.0366	  83.000	  51.087	-153.500	  47.950
     20.0700	  74.000	  51.041	-153.500	  47.904
     20.1034	  68.000	  50.995	-153.500	  47.858
     20.1369	  97.000	  50.949	-153.500	  47.812
     20.1703	  69.000	  50.903	-153.500	  47.766
     20.2037	  78.000	  50.857	-153.500	  47.720
     20.2371	  70.000	  50.811	-153.500	  47.674
     20.2705	  72.000	  50.765	-153.500	  47.628
     20.3040	  78.000	  50.719	-153.500	  47.582
     20.3374	  75.000	  50.674	-153.500	  47.536
     20.3708	  76.000	  50.628	-153.500	  47.490
     20.4042	  82.000	  50.582	-153.500	  47.444
     20.4377	  76.000	  50.536	-153.500	  47.399
     20.4711	  65.000	  50.490	-153.500	  47.353
     20.5045	  74.000	  50.444	-153.500	  47.307
     20.5379	  86.000	  50.399	-153.500	  47.261
     20.5714	  73.000	  50.353	-153.500	  47.216
     20.6048	  84.000	  50.307	-153.500	  47.170
     20.6382	  82.000	  50.262	-153.500	  47.124
     20.6716	  78.000	  50.216	-153.500	  47.079
     20.7050	 105.000	  50.171	-153.500	  47.033
     20.7385	  88.000	  50.125	-153.500	  46.988
     20.7719	  76.000	  50.080	-153.500	  46.942
     20.8053	  88.000	  50.034	-153.500	  46.897
     20.8387	  82.000	  49.989	-153.500	  46.851
     20.8722	  72.000	  49.943	-153.500	  46.806
     20.9056	  81.000	  49.898	-153.500	  46.760
     20.9390	  73.000	  49.852	-153.500	  46.715
     20.9724	  88.000	  49.807	-153.500	  46.669
     21.0058	  79.000	  49.762	-153.500	  46.624
     21.0393	  77.000	  49.716	-153.500	  46.579
     21.0727	  76.000	  49.671	-153.500	  46.534
     21.1061	  89.000	  49.626	-153.500	  46.488
     21.1395	  90.000	  49.581	-153.500	  46.443
     21.1730	  78.000	  49.535	-153.500	  46.398
     21.2064	  81.000	  49.490	-153.500	  46.353
     21.2398	  70.000	  49.445	-153.500	  46.308
     21.2732	  79.000	  49.400	-153.500	  46.262
     21.3066	  76.000	  49.355	-153.500	  46.217
     21.3401	  69.000	  49.310	-153.500	  46.172
     21.3735	  72.000	  49.265	-153.500	  46.127
     21.4069	  73.000	  49.220	-153.500	  46.082
     21.4403	  60.000	  49.175	-153.500	  46.037
     21.4738	  77.000	  49.130	-153.500	  45.992
     21.5072	  95.000	  49.085	-153.500	  45.947
     21.5406	  66.000	  49.040	-153.500	  45.903
     21.5740	  71.000	  48.995	-153.500	  45.858
     21.6075	  81.000	  48.950	-153.500	  45.813
     21.6409	  81.000	  48.905	-153.500	  45.768
     21.6743	  84.000	  48.861	-153.500	  45.723
     21.7077	  81.000	  48.816	-153.500	  45.678
     21.7411	  79.000	  48.771	-153.500	  45.634
     21.7746	  64.000	  48.727	-153.500	  45.589
     21.8080	  66.000	  48.682	-153.500	  45.544
     21.8414	  76.000	  48.637	-153.500	  45.500
     21.8748	  87.000	  48.593	-153.500	  45.455
     21.9083	  74.000	  48.548	-153.500	  45.411
     21.9417	  62.000	  48.503	-153.500	  45.366
     21.9751	  69.000	  48.459	-153.500	  45.321
     22.0085	  74.000	  48.414	-153.500	  45.277
     22.0419	  71.000	  48.370	-153.500	  45.232
     22.0754	  69.000	  48.325	-153.500	  45.188
     22.1088	  83.000	  48.281	-153.500	  45.144
     22.1422	  71.000	  48.237	-153.500	  45.099
     22.1756	  76.000	  48.192	-153.500	  45.055
     22.2091	  86.000	  48.148	-153.500	  45.010
     22.2425	  65.000	  48.104	-153.500	  44.966
     22.2759	  82.000	  48.059	-153.500	  44.922
     22.3093	  62.000	  48.015	-153.500	  44.878
     22.3427	  70.000	  47.971	-153.500	  44.833
     22.3762	  85.000	  47.927	-153.500	  44.789
     22.4096	  66.000	  47.882	-153.500	  44.745
     22.4430	  45.000	  47.838	-153.500	  44.701
     22.4764	  72.000	  47.794	-153.500	  44.657
     22.5099	  55.000	  47.750	-153.500	  44.613
     22.5433	  52.000	  47.706	-153.500	  44.569
     22.5767	  61.000	  47.662	-153.500	  44.525
     22.6101	  78.000	  47.618	-153.500	  44.481
     22.6436	  75.000	  47.574	-153.500	  44.437
     22.6770	  75.000	  47.530	-153.500	  44.393
     22.7104	  63.000	  47.486	-153.500	  44.349
     22.7438	  66.000	  47.442	-153.500	  44.305
     22.7772	  65.000	  47.398	-153.500	  44.261
     22.8107	  61.000	  47.355	-153.500	  44.217
     22.8441	  56.000	  47.311	-153.500	  44.173
     22.8775	  73.000	  47.267	-153.500	  44.129
     22.9109	  59.000	  47.223	-153.500	  44.086
     22.9444	  69.000	  47.179	-153.500	  44.042
     22.9778	  59.000	  47.136	-153.500	  43.998
     23.0112	  65.000	  47.092	-153.500	  43.955
     23.0446	  79.000	  47.048	-153.500	  43.911
     23.0780	  61.000	  47.005	-153.500	  43.867
     23.1115	  72.000	  46.961	-153.500	  43.824
     23.1449	  59.000	  46.918	-153.500	  43.780
     23.1783	  61.000	  46.874	-153.500	  43.737
     23.2117	  68.000	  46.831	-153.500	  43.693
     23.2452	  63.000	  46.787	-153.500	  43.650
     23.2786	  60.000	  46.744	-153.500	  43.606
     23.3120	  63.000	  46.700	-153.500	  43.563
     23.3454	  68.000	  46.657	-153.500	  43.519
     23.3788	  70.000	  46.613	-153.500	  43.476
     23.4123	  68.000	  46.570	-153.500	  43.433
     23.4457	  64.000	  46.527	-153.500	  43.389
     23.4791	  72.000	  46.483	-153.500	  43.346
     23.5125	  58.000	  46.440	-153.500	  43.303
     23.5460	  70.000	  46.397	-153.500	  43.259
     23.5794	  63.000	  46.354	-153.500	  43.216
     23.6128	  60.000	  46.311	-153.500	  43.173
     23.6462	  68.000	  46.267	-153.500	  43.130
     23.6796	  71.000	  46.224	-153.500	  43.087
     23.7131	  54.000	  46.181	-153.500	  43.044
     23.7465	  62.000	  46.138	-153.500	  43.001
     23.7799	  58.000	  46.095	-153.500	  42.958
     23.8133	  58.000	  46.052	-153.500	  42.915
     23.8468	  64.000	  46.009	-153.500	  42.872
     23.8802	  74.000	  45.966	-153.500	  42.829
     23.9136	  65.000	  45.923	-153.500	  42.786
     23.9470	  77.000	  45.880	-153.500	  42.743
     23.9805	  61.000	  45.837	-153.500	  42.700
     24.0139	  64.000	  45.795	-153.500	  42.657
     24.0473	  57.000	  45.752	-153.500	  42.614
     24.0807	  50.000	  45.709	-153.500	  42.571
     24.1141	  65.000	  45.666	-153.500	  42.529
     24.1476	  77.000	  45.623	-153.500	  42.486
     24.1810	  68.000	  45.581	-153.500	  42.443
     24.2144	  68.000	  45.538	-153.500	  42.401
     24.2478	  84.000	  45.495	-153.500	  42.358
     24.2813	  69.000	  45.453	-153.500	  42.315
     24.3147	  60.000	  45.410	-153.500	  42.273
     24.3481	  66.000	  45.368	-153.500	  42.230
     24.3815	  65.000	  45.325	-153.500	  42.188
     24.4149	  75.000	  45.283	-153.500	  42.145
     24.4484	  50.000	  45.240	-153.500	  42.103
     24.4818	  60.000	  45.198	-153.500	  42.060
     24.5152	  72.000	  45.155	-153.500	  42.018
     24.5486	  49.000	  45.113	-153.500	  41.975
     24.5821	  51.000	  45.070	-153.500	  41.933
     24.6155	  60.000	  45.028	-153.500	  41.890
     24.6489	  69.000	  44.986	-153.500	  41.848
     24.6823	  50.000	  44.943	-153.500	  41.806
     24.7157	  51.000	  44.901	-153.500	  41.764
     24.7492	  65.000	  44.859	-153.500	  41.721
     24.7826	  64.000	  44.817	-153.500	  41.679
     24.8160	  62.000	  44.774	-153.500	  41.637
     24.8494	  57.000	  44.732	-153.500	  41.595
     24.8829	  59.000	  44.690	-153.500	  41.553
     24.9163	  65.000	  44.648	-153.500	  41.511
     24.9497	  62.000	  44.606	-153.500	  41.468
     24.9831	  77.000	  44.564	-153.500	  41.426
     25.0166	  57.000	  44.522	-153.500	  41.384
     25.0500	  57.000	  44.480	-153.500	  41.342
     25.0834	  64.000	  44.438	-153.500	  41.300
     25.1168	  63.000	  44.396	-153.500	  41.259
     25.1502	  43.000	  44.354	-153.500	  41.217
     25.1837	  74.000	  44.312	-153.500	  41.175
     25.2171	  64.000	  44.270	-153.500	  41.133
     25.2505	  58.000	  44.229	-153.500	  41.091
     25.2839	  68.000	  44.187	-153.500	  41.049
     25.3174	  58.000	  44.145	-153.500	  41.007
     25.3508	  56.000	  44.103	-153.500	  40.966
     25.3842	  55.000	  44.061	-153.500	  40.924
     25.4176	  55.000	  44.020	-153.500	  40.882
     25.4510	  39.000	  43.978	-153.500	  40.841
     25.4845	  46.000	  43.936	-153.500	  40.799
     25.5179	  59.000	  43.895	-153.500	  40.757
     25.5513	  49.000	  43.853	-153.500	  40.716
     25.5847	  61.000	  43.812	-153.500	  40.674
     25.6182	  49.000	  43.770	-153.500	  40.633
     25.6516	  57.000	  43.729	-153.500	  40.591
     25.6850	  44.000	  43.687	-153.500	  40.550
     25.7184	  63.000	  43.646	-153.500	  40.508
     25.7518	  52.000	  43.604	-153.500	  40.467
     25.7853	  45.000	  43.563	-153.500	  40.426
     25.8187	  55.000	  43.522	-153.500	  40.384
     25.8521	  52.000	  43.480	-153.500	  40.343
     25.8855	  49.000	  43.439	-153.500	  40.302
     25.9190	  52.000	  43.398	-153.500	  40.260
     25.9524	  60.000	  43.356	-153.500	  40.219
     25.9858	  64.000	  43.315	-153.500	  40.178
     26.0192	  49.000	  43.274	-153.500	  40.137
     26.0526	  64.000	  43.233	-153.500	  40.095
     26.0861	  59.000	  43.192	-153.500	  40.054
     26.1195	  54.000	  43.151	-153.500	  40.013
     26.1529	  48.000	  43.110	-153.500	  39.972
     26.1863	  50.000	  43.069	-153.500	  39.931
     26.2198	  46.000	  43.027	-153.500	  39.890
     26.2532	  55.000	  42.986	-153.500	  39.849
     26.2866	  65.000	  42.945	-153.500	  39.808
     26.3200	  59.000	  42.905	-153.500	  39.767
     26.3535	  62.000	  42.864	-153.500	  39.726
     26.3869	  52.000	  42.823	-153.500	  39.685
     26.4203	  61.000	  42.782	-153.500	  39.644
     26.4537	  44.000	  42.741	-153.500	  39.604
     26.4871	  54.000	  42.700	-153.500	  39.563
     26.5206	  57.000	  42.659	-153.500	  39.522
     26.5540	  43.000	  42.619	-153.500	  39.481
     26.5874	  52.000	  42.578	-153.500	  39.441
     26.6208	  58.000	  42.537	-153.500	  39.400
     26.6543	  55.000	  42.497	-153.500	  39.359
     26.6877	  48.000	  42.456	-153.500	  39.318
     26.7211	  51.000	  42.415	-153.500	  39.278
     26.7545	  49.000	  42.375	-153.500	  39.237
     26.7879	  49.000	  42.334	-153.500	  39.197
     26.8214	  47.000	  42.294	-153.500	  39.156
     26.8548	  65.000	  42.253	-153.500	  39.116
     26.8882	  61.000	  42.213	-153.500	  39.075
     26.9216	  43.000	  42.172	-153.500	  39.035
     26.9551	  48.000	  42.132	-153.500	  38.994
     26.9885	  52.000	  42.091	-153.500	  38.954
     27.0219	  54.000	  42.051	-153.500	  38.914
     27.0553	  70.000	  42.011	-153.500	  38.873
     27.0887	  44.000	  41.970	-153.500	  38.833
     27.1222	  54.000	  41.930	-153.500	  38.793
     27.1556	  49.000	  41.890	-153.500	  38.752
     27.1890	  48.000	  41.850	-153.500	  38.712
     27.2224	  51.000	  41.809	-153.500	  38.672
     27.2559	  56.000	  41.769	-153.500	  38.632
     27.2893	  56.000	  41.729	-153.500	  38.592
     27.3227	  57.000	  41.689	-153.500	  38.552
     27.3561	  54.000	  41.649	-153.500	  38.511
     27.3895	  62.000	  41.609	-153.500	  38.471
     27.4230	  49.000	  41.569	-153.500	  38.431
     27.4564	  72.000	  41.529	-153.500	  38.391
     27.4898	  56.000	  41.489	-153.500	  38.351
     27.5232	  56.000	  41.449	-153.500	  38.311
     27.5567	  39.000	  41.409	-153.500	  38.271
     27.5901	  58.000	  41.369	-153.500	  38.232
     27.6235	  58.000	  41.329	-153.500	  38.192
     27.6569	  60.000	  41.289	-153.500	  38.152
     27.6904	  61.000	  41.250	-153.500	  38.112
     27.7238	  48.000	  41.210	-153.500	  38.072
     27.7572	  49.000	  41.170	-153.500	  38.033
     27.7906	  52.000	  41.130	-153.500	  37.993
     27.8240	  44.000	  41.091	-153.500	  37.953
     27.8575	  57.000	  41.051	-153.500	  37.913
     27.8909	  55.000	  41.011	-153.500	  37.874
     27.9243	  37.000	  40.972	-153.500	  37.834
     27.9577	  65.000	  40.932	-153.500	  37.795
     27.9912	  49.000	  40.892	-153.500	  37.755
     28.0246	  56.000	  47.434	-144.934	  37.715
     28.0580	  48.000	  47.559	-153.059	  37.676
     28.0914	  39.000	  47.693	-162.193	  37.636
     28.1248	  58.000	  47.834	-143.334	  37.597
     28.1583	  63.000	  47.983	-138.483	  37.558
     28.1917	  59.000	  48.142	-142.642	  37.518
     28.2251	  59.000	  48.310	-142.810	  37.479
     28.2585	  65.000	  48.488	-136.988	  37.439
     28.2920	  59.000	  48.676	-143.176	  37.400
     28.3254	  57.000	  48.877	-145.377	  37.361
     28.3588	  49.000	  49.089	-153.589	  37.322
     28.3922	  56.000	  49.315	-146.815	  37.282
     28.4256	  63.000	  49.555	-140.055	  37.243
     28.4591	  69.000	  49.810	-134.310	  37.204
     28.4925	  69.000	  50.082	-134.582	  37.165
     28.5259	  68.000	  50.371	-135.871	  37.126
     28.5593	  51.000	  50.679	-153.179	  37.087
     28.5928	  59.000	  51.007	-145.507	  37.048
     28.6262	  70.000	  51.358	-134.858	  37.008
     28.6596	  50.000	  51.733	-155.233	  36.969
     28.6930	  51.000	  52.133	-154.633	  36.930
     28.7265	  58.000	  52.562	-148.062	  36.892
     28.7599	  56.000	  53.021	-150.521	  36.853
     28.7933	  47.000	  53.514	-160.014	  36.814
     28.8267	  55.000	  54.044	-152.544	  36.775
     28.8601	  46.000	  54.613	-162.113	  36.736
     28.8936	  61.000	  55.225	-147.725	  36.697
     28.9270	  51.000	  55.886	-158.386	  36.658
     28.9604	  79.000	  56.600	-131.100	  36.620
     28.9938	  61.000	  57.371	-149.871	  36.581
     29.0273	  60.000	  58.207	-151.707	  36.542
     29.0607	  74.000	  59.114	-138.614	  36.503
     29.0941	  77.000	  60.101	-136.601	  36.465
     29.1275	  63.000	  61.175	-151.675	  36.426
     29.1609	  68.000	  62.347	-147.847	  36.388
     29.1944	  73.000	  63.628	-144.128	  36.349
     29.2278	  70.000	  65.033	-148.533	  36.310
     29.2612	  68.000	  66.575	-152.075	  36.272
     29.2946	  64.000	  68.273	-157.773	  36.233
     29.3281	  64.000	  70.144	-159.644	  36.195
     29.3615	  82.000	  72.213	-143.713	  36.157
     29.3949	  81.000	  74.503	-147.003	  36.118
     29.4283	  75.000	  77.044	-155.544	  36.080
     29.4617	  86.000	  79.867	-147.367	  36.041
     29.4952	  81.000	  83.044	-155.544	  36.003
     29.5286	 101.000	  86.545	-139.045	  35.965
     29.5620	  98.000	  90.448	-145.948	  35.927
     29.5954	  87.000	  94.818	-161.318	  35.888
     29.6289	  95.000	  99.671	-158.171	  35.850
     29.6623	 112.000	 105.077	-146.577	  35.812
     29.6957	  99.000	 111.085	-165.585	  35.774
     29.7291	 126.000	 117.738	-145.238	  35.736
     29.7626	 106.000	 125.070	-172.570	  35.697
     29.7960	  89.000	 133.090	-197.590	  35.659
     29.8294	 133.000	 141.773	-162.273	  35.621
     29.8628	 133.000	 151.036	-171.536	  35.583
     29.8962	 140.000	 160.732	-174.232	  35.545
     29.9297	 141.000	 170.617	-183.117	  35.507
     29.9631	 150.000	 180.345	-183.845	  35.469
     29.9965	 171.000	 189.464	-171.964	  35.432
     30.0299	 176.000	 197.449	-174.949	  35.394
     30.0634	 192.000	 203.753	-165.253	  35.356
     30.0968	 221.000	 207.885	-140.385	  35.318
     30.1302	 230.000	 209.496	-132.996	  35.280
     30.1636	 217.000	 208.450	-144.950	  35.242
     30.1970	 200.000	 204.843	-158.343	  35.205
     30.2305	 177.000	 198.992	-175.492	  35.167
     30.2639	 192.000	 191.362	-152.862	  35.129
     30.2973	 180.000	 182.490	-155.990	  35.092
     30.3307	 202.000	 172.901	-124.401	  35.054
     30.3642	 132.000	 163.056	-184.556	  35.016
     30.3976	 136.000	 153.324	-170.824	  34.979
     30.4310	 141.000	 143.970	-156.470	  34.941
     30.4644	 128.000	 135.162	-160.662	  34.904
     30.4978	 114.000	 126.995	-166.495	  34.866
     30.5313	  86.000	 119.508	-187.008	  34.829
     30.5647	  85.000	 112.702	-181.202	  34.791
     30.5981	 110.000	 106.549	-150.049	  34.754
     30.6315	  95.000	 101.008	-159.508	  34.716
     30.6650	  99.000	  96.031	-150.531	  34.679
     30.6984	  97.000	  91.567	-148.067	  34.642
     30.7318	  79.000	  87.565	-162.065	  34.604
     30.7652	  71.000	  83.977	-166.477	  34.567
     30.7986	  75.000	  80.758	-159.258	  34.530
     30.8321	  65.000	  77.868	-166.368	  34.493
     30.8655	  91.000	  75.270	-137.770	  34.456
     30.8989	  64.000	  72.930	-162.430	  34.418
     30.9323	  79.000	  70.821	-145.321	  34.381
     30.9658	  62.000	  68.914	-160.414	  34.344
     30.9992	  69.000	  67.189	-151.689	  34.307
     31.0326	  61.000	  65.624	-158.124	  34.270
     31.0660	  76.000	  64.203	-141.703	  34.233
     31.0995	  65.000	  62.908	-151.408	  34.196
     31.1329	  73.000	  61.728	-142.228	  34.159
     31.1663	  70.000	  60.650	-144.150	  34.122
     31.1997	  71.000	  59.663	-142.163	  34.085
     31.2331	  68.000	  58.759	-144.259	  34.048
     31.2666	  65.000	  57.930	-146.430	  34.011
     31.3000	  66.000	  57.167	-144.667	  33.975
     31.3334	  70.000	  56.466	-139.966	  33.938
     31.3668	  56.000	  55.820	-153.320	  33.901
     31.4003	  56.000	  55.226	-152.726	  33.864
     31.4337	  61.000	  54.677	-147.177	  33.827
     31.4671	  59.000	  54.171	-148.671	  33.791
     31.5005	  54.000	  53.705	-153.205	  33.754
     31.5339	  63.000	  53.274	-143.774	  33.718
     31.5674	  55.000	  52.877	-151.377	  33.681
     31.6008	  52.000	  52.510	-154.010	  33.644
     31.6342	  56.000	  52.173	-149.673	  33.608
     31.6676	  65.000	  51.862	-140.362	  33.571
     31.7011	  50.000	  51.576	-155.076	  33.535
     31.7345	  51.000	  51.313	-153.813	  33.498
     31.7679	  47.000	  51.072	-157.572	  33.462
     31.8013	  59.000	  50.852	-145.352	  33.425
     31.8347	  51.000	  50.651	-153.151	  33.389
     31.8682	  51.000	  50.469	-152.969	  33.353
     31.9016	  62.000	  50.304	-141.804	  33.316
     31.9350	  60.000	  50.156	-143.656	  33.280
     31.9684	  52.000	  50.023	-151.523	  33.244
     32.0019	  64.000	  49.906	-139.406	  33.207
     32.0353	  66.000	  49.803	-137.303	  33.171
     32.0687	  56.000	  49.714	-147.214	  33.135
     32.1021	  51.000	  49.639	-152.139	  33.099
     32.1356	  39.000	  49.577	-164.077	  33.063
     32.1690	  44.000	  49.527	-159.027	  33.027
     32.2024	  51.000	  49.490	-151.990	  32.990
     32.2358	  51.000	  49.465	-151.965	  32.954
     32.2692	  57.000	  49.451	-145.951	  32.918
     32.3027	  55.000	  49.450	-147.950	  32.882
     32.3361	  39.000	  49.460	-163.960	  32.846
     32.3695	  50.000	  49.481	-152.981	  32.810
     32.4029	  72.000	  49.513	-131.013	  32.775
     32.4364	  48.000	  49.557	-155.057	  32.739
     32.4698	  62.000	  49.612	-141.112	  32.703
     32.5032	  58.000	  49.678	-145.178	  32.667
     32.5366	  62.000	  49.755	-141.255	  32.631
     32.5700	  68.000	  49.844	-135.344	  32.595
     32.6035	  61.000	  49.944	-142.444	  32.560
     32.6369	  56.000	  50.056	-147.556	  32.524
     32.6703	  57.000	  50.179	-146.679	  32.488
     32.7037	  66.000	  50.315	-137.815	  32.452
     32.7372	  57.000	  50.462	-146.962	  32.417
     32.7706	  58.000	  50.623	-146.123	  32.381
     32.8040	  64.000	  50.838	-140.338	  32.346
     32.8374	  52.000	  51.025	-152.525	  32.310
     32.8708	  70.000	  51.224	-134.724	  32.275
     32.9043	  62.000	  51.459	-142.959	  32.239
     32.9377	  71.000	  51.688	-134.188	  32.204
     32.9711	  72.000	  51.931	-133.431	  32.168
     33.0045	  59.000	  52.189	-146.689	  32.133
     33.0380	  73.000	  52.464	-132.964	  32.097
     33.0714	  64.000	  52.739	-142.239	  32.062
     33.1048	  81.000	  53.048	-125.548	  32.027
     33.1382	  61.000	  53.367	-145.867	  31.991
     33.1716	  65.000	  53.713	-142.213	  31.956
     33.2051	  73.000	  54.079	-134.579	  31.921
     33.2385	  62.000	  54.466	-145.966	  31.885
     33.2719	  78.000	  54.875	-130.375	  31.850
     33.3053	  76.000	  55.307	-132.807	  31.815
     33.3388	  62.000	  55.763	-147.263	  31.780
     33.3722	  71.000	  56.245	-138.745	  31.745
     33.4056	  71.000	  56.753	-139.253	  31.710
     33.4390	  66.000	  57.291	-144.791	  31.675
     33.4725	  73.000	  57.858	-138.358	  31.640
     33.5059	  69.000	  58.458	-142.958	  31.605
     33.5393	  74.000	  59.091	-138.591	  31.570
     33.5727	  70.000	  59.760	-143.260	  31.535
     33.6061	  60.000	  60.468	-153.968	  31.500
     33.6396	  81.000	  61.216	-133.716	  31.465
     33.6730	  63.000	  62.008	-152.508	  31.430
     33.7064	  95.000	  62.846	-121.346	  31.395
     33.7398	  90.000	  63.734	-127.234	  31.360
     33.7733	  77.000	  64.675	-141.175	  31.325
     33.8067	  69.000	  65.672	-150.172	  31.291
     33.8401	  85.000	  66.731	-135.231	  31.256
     33.8735	  71.000	  67.855	-150.355	  31.221
     33.9069	  73.000	  69.049	-149.549	  31.187
     33.9404	  92.000	  70.320	-131.820	  31.152
     33.9738	  81.000	  71.672	-144.172	  31.117
     34.0072	  96.000	  73.113	-130.613	  31.083
     34.0406	  88.000	  74.649	-140.149	  31.048
     34.0741	  81.000	  76.289	-148.789	  31.014
     34.1075	 102.000	  78.042	-129.542	  30.979
     34.1409	  88.000	  79.917	-145.417	  30.945
     34.1743	  95.000	  81.926	-140.426	  30.910
     34.2077	  89.000	  84.080	-148.580	  30.876
     34.2412	  92.000	  86.393	-147.893	  30.841
     34.2746	 101.000	  88.881	-141.381	  30.807
     34.3080	 100.000	  91.559	-145.059	  30.773
     34.3414	 114.000	  94.448	-133.948	  30.738
     34.3749	 114.000	  97.569	-137.069	  30.704
     34.4083	 118.000	 100.944	-136.444	  30.670
     34.4417	 110.000	 104.603	-148.103	  30.635
     34.4751	 116.000	 108.576	-146.076	  30.601
     34.5085	 102.000	 112.894	-164.394	  30.567
     34.5420	 139.000	 117.601	-132.101	  30.533
     34.5754	 146.000	 122.736	-130.236	  30.499
     34.6088	 113.000	 128.351	-168.851	  30.465
     34.6422	 151.000	 134.502	-137.002	  30.431
     34.6757	 129.000	 141.246	-165.746	  30.397
     34.7091	 150.000	 148.660	-152.160	  30.362
     34.7425	 154.000	 156.816	-156.316	  30.328
     34.7759	 167.000	 165.802	-152.302	  30.295
     34.8094	 162.000	 175.716	-167.216	  30.261
     34.8428	 212.000	 186.658	-128.158	  30.227
     34.8762	 181.000	 198.746	-171.246	  30.193
     34.9096	 232.000	 212.102	-133.602	  30.159
     34.9430	 198.000	 226.847	-182.347	  30.125
     34.9765	 245.000	 243.121	-151.621	  30.091
     35.0099	 232.000	 261.037	-182.537	  30.058
     35.0433	 258.000	 280.712	-176.212	  30.024
     35.0767	 285.000	 302.228	-170.728	  29.990
     35.1102	 275.000	 325.612	-204.112	  29.956
     35.1436	 329.000	 350.830	-175.330	  29.923
     35.1770	 327.000	 377.731	-204.231	  29.889
     35.2104	 364.000	 406.002	-195.502	  29.856
     35.2438	 414.000	 435.170	-174.670	  29.822
     35.2773	 392.000	 464.496	-225.996	  29.788
     35.3107	 452.000	 493.032	-194.532	  29.755
     35.3441	 487.000	 519.600	-186.100	  29.721
     35.3775	 539.000	 542.868	-157.368	  29.688
     35.4110	 542.000	 561.489	-172.989	  29.654
     35.4444	 572.000	 574.261	-155.761	  29.621
     35.4778	 566.000	 580.289	-167.789	  29.588
     35.5112	 610.000	 579.159	-122.659	  29.554
     35.5447	 614.000	 570.978	-110.478	  29.521
     35.5781	 613.000	 556.356	 -96.856	  29.488
     35.6115	 527.000	 536.310	-162.810	  29.454
     35.6449	 491.000	 512.105	-174.605	  29.421
     35.6783	 470.000	 485.057	-168.557	  29.388
     35.7118	 460.000	 456.447	-149.947	  29.355
     35.7452	 413.000	 427.357	-167.857	  29.322
     35.7786	 371.000	 398.658	-181.158	  29.288
     35.8120	 329.000	 370.999	-195.499	  29.255
     35.8455	 302.000	 344.806	-196.306	  29.222
     35.8789	 304.000	 320.332	-169.832	  29.189
     35.9123	 267.000	 297.711	-184.211	  29.156
     35.9457	 262.000	 276.951	-168.451	  29.123
     35.9791	 246.000	 258.020	-165.520	  29.090
     36.0126	 224.000	 240.825	-170.325	  29.057
     36.0460	 206.000	 225.255	-172.755	  29.024
     36.0794	 177.000	 211.191	-187.691	  28.991
     36.1128	 194.000	 198.505	-158.005	  28.959
     36.1463	 152.000	 187.072	-188.572	  28.926
     36.1797	 140.000	 176.785	-190.285	  28.893
     36.2131	 153.000	 167.527	-168.027	  28.860
     36.2465	 133.000	 159.207	-179.707	  28.827
     36.2799	 150.000	 151.735	-155.235	  28.795
     36.3134	 118.000	 145.031	-180.531	  28.762
     36.3468	 128.000	 139.027	-164.527	  28.729
     36.3802	 113.000	 133.661	-174.161	  28.697
     36.4136	 117.000	 128.879	-165.379	  28.664
     36.4471	 115.000	 124.636	-163.136	  28.632
     36.4805	 123.000	 120.893	-151.393	  28.599
     36.5139	 136.000	 117.616	-135.116	  28.566
     36.5473	 104.000	 114.777	-164.277	  28.534
     36.5807	  99.000	 112.351	-166.851	  28.501
     36.6142	 101.000	 110.321	-162.821	  28.469
     36.6476	 103.000	 108.666	-159.166	  28.437
     36.6810	 100.000	 107.372	-160.872	  28.404
     36.7144	  97.000	 106.423	-162.923	  28.372
     36.7479	  98.000	 105.800	-161.300	  28.340
     36.7813	 111.000	 105.480	-147.980	  28.307
     36.8147	 108.000	 105.434	-150.934	  28.275
     36.8481	  98.000	 105.620	-161.120	  28.243
     36.8815	  91.000	 105.985	-168.485	  28.210
     36.9150	 113.000	 106.458	-146.958	  28.178
     36.9484	 105.000	 106.955	-155.455	  28.146
     36.9818	 102.000	 107.376	-158.876	  28.114
     37.0152	 104.000	 107.614	-157.114	  28.082
     37.0487	  98.000	 107.564	-163.064	  28.050
     37.0821	 102.000	 107.134	-158.634	  28.018
     37.1155	 109.000	 106.261	-150.761	  27.986
     37.1489	 119.000	 104.913	-139.413	  27.954
     37.1824	  84.000	 103.098	-172.598	  27.922
     37.2158	  78.000	 100.862	-176.362	  27.890
     37.2492	  92.000	  98.276	-159.776	  27.858
     37.2826	  89.000	  95.430	-159.930	  27.826
     37.3160	  81.000	  92.418	-164.918	  27.794
     37.3495	  83.000	  89.329	-159.829	  27.762
     37.3829	  77.000	  86.243	-162.743	  27.730
     37.4163	  52.000	  83.219	-184.719	  27.699
     37.4497	  71.000	  80.310	-162.810	  27.667
     37.4832	  63.000	  77.538	-168.038	  27.635
     37.5166	  61.000	  74.925	-167.425	  27.603
     37.5500	  52.000	  72.482	-173.982	  27.572
     37.5834	  54.000	  70.206	-169.706	  27.540
     37.6168	  55.000	  68.094	-166.594	  27.508
     37.6503	  63.000	  66.139	-156.639	  27.477
     37.6837	  58.000	  64.331	-159.831	  27.445
     37.7171	  63.000	  62.662	-153.162	  27.414
     37.7505	  60.000	  61.118	-154.618	  27.382
     37.7840	  47.000	  59.691	-166.191	  27.351
     37.8174	  62.000	  58.370	-149.870	  27.319
     37.8508	  58.000	  57.145	-152.645	  27.288
     37.8842	  50.000	  56.009	-159.509	  27.257
     37.9176	  41.000	  54.952	-167.452	  27.225
     37.9511	  44.000	  53.969	-163.469	  27.194
     37.9845	  35.000	  53.051	-171.551	  27.163
     38.0179	  48.000	  52.193	-157.693	  27.131
     38.0513	  46.000	  51.391	-158.891	  27.100
     38.0848	  62.000	  50.638	-142.138	  27.069
     38.1182	  47.000	  49.931	-156.431	  27.038
     38.1516	  45.000	  49.265	-157.765	  27.006
     38.1850	  35.000	  48.638	-167.138	  26.975
     38.2185	  47.000	  48.045	-154.545	  26.944
     38.2519	  39.000	  47.485	-161.985	  26.913
     38.2853	  52.000	  46.955	-148.455	  26.882
     38.3187	  39.000	  46.451	-160.951	  26.851
     38.3521	  50.000	  45.974	-149.474	  26.820
     38.3856	  50.000	  45.519	-149.019	  26.789
     38.4190	  52.000	  45.087	-146.587	  26.758
     38.4524	  55.000	  44.674	-143.174	  26.727
     38.4858	  39.000	  44.281	-158.781	  26.696
     38.5193	  36.000	  43.905	-161.405	  26.665
     38.5527	  41.000	  43.546	-156.046	  26.634
     38.5861	  45.000	  43.202	-151.702	  26.604
     38.6195	  35.000	  42.873	-161.373	  26.573
     38.6529	  50.000	  42.557	-146.057	  26.542
     38.6864	  35.000	  42.254	-160.754	  26.511
     38.7198	  36.000	  41.964	-159.464	  26.481
     38.7532	  24.000	  41.685	-171.185	  26.450
     38.7866	  38.000	  41.416	-156.916	  26.419
     38.8201	  32.000	  41.158	-162.658	  26.389
     38.8535	  39.000	  40.910	-155.410	  26.358
     38.8869	  42.000	  40.671	-152.171	  26.327
     38.9203	  39.000	  40.440	-154.940	  26.297
     38.9537	  29.000	  40.218	-164.718	  26.266
     38.9872	  36.000	  40.004	-157.504	  26.236
     39.0206	  24.000	  39.805	-169.305	  26.205
     39.0540	  34.000	  39.606	-159.106	  26.175
     39.0874	  27.000	  39.414	-165.914	  26.145
     39.1209	  33.000	  39.232	-159.732	  26.114
     39.1543	  30.000	  39.053	-162.553	  26.084
     39.1877	  34.000	  38.880	-158.380	  26.054
     39.2211	  28.000	  38.713	-164.213	  26.023
     39.2546	  32.000	  38.551	-160.051	  25.993
     39.2880	  32.000	  38.395	-159.895	  25.963
     39.3214	  34.000	  38.244	-157.744	  25.933
     39.3548	  33.000	  38.099	-158.599	  25.902
     39.3882	  28.000	  37.958	-163.458	  25.872
     39.4217	  36.000	  37.822	-155.322	  25.842
     39.4551	  33.000	  37.690	-158.190	  25.812
     39.4885	  32.000	  37.563	-159.064	  25.782
     39.5219	  30.000	  37.445	-160.945	  25.752
     39.5554	  35.000	  37.326	-155.826	  25.722
     39.5888	  29.000	  37.212	-161.712	  25.692
     39.6222	  22.000	  37.104	-168.604	  25.662
     39.6556	  28.000	  36.998	-162.498	  25.632
     39.6890	  22.000	  36.896	-168.396	  25.602
     39.7225	  25.000	  36.797	-165.297	  25.572
     39.7559	  23.000	  36.702	-167.202	  25.542
     39.7893	  38.000	  36.611	-152.111	  25.513
     39.8227	  30.000	  36.524	-160.024	  25.483
     39.8562	  34.000	  36.440	-155.940	  25.453
     39.8896	  32.000	  36.359	-157.859	  25.423
     39.9230	  27.000	  36.283	-162.783	  25.394
     39.9564	  23.000	  36.209	-166.709	  25.364
     39.9898	  29.000	  36.139	-160.639	  25.334
     40.0233	  31.000	  36.073	-158.573	  25.305
     40.0567	  27.000	  36.009	-162.509	  25.275
     40.0901	  23.000	  35.950	-166.450	  25.245
     40.1235	  46.000	  35.893	-143.393	  25.216
     40.1570	  45.000	  35.840	-144.340	  25.186
     40.1904	  35.000	  35.790	-154.290	  25.157
     40.2238	  41.000	  35.744	-148.244	  25.127
     40.2572	  24.000	  35.701	-165.201	  25.098
     40.2906	  34.000	  35.662	-155.162	  25.068
     40.3241	  27.000	  35.626	-162.126	  25.039
     40.3575	  23.000	  35.594	-166.094	  25.010
     40.3909	  42.000	  35.566	-147.066	  24.980
     40.4243	  31.000	  35.541	-158.041	  24.951
     40.4578	  34.000	  35.520	-155.020	  24.922
     40.4912	  33.000	  35.502	-156.002	  24.893
     40.5246	  41.000	  35.489	-147.989	  24.863
     40.5580	  39.000	  35.479	-149.979	  24.834
     40.5915	  30.000	  35.474	-158.974	  24.805
     40.6249	  34.000	  35.473	-154.973	  24.776
     40.6583	  37.000	  35.476	-151.976	  24.747
     40.6917	  38.000	  35.484	-150.984	  24.718
     40.7251	  33.000	  35.496	-155.996	  24.689
     40.7586	  37.000	  35.513	-152.013	  24.660
     40.7920	  31.000	  35.535	-158.035	  24.631
     40.8254	  46.000	  35.563	-143.063	  24.602
     40.8588	  37.000	  35.595	-152.095	  24.573
     40.8923	  29.000	  35.633	-160.133	  24.544
     40.9257	  44.000	  35.677	-145.177	  24.515
     40.9591	  34.000	  35.727	-155.227	  24.486
     40.9925	  42.000	  35.783	-147.283	  24.457
     41.0259	  33.000	  35.846	-156.346	  24.428
     41.0594	  33.000	  35.916	-156.416	  24.400
     41.0928	  34.000	  35.993	-155.493	  24.371
     41.1262	  41.000	  36.078	-148.578	  24.342
     41.1596	  38.000	  36.171	-151.671	  24.314
     41.1931	  33.000	  36.273	-156.773	  24.285
     41.2265	  30.000	  36.383	-159.883	  24.256
     41.2599	  39.000	  36.504	-151.004	  24.228
     41.2933	  33.000	  36.634	-157.134	  24.199
     41.3267	  30.000	  36.775	-160.275	  24.170
     41.3602	  41.000	  36.928	-149.428	  24.142
     41.3936	  28.000	  37.093	-162.593	  24.113
     41.4270	  44.000	  37.273	-146.773	  24.085
     41.4604	  35.000	  37.465	-155.965	  24.057
     41.4939	  34.000	  37.672	-157.172	  24.028
     41.5273	  29.000	  37.895	-162.395	  24.000
     41.5607	  39.000	  38.135	-152.635	  23.971
     41.5941	  35.000	  38.393	-156.893	  23.943
     41.6276	  48.000	  38.671	-144.171	  23.915
     41.6610	  44.000	  38.970	-148.470	  23.886
     41.6944	  36.000	  39.292	-156.792	  23.858
     41.7278	  49.000	  39.639	-144.139	  23.830
     41.7612	  49.000	  40.013	-144.513	  23.802
     41.7947	  32.000	  40.416	-161.916	  23.774
     41.8281	  28.000	  40.851	-166.351	  23.745
     41.8615	  50.000	  41.320	-144.820	  23.717
     41.8949	  42.000	  41.826	-153.326	  23.689
     41.9284	  41.000	  42.373	-154.873	  23.661
     41.9618	  51.000	  42.965	-145.465	  23.633
     41.9952	  42.000	  43.606	-155.106	  23.605
     42.0286	  50.000	  44.301	-147.801	  23.577
     42.0620	  35.000	  45.055	-163.555	  23.549
     42.0955	  37.000	  45.873	-162.373	  23.521
     42.1289	  51.000	  46.762	-149.262	  23.493
     42.1623	  48.000	  47.730	-153.230	  23.466
     42.1957	  36.000	  48.785	-166.285	  23.438
     42.2292	  46.000	  49.934	-157.434	  23.410
     42.2626	  30.000	  51.188	-174.688	  23.382
     42.2960	  57.000	  52.558	-149.058	  23.354
     42.3294	  81.000	  54.055	-126.555	  23.327
     42.3628	  45.000	  55.693	-164.193	  23.299
     42.3963	  59.000	  57.484	-151.984	  23.271
     42.4297	  50.000	  59.445	-162.945	  23.244
     42.4631	  62.000	  61.591	-153.091	  23.216
     42.4965	  69.000	  63.939	-148.439	  23.188
     42.5300	  63.000	  66.506	-157.006	  23.161
     42.5634	  74.000	  69.308	-148.808	  23.133
     42.5968	  76.000	  72.362	-149.862	  23.106
     42.6302	  64.000	  75.681	-165.181	  23.078
     42.6637	  86.000	  79.273	-146.773	  23.051
     42.6971	  97.000	  83.143	-139.643	  23.023
     42.7305	  97.000	  87.285	-143.785	  22.996
     42.7639	 109.000	  91.679	-136.179	  22.969
     42.7973	 126.000	  96.291	-123.791	  22.941
     42.8308	 108.000	 101.061	-146.561	  22.914
     42.8642	 125.000	 105.910	-134.410	  22.887
     42.8976	 156.000	 110.728	-108.228	  22.860
     42.9310	 127.000	 115.376	-141.876	  22.832
     42.9645	 126.000	 119.695	-147.195	  22.805
     42.9979	 156.000	 123.515	-121.015	  22.778
     43.0313	 149.000	 126.649	-131.149	  22.751
     43.0647	 156.000	 128.946	-126.446	  22.724
     43.0981	 131.000	 130.278	-152.778	  22.697
     43.1316	 154.000	 130.571	-130.071	  22.670
     43.1650	 136.000	 129.809	-147.309	  22.642
     43.1984	 163.000	 128.037	-118.537	  22.615
     43.2318	 150.000	 125.353	-128.853	  22.588
     43.2653	 130.000	 121.897	-145.397	  22.562
     43.2987	 123.000	 117.832	-148.332	  22.535
     43.3321	 127.000	 113.332	-139.832	  22.508
     43.3655	 130.000	 108.564	-132.064	  22.481
     43.3989	 124.000	 103.674	-133.174	  22.454
     43.4324	  95.000	  98.788	-157.288	  22.427
     43.4658	 110.000	  94.013	-137.513	  22.400
     43.4992	 106.000	  89.404	-136.904	  22.374
     43.5326	  78.000	  85.022	-160.522	  22.347
     43.5661	  84.000	  80.895	-150.395	  22.320
     43.5995	  86.000	  77.038	-144.538	  22.293
     43.6329	  78.000	  73.456	-148.956	  22.267
     43.6663	  90.000	  70.143	-133.643	  22.240
     43.6997	  68.000	  67.089	-152.589	  22.214
     43.7332	  64.000	  64.281	-153.781	  22.187
     43.7666	  62.000	  61.701	-153.201	  22.161
     43.8000	  58.000	  59.336	-154.836	  22.134
     43.8334	  50.000	  57.166	-160.666	  22.108
     43.8669	  49.000	  55.176	-159.676	  22.081
     43.9003	  46.000	  53.350	-160.850	  22.055
     43.9337	  35.000	  51.674	-170.174	  22.028
     43.9671	  49.000	  50.134	-154.634	  22.002
     44.0005	  48.000	  48.718	-154.218	  21.976
     44.0340	  52.000	  47.413	-148.913	  21.949
     44.0674	  38.000	  46.211	-161.711	  21.923
     44.1008	  51.000	  45.101	-147.600	  21.897
     44.1342	  42.000	  44.074	-155.574	  21.870
     44.1677	  42.000	  43.123	-154.623	  21.844
     44.2011	  44.000	  42.241	-151.741	  21.818
     44.2345	  38.000	  41.422	-156.922	  21.792
     44.2679	  36.000	  40.660	-158.160	  21.766
     44.3014	  33.000	  39.950	-160.450	  21.740
     44.3348	  43.000	  39.288	-149.788	  21.714
     44.3682	  47.000	  38.669	-145.169	  21.688
     44.4016	  43.000	  38.089	-148.589	  21.662
     44.4350	  43.000	  37.546	-148.046	  21.636
     44.4685	  37.000	  37.036	-153.536	  21.610
     44.5019	  31.000	  36.557	-159.057	  21.584
     44.5353	  44.000	  36.105	-145.605	  21.558
     44.5687	  36.000	  35.680	-153.180	  21.532
     44.6022	  30.000	  35.279	-158.779	  21.506
     44.6356	  31.000	  34.900	-157.400	  21.480
     44.6690	  31.000	  34.541	-157.041	  21.454
     44.7024	  38.000	  34.201	-149.701	  21.429
     44.7358	  35.000	  33.882	-152.382	  21.403
     44.7693	  28.000	  33.576	-159.076	  21.377
     44.8027	  27.000	  33.286	-159.786	  21.351
     44.8361	  45.000	  33.011	-141.511	  21.326
     44.8695	  27.000	  32.748	-159.248	  21.300
     44.9030	  18.000	  32.497	-167.997	  21.275
     44.9364	  27.000	  32.258	-158.758	  21.249
     44.9698	  31.000	  32.030	-154.530	  21.223
     45.0032	  27.000	  31.812	-158.312	  21.198
     45.0367	  24.000	  31.604	-161.104	  21.172
     45.0701	  24.000	  31.405	-160.905	  21.147
     45.1035	  23.000	  31.214	-161.714	  21.122
     45.1369	  33.000	  31.031	-151.531	  21.096
     45.1703	  31.000	  30.855	-153.355	  21.071
     45.2038	  28.000	  30.687	-156.187	  21.045
     45.2372	  25.000	  30.525	-159.025	  21.020
     45.2706	  22.000	  30.370	-161.870	  20.995
     45.3040	  31.000	  30.221	-152.721	  20.970
     45.3375	  43.000	  30.077	-140.577	  20.944
     45.3709	  34.000	  29.939	-149.439	  20.919
     45.4043	  29.000	  29.807	-154.307	  20.894
     45.4377	  35.000	  29.679	-148.179	  20.869
     45.4711	  18.000	  29.556	-165.056	  20.844
     45.5046	  25.000	  29.437	-157.937	  20.818
     45.5380	  27.000	  29.323	-155.823	  20.793
     45.5714	  37.000	  29.213	-145.713	  20.768
     45.6048	  29.000	  29.107	-153.607	  20.743
     45.6383	  31.000	  29.005	-151.505	  20.718
     45.6717	  18.000	  28.906	-164.406	  20.693
     45.7051	  16.000	  28.812	-166.312	  20.668
     45.7385	  23.000	  28.720	-159.220	  20.644
     45.7719	  27.000	  28.633	-155.133	  20.619
     45.8054	  23.000	  28.559	-159.059	  20.594
     45.8388	  23.000	  28.478	-158.978	  20.569
     45.8722	  27.000	  28.400	-154.900	  20.544
     45.9056	  22.000	  28.330	-159.830	  20.519
     45.9391	  30.000	  28.259	-151.759	  20.495
     45.9725	  23.000	  28.190	-158.690	  20.470
     46.0059	  22.000	  28.125	-159.625	  20.445
     46.0393	  15.000	  28.063	-166.563	  20.421
     46.0728	  24.000	  28.005	-157.505	  20.396
     46.1062	  22.000	  27.949	-159.449	  20.371
     46.1396	  37.000	  27.897	-144.397	  20.347
     46.1730	  28.000	  27.848	-153.348	  20.322
     46.2064	  27.000	  27.803	-154.303	  20.298
     46.2399	  31.000	  27.761	-150.261	  20.273
     46.2733	  25.000	  27.723	-156.223	  20.249
     46.3067	  28.000	  27.689	-153.189	  20.224
     46.3401	  17.000	  27.659	-164.159	  20.200
     46.3736	  25.000	  27.634	-156.134	  20.175
     46.4070	  25.000	  27.613	-156.113	  20.151
     46.4404	  23.000	  27.596	-158.096	  20.127
     46.4738	  19.000	  27.585	-162.085	  20.102
     46.5072	  24.000	  27.579	-157.079	  20.078
     46.5407	  25.000	  27.579	-156.079	  20.054
     46.5741	  27.000	  27.585	-154.085	  20.030
     46.6075	  34.000	  27.597	-147.097	  20.006
     46.6409	  31.000	  27.616	-150.116	  19.981
     46.6744	  22.000	  27.642	-159.142	  19.957
     46.7078	  19.000	  27.675	-162.175	  19.933
     46.7412	  27.000	  27.715	-154.215	  19.909
     46.7746	  34.000	  27.763	-147.263	  19.885
     46.8080	  17.000	  27.817	-164.317	  19.861
     46.8415	  23.000	  27.880	-158.380	  19.837
     46.8749	  25.000	  27.946	-156.446	  19.813
     46.9083	  24.000	  28.016	-157.516	  19.789
     46.9417	  24.000	  28.088	-157.588	  19.765
     46.9752	  21.000	  28.160	-160.660	  19.741
     47.0086	  29.000	  28.229	-152.729	  19.717
     47.0420	  27.000	  28.291	-154.791	  19.693
     47.0754	  30.000	  28.346	-151.846	  19.670
     47.1088	  20.000	  28.382	-161.882	  19.646
     47.1423	  33.000	  28.401	-148.901	  19.622
     47.1757	  31.000	  28.399	-150.899	  19.598
     47.2091	  27.000	  28.375	-154.875	  19.575
     47.2425	  23.000	  28.327	-158.827	  19.551
     47.2760	  29.000	  28.256	-152.756	  19.527
     47.3094	  23.000	  28.163	-158.663	  19.504
     47.3428	  18.000	  28.056	-163.556	  19.480
     47.3762	  27.000	  27.929	-154.429	  19.457
     47.4097	  22.000	  27.790	-159.290	  19.433
     47.4431	  21.000	  27.644	-160.144	  19.410
     47.4765	  30.000	  27.492	-150.992	  19.386
     47.5099	  18.000	  27.338	-162.838	  19.363
     47.5433	  23.000	  27.185	-157.685	  19.339
     47.5768	  32.000	  27.035	-148.535	  19.316
     47.6102	  35.000	  26.889	-145.389	  19.293
     47.6436	  19.000	  26.749	-161.249	  19.269
     47.6770	  23.000	  26.615	-157.115	  19.246
     47.7105	  29.000	  26.487	-150.987	  19.223
     47.7439	  22.000	  26.366	-157.866	  19.199
     47.7773	  27.000	  26.252	-152.752	  19.176
     47.8107	  25.000	  26.145	-154.645	  19.153
     47.8441	  29.000	  26.043	-150.543	  19.130
     47.8776	  23.000	  25.948	-156.448	  19.107
     47.9110	  24.000	  25.858	-155.358	  19.083
     47.9444	  20.000	  25.773	-159.273	  19.060
     47.9778	  19.000	  25.693	-160.193	  19.037
     48.0113	  22.000	  25.617	-157.117	  19.014
     48.0447	  27.000	  25.546	-152.046	  18.991
     48.0781	  21.000	  25.478	-157.978	  18.968
     48.1115	  27.000	  25.414	-151.914	  18.945
     48.1449	  24.000	  25.352	-154.852	  18.922
     48.1784	  33.000	  25.295	-145.795	  18.900
     48.2118	  20.000	  25.239	-158.739	  18.877
     48.2452	  21.000	  25.187	-157.687	  18.854
     48.2786	  27.000	  25.136	-151.636	  18.831
     48.3121	  22.000	  25.044	-156.544	  18.808
     48.3455	  19.000	  24.998	-159.498	  18.785
     48.3789	  27.000	  24.954	-151.454	  18.763
     48.4123	  29.000	  24.890	-149.390	  18.740
     48.4458	  23.000	  24.849	-155.349	  18.717
     48.4792	  14.000	  24.810	-164.310	  18.695
     48.5126	  24.000	  24.772	-154.272	  18.672
     48.5460	  21.000	  24.735	-157.235	  18.649
     48.5794	  28.000	  24.700	-150.200	  18.627
     48.6129	  22.000	  24.666	-156.166	  18.604
     48.6463	  24.000	  24.633	-154.133	  18.582
     48.6797	  32.000	  24.602	-146.102	  18.559
     48.7131	  29.000	  24.571	-149.071	  18.537
     48.7466	  28.000	  24.541	-150.041	  18.514
     48.7800	  28.000	  24.512	-150.012	  18.492
     48.8134	  24.000	  24.484	-153.984	  18.470
     48.8468	  35.000	  24.457	-142.957	  18.447
     48.8802	  21.000	  24.431	-156.931	  18.425
     48.9137	  31.000	  24.406	-146.906	  18.403
     48.9471	  28.000	  24.381	-149.881	  18.380
     48.9805	  28.000	  24.357	-149.857	  18.358
     49.0139	  35.000	  24.334	-142.834	  18.336
     49.0474	  31.000	  24.312	-146.812	  18.314
     49.0808	  33.000	  24.290	-144.790	  18.292
     49.1142	  22.000	  24.270	-155.770	  18.270
     49.1476	  25.000	  24.250	-152.750	  18.248
     49.1810	  29.000	  24.231	-148.731	  18.225
     49.2145	  34.000	  24.212	-143.712	  18.203
     49.2479	  16.000	  24.194	-161.694	  18.181
     49.2813	  19.000	  24.176	-158.676	  18.159
     49.3147	  33.000	  24.159	-144.659	  18.137
     49.3482	  32.000	  24.142	-145.642	  18.116
     49.3816	  38.000	  24.127	-139.627	  18.094
     49.4150	  36.000	  24.111	-141.611	  18.072
     49.4484	  29.000	  24.097	-148.597	  18.050
     49.4818	  30.000	  24.083	-147.583	  18.028
     49.5153	  23.000	  24.075	-154.575	  18.006
     49.5487	  31.000	  24.065	-146.565	  17.984
     49.5821	  27.000	  24.054	-150.554	  17.963
     49.6155	  29.000	  24.044	-148.544	  17.941
     49.6490	  19.000	  24.033	-158.533	  17.919
     49.6824	  29.000	  24.026	-148.526	  17.898
     49.7158	  24.000	  24.016	-153.516	  17.876
     49.7492	  38.000	  24.007	-139.507	  17.854
     49.7826	  25.000	  23.999	-152.499	  17.833
     49.8161	  33.000	  23.992	-144.492	  17.811
     49.8495	  23.000	  23.985	-154.485	  17.790
     49.8829	  27.000	  23.978	-150.478	  17.768
     49.9163	  33.000	  23.973	-144.473	  17.747
     49.9498	  29.000	  23.968	-148.468	  17.725
     49.9832	  35.000	  23.964	-142.464	  17.704
     50.0166	  20.000	  23.961	-157.461	  17.683
     50.0500	  29.000	  23.958	-148.458	  17.661
     50.0835	  25.000	  23.957	-152.457	  17.640
     50.1169	  36.000	  23.956	-141.456	  17.619
     50.1503	  28.000	  23.956	-149.456	  17.597
     50.1837	  21.000	  23.956	-156.456	  17.576
     50.2171	  25.000	  23.958	-152.458	  17.555
     50.2506	  31.000	  23.960	-146.460	  17.534
     50.2840	  29.000	  23.963	-148.463	  17.513
     50.3174	  24.000	  23.967	-153.467	  17.492
     50.3508	  24.000	  23.973	-153.473	  17.470
     50.3843	  28.000	  23.979	-149.479	  17.449
     50.4177	  22.000	  23.986	-155.486	  17.428
     50.4511	  27.000	  23.994	-150.494	  17.407
     50.4845	  19.000	  24.003	-158.503	  17.386
     50.5179	  24.000	  24.013	-153.513	  17.365
     50.5514	  23.000	  24.025	-154.525	  17.344
     50.5848	  25.000	  24.037	-152.537	  17.323
     50.6182	  20.000	  24.051	-157.551	  17.303
     50.6516	  25.000	  24.066	-152.566	  17.282
     50.6851	  33.000	  24.082	-144.582	  17.261
     50.7185	  27.000	  24.100	-150.600	  17.240
     50.7519	  17.000	  24.119	-160.619	  17.219
     50.7853	  30.000	  24.139	-147.639	  17.199
     50.8187	  22.000	  24.161	-155.661	  17.178
     50.8522	  21.000	  24.185	-156.685	  17.157
     50.8856	  28.000	  24.210	-149.710	  17.137
     50.9190	  25.000	  24.237	-152.737	  17.116
     50.9524	  30.000	  24.266	-147.766	  17.095
     50.9859	  27.000	  24.296	-150.796	  17.075
     51.0193	  31.000	  24.329	-146.829	  17.054
     51.0527	  18.000	  24.363	-159.863	  17.034
     51.0861	  28.000	  24.400	-149.900	  17.013
     51.1196	  27.000	  24.439	-150.939	  16.993
     51.1530	  24.000	  24.480	-153.980	  16.972
     51.1864	  22.000	  24.523	-156.023	  16.952
     51.2198	  32.000	  24.569	-146.069	  16.931
     51.2532	  32.000	  24.618	-146.118	  16.911
     51.2867	  22.000	  24.669	-156.169	  16.891
     51.3201	  29.000	  24.724	-149.224	  16.870
     51.3535	  28.000	  24.781	-150.281	  16.850
     51.3869	  17.000	  24.842	-161.342	  16.830
     51.4204	  18.000	  24.906	-160.406	  16.810
     51.4538	  16.000	  24.974	-162.474	  16.789
     51.4872	  24.000	  25.046	-154.546	  16.769
     51.5206	  25.000	  25.122	-153.622	  16.749
     51.5540	  20.000	  25.202	-158.702	  16.729
     51.5875	  29.000	  25.286	-149.786	  16.709
     51.6209	  19.000	  25.375	-159.875	  16.689
     51.6543	  23.000	  25.470	-155.970	  16.669
     51.6877	  34.000	  25.570	-145.070	  16.649
     51.7212	  27.000	  25.675	-152.175	  16.629
     51.7546	  25.000	  25.787	-154.287	  16.609
     51.7880	  49.000	  25.905	-130.405	  16.589
     51.8214	  28.000	  26.030	-151.530	  16.569
     51.8548	  27.000	  26.162	-152.662	  16.549
     51.8883	  29.000	  26.303	-150.803	  16.529
     51.9217	  27.000	  26.452	-152.952	  16.510
     51.9551	  25.000	  26.610	-155.110	  16.490
     51.9885	  28.000	  26.777	-152.277	  16.470
     52.0220	  28.000	  26.956	-152.456	  16.450
     52.0554	  27.000	  27.145	-153.645	  16.431
     52.0888	  18.000	  27.347	-162.847	  16.411
     52.1222	  28.000	  27.561	-153.061	  16.391
     52.1557	  20.000	  27.790	-161.290	  16.372
     52.1891	  30.000	  28.033	-151.533	  16.352
     52.2225	  31.000	  28.293	-150.793	  16.333
     52.2559	  31.000	  28.571	-151.071	  16.313
     52.2893	  32.000	  28.868	-150.368	  16.294
     52.3228	  27.000	  29.186	-155.686	  16.274
     52.3562	  35.000	  29.526	-148.026	  16.255
     52.3896	  33.000	  29.891	-150.391	  16.235
     52.4230	  20.000	  30.282	-163.782	  16.216
     52.4565	  23.000	  30.702	-161.202	  16.197
     52.4899	  20.000	  31.153	-164.653	  16.177
     52.5233	  18.000	  31.638	-167.138	  16.158
     52.5567	  24.000	  32.160	-161.660	  16.139
     52.5901	  43.000	  32.722	-143.223	  16.119
     52.6236	  35.000	  33.328	-151.828	  16.100
     52.6570	  37.000	  33.981	-150.481	  16.081
     52.6904	  34.000	  34.684	-154.184	  16.062
     52.7238	  46.000	  35.442	-142.942	  16.043
     52.7573	  35.000	  36.259	-154.759	  16.024
     52.7907	  37.000	  37.140	-153.640	  16.004
     52.8241	  42.000	  38.088	-149.588	  15.985
     52.8575	  35.000	  39.107	-157.607	  15.966
     52.8909	  37.000	  40.201	-156.701	  15.947
     52.9244	  36.000	  41.374	-158.874	  15.928
     52.9578	  50.000	  42.626	-146.126	  15.909
     52.9912	  44.000	  43.960	-153.460	  15.890
     53.0246	  42.000	  45.372	-156.872	  15.872
     53.0581	  52.000	  46.859	-148.359	  15.853
     53.0915	  45.000	  48.414	-156.914	  15.834
     53.1249	  49.000	  50.025	-154.525	  15.815
     53.1583	  47.000	  51.676	-158.176	  15.796
     53.1917	  52.000	  53.343	-154.843	  15.778
     53.2252	  59.000	  55.000	-149.500	  15.759
     53.2586	  48.000	  56.612	-162.112	  15.740
     53.2920	  56.000	  58.141	-155.641	  15.721
     53.3254	  63.000	  59.546	-150.046	  15.703
     53.3589	  71.000	  60.782	-143.282	  15.684
     53.3923	  56.000	  61.808	-159.308	  15.666
     53.4257	  66.000	  62.588	-150.088	  15.647
     53.4591	  82.000	  63.092	-134.592	  15.628
     53.4926	  61.000	  63.303	-155.803	  15.610
     53.5260	  65.000	  63.215	-151.715	  15.591
     53.5594	  79.000	  62.835	-137.335	  15.573
     53.5928	  82.000	  62.179	-133.679	  15.555
     53.6262	  70.000	  61.278	-144.778	  15.536
     53.6597	  64.000	  60.166	-149.666	  15.518
     53.6931	  57.000	  58.883	-155.383	  15.499
     53.7265	  62.000	  57.472	-148.971	  15.481
     53.7599	  57.000	  55.972	-152.472	  15.463
     53.7934	  60.000	  54.422	-147.922	  15.445
     53.8268	  60.000	  52.856	-146.356	  15.426
     53.8602	  59.000	  51.301	-145.801	  15.408
     53.8936	  62.000	  49.781	-141.281	  15.390
     53.9270	  51.000	  48.314	-150.814	  15.372
     53.9605	  52.000	  46.911	-148.411	  15.354
     53.9939	  46.000	  45.582	-153.082	  15.336
     54.0273	  58.000	  44.332	-139.832	  15.318
     54.0607	  49.000	  43.163	-147.663	  15.299
     54.0942	  63.000	  42.076	-132.576	  15.281
     54.1276	  45.000	  41.068	-149.568	  15.264
     54.1610	  37.000	  40.139	-156.639	  15.246
     54.1944	  44.000	  39.284	-148.784	  15.228
     54.2278	  51.000	  38.499	-140.999	  15.210
     54.2613	  48.000	  37.782	-143.282	  15.192
     54.2947	  42.000	  37.128	-148.628	  15.174
     54.3281	  46.000	  36.534	-144.034	  15.156
     54.3615	  41.000	  35.994	-148.494	  15.138
     54.3950	  34.000	  35.506	-155.006	  15.121
     54.4284	  52.000	  35.067	-136.567	  15.103
     54.4618	  36.000	  34.673	-152.173	  15.085
     54.4952	  34.000	  34.321	-153.821	  15.067
     54.5287	  57.000	  34.009	-130.509	  15.050
     54.5621	  45.000	  33.734	-142.234	  15.032
     54.5955	  36.000	  33.494	-150.994	  15.015
     54.6289	  29.000	  33.287	-157.787	  14.997
     54.6623	  32.000	  33.111	-154.611	  14.980
     54.6958	  44.000	  32.965	-142.465	  14.962
     54.7292	  42.000	  32.847	-144.347	  14.944
     54.7626	  31.000	  32.756	-155.256	  14.927
     54.7960	  49.000	  32.691	-137.191	  14.910
     54.8295	  34.000	  32.651	-152.151	  14.892
     54.8629	  37.000	  32.636	-149.136	  14.875
     54.8963	  41.000	  32.644	-145.144	  14.857
     54.9297	  34.000	  32.675	-152.175	  14.840
     54.9631	  39.000	  32.730	-147.230	  14.823
     54.9966	  39.000	  32.807	-147.307	  14.806
     55.0300	  35.000	  32.907	-151.407	  14.788
     55.0634	  45.000	  33.029	-141.529	  14.771
     55.0968	  44.000	  33.175	-142.675	  14.754
     55.1303	  21.000	  33.343	-165.843	  14.737
     55.1637	  41.000	  33.535	-146.035	  14.720
     55.1971	  31.000	  33.751	-156.251	  14.703
     55.2305	  41.000	  33.992	-146.492	  14.685
     55.2639	  33.000	  34.258	-154.758	  14.668
     55.2974	  44.000	  34.550	-144.050	  14.651
     55.3308	  29.000	  34.725	-159.225	  14.634
     55.3642	  50.000	  35.073	-138.573	  14.617
     55.3976	  36.000	  35.451	-152.951	  14.601
     55.4311	  47.000	  35.860	-142.360	  14.584
     55.4645	  39.000	  36.231	-150.731	  14.567
     55.4979	  43.000	  36.708	-147.208	  14.550
     55.5313	  42.000	  37.221	-148.721	  14.533
     55.5648	  33.000	  37.774	-158.274	  14.516
     55.5982	  39.000	  38.368	-152.868	  14.500
     55.6316	  49.000	  39.006	-143.506	  14.483
     55.6650	  42.000	  39.692	-151.192	  14.466
     55.6984	  38.000	  40.428	-155.928	  14.449
     55.7319	  51.000	  41.218	-143.718	  14.433
     55.7653	  35.000	  42.066	-160.566	  14.416
     55.7987	  57.000	  42.976	-139.476	  14.399
     55.8321	  43.000	  43.954	-154.454	  14.383
     55.8656	  39.000	  45.004	-159.504	  14.366
     55.8990	  31.000	  46.133	-168.633	  14.350
     55.9324	  49.000	  47.345	-151.845	  14.333
     55.9658	  50.000	  48.649	-152.149	  14.317
     55.9992	  57.000	  50.051	-146.551	  14.300
     56.0327	  64.000	  51.559	-141.059	  14.284
     56.0661	  57.000	  53.183	-149.683	  14.268
     56.0995	  56.000	  54.929	-152.429	  14.251
     56.1329	  70.000	  56.809	-140.309	  14.235
     56.1664	  65.000	  58.833	-147.333	  14.219
     56.1998	  61.000	  61.012	-153.512	  14.202
     56.2332	  62.000	  63.356	-154.856	  14.186
     56.2666	  63.000	  65.878	-156.378	  14.170
     56.3000	  85.000	  68.588	-137.088	  14.154
     56.3335	  85.000	  71.499	-139.999	  14.138
     56.3669	  66.000	  74.620	-162.120	  14.121
     56.4003	 104.000	  77.962	-127.462	  14.105
     56.4337	  86.000	  81.530	-149.030	  14.089
     56.4672	  88.000	  85.330	-150.830	  14.073
     56.5006	  65.000	  89.361	-177.861	  14.057
     56.5340	  85.000	  93.619	-162.119	  14.041
     56.5674	 109.000	  98.088	-142.588	  14.025
     56.6008	  95.000	 102.750	-161.250	  14.009
     56.6343	 109.000	 107.568	-152.068	  13.993
     56.6677	 123.000	 112.498	-142.998	  13.977
     56.7011	 123.000	 117.479	-147.979	  13.962
     56.7345	 117.000	 122.434	-158.934	  13.946
     56.7680	 129.000	 127.274	-151.774	  13.930
     56.8014	 121.000	 131.894	-164.394	  13.914
     56.8348	 132.000	 136.179	-157.679	  13.898
     56.8682	 128.000	 140.012	-165.512	  13.883
     56.9017	 124.000	 143.273	-172.773	  13.867
     56.9351	 126.000	 145.859	-173.359	  13.851
     56.9685	 152.000	 147.679	-149.179	  13.836
     57.0019	 166.000	 148.670	-136.170	  13.820
     57.0353	 162.000	 148.797	-140.297	  13.804
     57.0688	 155.000	 148.058	-146.558	  13.789
     57.1022	 155.000	 146.483	-144.983	  13.773
     57.1356	 133.000	 144.132	-164.632	  13.758
     57.1690	 137.000	 141.088	-157.588	  13.742
     57.2025	 136.000	 137.451	-154.951	  13.727
     57.2359	 138.000	 133.331	-148.831	  13.712
     57.2693	 114.000	 128.844	-168.344	  13.696
     57.3027	 101.000	 124.099	-176.599	  13.681
     57.3361	  97.000	 119.203	-175.703	  13.665
     57.3696	 106.000	 114.245	-161.745	  13.650
     57.4030	 119.000	 109.306	-143.806	  13.635
     57.4364	  91.000	 104.451	-166.951	  13.620
     57.4698	 118.000	  99.729	-135.229	  13.604
     57.5033	  92.000	  95.168	-156.668	  13.589
     57.5367	  95.000	  90.819	-149.319	  13.574
     57.5701	  97.000	  86.683	-143.183	  13.559
     57.6035	  87.000	  82.775	-149.275	  13.544
     57.6369	  76.000	  79.089	-156.589	  13.529
     57.6704	  74.000	  75.634	-155.134	  13.514
     57.7038	  83.000	  72.400	-142.900	  13.499
     57.7372	  64.000	  69.379	-158.879	  13.484
     57.7706	  61.000	  66.560	-159.060	  13.469
     57.8041	  57.000	  63.934	-160.434	  13.454
     57.8375	  62.000	  61.489	-152.989	  13.439
     57.8709	  62.000	  59.213	-150.713	  13.424
     57.9043	  72.000	  57.096	-138.596	  13.409
     57.9378	  57.000	  55.126	-151.626	  13.394
     57.9712	  58.000	  53.294	-148.794	  13.379
     58.0046	  69.000	  51.588	-136.088	  13.365
     58.0380	  55.000	  50.001	-148.501	  13.350
     58.0714	  50.000	  48.522	-152.022	  13.335
     58.1049	  51.000	  47.144	-149.644	  13.320
     58.1383	  55.000	  45.860	-144.360	  13.306
     58.1717	  48.000	  44.661	-150.161	  13.291
     58.2051	  56.000	  43.542	-141.042	  13.276
     58.2386	  50.000	  42.498	-145.998	  13.262
     58.2720	  45.000	  41.521	-150.021	  13.247
     58.3054	  35.000	  40.607	-159.107	  13.233
     58.3388	  52.000	  39.752	-141.252	  13.218
     58.3722	  59.000	  38.952	-133.452	  13.204
     58.4057	  32.000	  38.202	-159.702	  13.189
     58.4391	  36.000	  37.499	-154.999	  13.175
     58.4725	  39.000	  36.839	-151.339	  13.160
     58.5059	  46.000	  36.220	-143.720	  13.146
     58.5394	  37.000	  35.639	-152.139	  13.132
     58.5728	  36.000	  35.093	-152.593	  13.117
     58.6062	  38.000	  34.580	-150.080	  13.103
     58.6396	  43.000	  34.098	-144.598	  13.089
     58.6730	  47.000	  33.646	-140.146	  13.075
     58.7065	  41.000	  33.220	-145.720	  13.060
     58.7399	  38.000	  32.819	-148.319	  13.046
     58.7733	  29.000	  32.443	-156.943	  13.032
     58.8067	  31.000	  32.090	-154.590	  13.018
     58.8402	  31.000	  31.757	-154.257	  13.004
     58.8736	  45.000	  31.445	-139.945	  12.990
     58.9070	  41.000	  31.153	-143.653	  12.976
     58.9404	  45.000	  30.878	-139.378	  12.962
     58.9739	  37.000	  30.620	-147.120	  12.948
     59.0073	  27.000	  30.379	-156.879	  12.934
     59.0407	  30.000	  30.154	-153.654	  12.920
     59.0741	  23.000	  29.943	-160.443	  12.906
     59.1075	  35.000	  29.747	-148.247	  12.892
     59.1410	  30.000	  29.565	-153.065	  12.878
     59.1744	  31.000	  29.395	-151.895	  12.865
     59.2078	  35.000	  29.238	-147.738	  12.851
     59.2412	  36.000	  29.094	-146.594	  12.837
     59.2747	  25.000	  28.961	-157.461	  12.823
     59.3081	  38.000	  28.840	-144.340	  12.810
     59.3415	  29.000	  28.730	-153.230	  12.796
     59.3749	  39.000	  28.630	-143.130	  12.782
     59.4083	  20.000	  28.541	-162.041	  12.769
     59.4418	  30.000	  28.462	-151.962	  12.755
     59.4752	  25.000	  28.394	-156.894	  12.741
     59.5086	  23.000	  28.335	-158.835	  12.728
     59.5420	  34.000	  28.285	-147.785	  12.714
     59.5755	  20.000	  28.246	-161.746	  12.701
     59.6089	  33.000	  28.215	-148.715	  12.687
     59.6423	  35.000	  28.195	-146.695	  12.674
     59.6757	  39.000	  28.183	-142.683	  12.661
     59.7091	  39.000	  28.180	-142.680	  12.647
     59.7426	  45.000	  28.187	-136.687	  12.634
     59.7760	  33.000	  28.203	-148.703	  12.621
     59.8094	  35.000	  28.229	-146.729	  12.607
     59.8428	  32.000	  28.263	-149.763	  12.594
     59.8763	  25.000	  28.307	-156.807	  12.581
     59.9097	  33.000	  28.360	-148.860	  12.568
     59.9431	  25.000	  28.423	-156.923	  12.554
     59.9765	  33.000	  28.496	-148.996	  12.541
     60.0099	  33.000	  28.579	-149.079	  12.528
     60.0434	  37.000	  28.671	-145.171	  12.515
     60.0768	  29.000	  28.774	-153.274	  12.502
     60.1102	  39.000	  28.888	-143.388	  12.489
     60.1436	  35.000	  29.012	-147.512	  12.476
     60.1771	  36.000	  29.147	-146.647	  12.463
     60.2105	  27.000	  29.294	-155.794	  12.450
     60.2439	  33.000	  29.453	-149.953	  12.437
     60.2773	  24.000	  29.624	-159.124	  12.424
     60.3107	  34.000	  29.807	-149.307	  12.411
     60.3442	  37.000	  30.004	-146.504	  12.398
     60.3776	  39.000	  30.214	-144.714	  12.385
     60.4110	  22.000	  30.438	-161.938	  12.373
     60.4444	  31.000	  30.677	-153.177	  12.360
     60.4779	  33.000	  30.932	-151.432	  12.347
     60.5113	  35.000	  31.202	-149.702	  12.334
     60.5447	  39.000	  31.490	-145.990	  12.322
     60.5781	  54.000	  31.795	-131.295	  12.309
     60.6116	  46.000	  32.119	-139.619	  12.296
     60.6450	  51.000	  32.462	-134.962	  12.284
     60.6784	  41.000	  32.826	-145.326	  12.271
     60.7118	  38.000	  33.212	-148.712	  12.259
     60.7452	  38.000	  33.620	-149.120	  12.246
     60.7787	  36.000	  34.053	-151.553	  12.234
     60.8121	  28.000	  34.511	-160.011	  12.221
     60.8455	  36.000	  34.996	-152.496	  12.209
     60.8789	  44.000	  35.510	-145.010	  12.196
     60.9124	  39.000	  36.055	-150.555	  12.184
     60.9458	  41.000	  36.632	-149.132	  12.172
     60.9792	  32.000	  37.243	-158.743	  12.159
     61.0126	  44.000	  37.892	-147.392	  12.147
     61.0460	  48.000	  38.579	-144.079	  12.135
     61.0795	  47.000	  39.309	-145.809	  12.123
     61.1129	  32.000	  40.083	-161.583	  12.110
     61.1463	  42.000	  40.905	-152.405	  12.098
     61.1797	  45.000	  41.778	-150.278	  12.086
     61.2132	  43.000	  42.706	-153.206	  12.074
     61.2466	  39.000	  43.693	-158.193	  12.062
     61.2800	  61.000	  44.743	-137.243	  12.050
     61.3134	  50.000	  45.861	-149.361	  12.038
     61.3468	  51.000	  47.052	-149.552	  12.026
     61.3803	  46.000	  48.320	-155.820	  12.014
     61.4137	  47.000	  49.673	-156.173	  12.002
     61.4471	  63.000	  51.117	-141.617	  11.990
     61.4805	  62.000	  52.657	-144.157	  11.978
     61.5140	  66.000	  54.302	-141.802	  11.966
     61.5474	  60.000	  56.059	-149.559	  11.954
     61.5808	  52.000	  57.937	-159.437	  11.942
     61.6142	  68.000	  59.945	-145.445	  11.930
     61.6477	  72.000	  62.092	-143.592	  11.919
     61.6811	  71.000	  64.389	-146.889	  11.907
     61.7145	  77.000	  66.845	-143.345	  11.895
     61.7479	  65.000	  69.472	-157.972	  11.883
     61.7813	  94.000	  72.280	-131.780	  11.872
     61.8148	  92.000	  75.282	-136.782	  11.860
     61.8482	  94.000	  78.487	-137.987	  11.849
     61.8816	  97.000	  81.908	-138.408	  11.837
     61.9150	 102.000	  85.553	-137.053	  11.825
     61.9485	  99.000	  89.433	-143.933	  11.814
     61.9819	 117.000	  93.551	-130.051	  11.802
     62.0153	 109.000	  97.912	-142.412	  11.791
     62.0487	 115.000	 102.516	-141.016	  11.779
     62.0821	 112.000	 107.357	-148.857	  11.768
     62.1156	 118.000	 112.422	-147.922	  11.757
     62.1490	 106.000	 117.692	-165.192	  11.745
     62.1824	 115.000	 123.135	-161.635	  11.734
     62.2158	 146.000	 128.712	-136.212	  11.723
     62.2493	 148.000	 134.366	-139.866	  11.711
     62.2827	 164.000	 140.033	-129.533	  11.700
     62.3161	 192.000	 145.630	-107.130	  11.689
     62.3495	 179.000	 151.062	-125.562	  11.678
     62.3829	 155.000	 156.226	-154.726	  11.667
     62.4164	 169.000	 161.010	-145.510	  11.655
     62.4498	 209.000	 165.297	-109.797	  11.644
     62.4832	 183.000	 168.977	-139.477	  11.633
     62.5166	 207.000	 171.946	-118.446	  11.622
     62.5501	 210.000	 174.118	-117.618	  11.611
     62.5835	 223.000	 175.429	-105.929	  11.600
     62.6169	 209.000	 175.840	-120.340	  11.589
     62.6503	 203.000	 175.340	-125.840	  11.578
     62.6838	 209.000	 173.949	-118.449	  11.567
     62.7172	 216.000	 171.711	-109.211	  11.556
     62.7506	 183.000	 168.696	-139.196	  11.546
     62.7840	 197.000	 164.991	-121.491	  11.535
     62.8174	 177.000	 160.696	-137.196	  11.524
     62.8509	 180.000	 155.919	-129.419	  11.513
     62.8843	 154.000	 150.772	-150.272	  11.502
     62.9177	 175.000	 145.358	-123.858	  11.492
     62.9511	 173.000	 139.780	-120.280	  11.481
     62.9846	 164.000	 134.128	-123.628	  11.470
     63.0180	 158.000	 128.478	-123.978	  11.460
     63.0514	 123.000	 122.899	-153.399	  11.449
     63.0848	 145.000	 117.442	-125.942	  11.438
     63.1182	 114.000	 112.148	-151.648	  11.428
     63.1517	 121.000	 107.052	-139.552	  11.417
     63.1851	 125.000	 102.171	-130.671	  11.407
     63.2185	 109.000	  97.522	-142.022	  11.396
     63.2519	 112.000	  93.109	-134.609	  11.386
     63.2854	  87.000	  88.936	-155.436	  11.375
     63.3188	  99.000	  84.999	-139.499	  11.365
     63.3522	 113.000	  81.294	-121.794	  11.355
     63.3856	  98.000	  77.811	-133.311	  11.344
     63.4190	  86.000	  74.543	-142.043	  11.334
     63.4525	  92.000	  71.477	-132.977	  11.324
     63.4859	  86.000	  68.606	-136.106	  11.313
     63.5193	  77.000	  65.916	-142.416	  11.303
     63.5527	  76.000	  63.397	-140.897	  11.293
     63.5862	  68.000	  61.039	-146.539	  11.283
     63.6196	  69.000	  58.830	-143.330	  11.273
     63.6530	  68.000	  56.761	-142.261	  11.263
     63.6864	  63.000	  54.823	-145.323	  11.253
     63.7198	  54.000	  53.006	-152.506	  11.242
     63.7533	  58.000	  51.302	-146.802	  11.232
     63.7867	  35.000	  49.703	-168.203	  11.222
     63.8201	  62.000	  48.202	-139.702	  11.212
     63.8535	  50.000	  46.792	-150.292	  11.202
     63.8870	  43.000	  45.466	-155.966	  11.193
     63.9204	  48.000	  44.219	-149.719	  11.183
     63.9538	  41.000	  43.046	-155.546	  11.173
     63.9872	  58.000	  41.940	-137.440	  11.163
     64.0207	  50.000	  40.899	-144.399	  11.153
     64.0541	  46.000	  39.916	-147.416	  11.143
     64.0875	  58.000	  38.989	-134.489	  11.134
     64.1209	  38.000	  38.113	-153.613	  11.124
     64.1543	  44.000	  37.286	-146.786	  11.114
     64.1878	  30.000	  36.504	-160.004	  11.104
     64.2212	  47.000	  35.764	-142.264	  11.095
     64.2546	  45.000	  35.063	-143.563	  11.085
     64.2880	  37.000	  34.400	-150.900	  11.076
     64.3214	  46.000	  33.772	-141.272	  11.066
     64.3549	  31.000	  33.176	-155.676	  11.056
     64.3883	  37.000	  32.612	-149.112	  11.047
     64.4217	  45.000	  32.076	-140.576	  11.037
     64.4551	  35.000	  31.569	-150.069	  11.028
     64.4886	  39.000	  31.087	-145.587	  11.019
     64.5220	  46.000	  30.631	-138.131	  11.009
     64.5554	  32.000	  30.198	-151.698	  11.000
     64.5888	  35.000	  29.787	-148.287	  10.990
     64.6223	  30.000	  29.398	-152.898	  10.981
     64.6557	  36.000	  29.029	-146.529	  10.972
     64.6891	  28.000	  28.680	-154.180	  10.963
     64.7225	  33.000	  28.349	-148.849	  10.953
     64.7559	  32.000	  28.037	-149.537	  10.944
     64.7894	  29.000	  27.742	-152.242	  10.935
     64.8228	  25.000	  27.465	-155.965	  10.926
     64.8562	  38.000	  27.203	-142.703	  10.917
     64.8896	  28.000	  26.958	-152.458	  10.908
     64.9231	  23.000	  26.728	-157.228	  10.899
     64.9565	  31.000	  26.513	-149.013	  10.889
     64.9899	  29.000	  26.313	-150.813	  10.880
     65.0233	  34.000	  26.128	-145.628	  10.871
     65.0567	  27.000	  25.957	-152.457	  10.863
     65.0902	  30.000	  25.800	-149.300	  10.854
     65.1236	  27.000	  25.657	-152.157	  10.845
     65.1570	  30.000	  25.528	-149.028	  10.836
     65.1904	  24.000	  25.412	-154.912	  10.827
     65.2239	  44.000	  25.309	-134.809	  10.818
     65.2573	  38.000	  25.219	-140.719	  10.809
     65.2907	  19.000	  25.140	-159.640	  10.801
     65.3241	  33.000	  25.073	-145.573	  10.792
     65.3576	  23.000	  25.017	-155.517	  10.783
     65.3910	  31.000	  24.971	-147.471	  10.774
     65.4244	  33.000	  24.932	-145.432	  10.766
     65.4578	  29.000	  24.901	-149.401	  10.757
     65.4912	  20.000	  24.848	-158.348	  10.749
     65.5247	  23.000	  24.825	-155.325	  10.740
     65.5581	  24.000	  24.803	-154.303	  10.731
     65.5915	  25.000	  24.780	-153.280	  10.723
     65.6249	  25.000	  24.739	-153.239	  10.714
     65.6584	  32.000	  24.705	-146.205	  10.706
     65.6918	  28.000	  24.661	-150.161	  10.698
     65.7252	  29.000	  24.606	-149.106	  10.689
     65.7586	  31.000	  24.538	-147.038	  10.681
     65.7920	  20.000	  24.453	-157.953	  10.672
     65.8255	  28.000	  24.353	-149.853	  10.664
     65.8589	  21.000	  24.235	-156.735	  10.656
     65.8923	  16.000	  24.101	-161.601	  10.647
     65.9257	  16.000	  23.950	-161.450	  10.639
     65.9592	  25.000	  23.784	-152.284	  10.631
     65.9926	  20.000	  23.604	-157.104	  10.623
     66.0260	  31.000	  23.413	-145.913	  10.615
     66.0594	  23.000	  23.212	-153.712	  10.607
     66.0928	  27.000	  23.004	-149.504	  10.598
     66.1263	  30.000	  22.791	-146.291	  10.590
     66.1597	  19.000	  22.575	-157.075	  10.582
     66.1931	  17.000	  22.358	-158.858	  10.574
     66.2265	  14.000	  22.142	-161.642	  10.566
     66.2600	  29.000	  21.929	-146.429	  10.558
     66.2934	  30.000	  21.719	-145.219	  10.550
     66.3268	  27.000	  21.515	-148.015	  10.542
     66.3602	  17.000	  21.316	-157.816	  10.535
     66.3937	  34.000	  21.123	-140.623	  10.527
     66.4271	  21.000	  20.937	-153.437	  10.519
     66.4605	  29.000	  20.758	-145.258	  10.511
     66.4939	  20.000	  20.586	-154.086	  10.503
     66.5273	  25.000	  20.421	-148.921	  10.496
     66.5608	  14.000	  20.264	-159.764	  10.488
     66.5942	  17.000	  20.113	-156.613	  10.480
     66.6276	  28.000	  19.969	-145.469	  10.473
     66.6610	  21.000	  19.831	-152.331	  10.465
     66.6945	  20.000	  19.699	-153.199	  10.457
     66.7279	  15.000	  19.574	-158.074	  10.450
     66.7613	  19.000	  19.454	-153.954	  10.442
     66.7947	  16.000	  19.339	-156.839	  10.435
     66.8281	  12.000	  19.230	-160.730	  10.427
     66.8616	  25.000	  19.125	-147.625	  10.420
     66.8950	  25.000	  19.025	-147.525	  10.412
     66.9284	  23.000	  18.929	-149.429	  10.405
     66.9618	  20.000	  18.837	-152.337	  10.397
     66.9953	  25.000	  18.749	-147.249	  10.390
     67.0287	  20.000	  18.665	-152.165	  10.383
     67.0621	  17.000	  18.585	-155.085	  10.375
     67.0955	  23.000	  18.507	-149.007	  10.368
     67.1289	  18.000	  18.433	-153.933	  10.361
     67.1624	  11.000	  18.362	-160.862	  10.354
     67.1958	  14.000	  18.294	-157.794	  10.346
     67.2292	  25.000	  18.229	-146.729	  10.339
     67.2626	  19.000	  18.166	-152.666	  10.332
     67.2961	  29.000	  18.105	-142.605	  10.325
     67.3295	  21.000	  18.047	-150.547	  10.318
     67.3629	  11.000	  17.991	-160.491	  10.311
     67.3963	  22.000	  17.938	-149.438	  10.304
     67.4297	  16.000	  17.886	-155.386	  10.297
     67.4632	  18.000	  17.837	-153.337	  10.290
     67.4966	  25.000	  17.789	-146.289	  10.283
     67.5300	  21.000	  17.744	-150.244	  10.276
     67.5634	  19.000	  17.700	-152.200	  10.269
     67.5969	  14.000	  17.658	-157.158	  10.262
     67.6303	  20.000	  17.617	-151.117	  10.255
     67.6637	  15.000	  17.579	-156.079	  10.249
     67.6971	  11.000	  17.541	-160.041	  10.242
     67.7306	  30.000	  17.506	-141.006	  10.235
     67.7640	  15.000	  17.472	-155.972	  10.228
     67.7974	  16.000	  17.439	-154.939	  10.222
     67.8308	  18.000	  17.408	-152.908	  10.215
     67.8642	  28.000	  17.378	-142.878	  10.208
     67.8977	  19.000	  17.350	-151.850	  10.202
     67.9311	  28.000	  17.323	-142.823	  10.195
     67.9645	  18.000	  17.297	-152.797	  10.189
     67.9979	  23.000	  17.273	-147.773	  10.182
     68.0314	  21.000	  17.250	-149.750	  10.176
     68.0648	  19.000	  17.228	-151.728	  10.169
     68.0982	  25.000	  17.208	-145.708	  10.163
     68.1316	  15.000	  17.188	-155.688	  10.156
     68.1650	  17.000	  17.170	-153.670	  10.150
     68.1985	  21.000	  17.154	-149.654	  10.143
     68.2319	  31.000	  17.138	-139.638	  10.137
     68.2653	  14.000	  17.124	-156.624	  10.131
     68.2987	  22.000	  17.111	-148.611	  10.125
     68.3322	  25.000	  17.100	-145.600	  10.118
     68.3656	  23.000	  17.090	-147.590	  10.112
     68.3990	  20.000	  17.081	-150.581	  10.106
     68.4324	  18.000	  17.073	-152.573	  10.100
     68.4659	  11.000	  17.066	-159.566	  10.094
     68.4993	  19.000	  17.061	-151.561	  10.087
     68.5327	  29.000	  17.058	-141.558	  10.081
     68.5661	  17.000	  17.055	-153.555	  10.075
     68.5995	  18.000	  17.054	-152.554	  10.069
     68.6330	  24.000	  17.055	-146.555	  10.063
     68.6664	  22.000	  17.057	-148.557	  10.057
     68.6998	  22.000	  17.060	-148.560	  10.051
     68.7332	  17.000	  17.065	-153.565	  10.045
     68.7666	  18.000	  17.072	-152.572	  10.039
     68.8001	  28.000	  17.080	-142.580	  10.034
     68.8335	  19.000	  17.089	-151.589	  10.028
     68.8669	  19.000	  17.101	-151.601	  10.022
     68.9003	  16.000	  17.114	-154.614	  10.016
     68.9338	  22.000	  17.129	-148.629	  10.010
     68.9672	  19.000	  17.146	-151.646	  10.005
     69.0006	  23.000	  17.165	-147.665	   9.999
     69.0340	  20.000	  17.186	-150.686	   9.993
     69.0675	  16.000	  17.209	-154.709	   9.988
     69.1009	  16.000	  17.234	-154.734	   9.982
     69.1343	  18.000	  17.262	-152.762	   9.976
     69.1677	  20.000	  17.292	-150.792	   9.971
     69.2011	  22.000	  17.324	-148.824	   9.965
     69.2346	  21.000	  17.359	-149.859	   9.960
     69.2680	  14.000	  17.397	-156.897	   9.954
     69.3014	  27.000	  17.438	-143.938	   9.949
     69.3348	  22.000	  17.482	-148.982	   9.943
     69.3683	  20.000	  17.529	-151.029	   9.938
     69.4017	  18.000	  17.579	-153.079	   9.933
     69.4351	  22.000	  17.633	-149.133	   9.927
     69.4685	  18.000	  17.691	-153.191	   9.922
     69.5019	  21.000	  17.753	-150.253	   9.917
     69.5354	  33.000	  17.819	-138.319	   9.911
     69.5688	  21.000	  17.889	-150.389	   9.906
     69.6022	  14.000	  17.964	-157.464	   9.901
     69.6356	  22.000	  18.045	-149.545	   9.896
     69.6691	  14.000	  18.130	-157.630	   9.891
     69.7025	  17.000	  18.221	-154.721	   9.886
     69.7359	  17.000	  18.318	-154.818	   9.880
     69.7693	  17.000	  18.422	-154.922	   9.875
     69.8027	  21.000	  18.532	-151.032	   9.870
     69.8362	  22.000	  18.650	-150.150	   9.865
     69.8696	  24.000	  18.775	-148.275	   9.860
     69.9030	  27.000	  18.908	-145.408	   9.855
     69.9364	  23.000	  19.049	-149.549	   9.850
     69.9699	  31.000	  19.200	-141.700	   9.846
     70.0033	  21.000	  19.361	-151.861	   9.841
     70.0367	  28.000	  19.531	-145.031	   9.836
     70.0701	  18.000	  19.713	-155.213	   9.831
     70.1036	  22.000	  19.906	-151.406	   9.826
     70.1370	  23.000	  20.111	-150.611	   9.821
     70.1704	  22.000	  20.328	-151.828	   9.817
     70.2038	  31.000	  20.559	-143.059	   9.812
     70.2372	  23.000	  20.803	-151.303	   9.807
     70.2707	  22.000	  21.061	-152.561	   9.803
     70.3041	  29.000	  21.334	-145.834	   9.798
     70.3375	  31.000	  21.622	-144.122	   9.793
     70.3709	  33.000	  21.924	-142.424	   9.789
     70.4044	  38.000	  22.241	-137.741	   9.784
     70.4378	  22.000	  22.572	-154.072	   9.780
     70.4712	  24.000	  22.917	-152.417	   9.775
     70.5046	  28.000	  23.274	-148.774	   9.771
     70.5380	  25.000	  23.643	-152.143	   9.766
     70.5715	  25.000	  24.020	-152.520	   9.762
     70.6049	  32.000	  24.403	-145.903	   9.758
     70.6383	  17.000	  24.790	-161.290	   9.753
     70.6717	  30.000	  25.175	-148.675	   9.749
     70.7052	  24.000	  25.555	-155.055	   9.745
     70.7386	  37.000	  25.926	-142.426	   9.740
     70.7720	  18.000	  26.280	-161.780	   9.736
     70.8054	  23.000	  26.612	-157.112	   9.732
     70.8388	  28.000	  26.918	-152.418	   9.728
     70.8723	  25.000	  27.190	-155.690	   9.724
     70.9057	  39.000	  27.424	-141.924	   9.719
     70.9391	  37.000	  27.614	-144.114	   9.715
     70.9725	  34.000	  27.758	-147.258	   9.711
     71.0060	  18.000	  27.851	-163.351	   9.707
     71.0394	  38.000	  27.894	-143.394	   9.703
     71.0728	  41.000	  27.886	-140.386	   9.699
     71.1062	  33.000	  27.827	-148.327	   9.695
     71.1396	  36.000	  27.721	-145.221	   9.691
     71.1731	  23.000	  27.570	-158.070	   9.687
     71.2065	  27.000	  27.379	-153.880	   9.684
     71.2399	  28.000	  27.154	-152.654	   9.680
     71.2733	  28.000	  26.898	-152.398	   9.676
     71.3068	  28.000	  26.618	-152.118	   9.672
     71.3402	  28.000	  26.320	-151.820	   9.668
     71.3736	  18.000	  26.008	-161.508	   9.665
     71.4070	  33.000	  25.689	-146.189	   9.661
     71.4405	  36.000	  25.366	-142.866	   9.657
     71.4739	  20.000	  25.045	-158.545	   9.653
     71.5073	  11.000	  24.728	-167.228	   9.650
     71.5407	  28.000	  24.419	-149.919	   9.646
     71.5741	  23.000	  24.121	-154.621	   9.643
     71.6076	  32.000	  23.834	-145.334	   9.639
     71.6410	  44.000	  23.562	-133.062	   9.636
     71.6744	  27.000	  23.305	-149.805	   9.632
     71.7078	  35.000	  23.063	-141.563	   9.629
     71.7413	  35.000	  22.839	-141.339	   9.625
     71.7747	  23.000	  22.630	-153.130	   9.622
     71.8081	  23.000	  22.439	-152.939	   9.618
     71.8415	  29.000	  22.264	-146.764	   9.615
     71.8749	  20.000	  22.106	-155.606	   9.612
     71.9084	  38.000	  21.965	-137.465	   9.608
     71.9418	  28.000	  21.839	-147.339	   9.605
     71.9752	  39.000	  21.728	-136.228	   9.602
     72.0086	  18.000	  21.633	-157.133	   9.599
     72.0421	  33.000	  21.553	-142.053	   9.595
     72.0755	  34.000	  21.488	-140.988	   9.592
     72.1089	  22.000	  21.437	-152.937	   9.589
     72.1423	  29.000	  21.399	-145.899	   9.586
     72.1758	  17.000	  21.376	-157.876	   9.583
     72.2092	  28.000	  21.366	-146.866	   9.580
     72.2426	  27.000	  21.369	-147.869	   9.577
     72.2760	  20.000	  21.386	-154.886	   9.574
     72.3094	  23.000	  21.415	-151.915	   9.571
     72.3429	  27.000	  21.458	-147.958	   9.568
     72.3763	  30.000	  21.514	-145.014	   9.565
     72.4097	  31.000	  21.583	-144.083	   9.562
     72.4431	  32.000	  21.665	-143.165	   9.559
     72.4766	  34.000	  21.761	-141.261	   9.556
     72.5100	  33.000	  21.871	-142.371	   9.554
     72.5434	  16.000	  21.995	-159.495	   9.551
     72.5768	  17.000	  22.133	-158.633	   9.548
     72.6102	  23.000	  22.286	-152.786	   9.545
     72.6437	  24.000	  22.454	-151.954	   9.543
     72.6771	  37.000	  22.638	-139.138	   9.540
     72.7105	  29.000	  22.838	-147.338	   9.537
     72.7439	  25.000	  23.055	-151.555	   9.535
     72.7774	  32.000	  23.290	-144.790	   9.532
     72.8108	  30.000	  23.544	-147.044	   9.530
     72.8442	  29.000	  23.817	-148.317	   9.527
     72.8776	  34.000	  24.110	-143.610	   9.525
     72.9110	  25.000	  24.425	-152.925	   9.522
     72.9445	  33.000	  24.762	-145.262	   9.520
     72.9779	  27.000	  25.123	-151.623	   9.517
     73.0113	  22.000	  25.508	-157.008	   9.515
     73.0447	  30.000	  25.919	-149.419	   9.513
     73.0782	  21.000	  26.357	-158.857	   9.510
     73.1116	  29.000	  26.823	-151.323	   9.508
     73.1450	  36.000	  27.319	-144.819	   9.506
     73.1784	  41.000	  27.846	-140.346	   9.503
     73.2118	  36.000	  28.406	-145.906	   9.501
     73.2453	  25.000	  28.998	-157.498	   9.499
     73.2787	  29.000	  29.625	-154.125	   9.497
     73.3121	  37.000	  30.287	-146.787	   9.495
     73.3455	  42.000	  30.985	-142.485	   9.492
     73.3790	  20.000	  31.719	-165.219	   9.490
     73.4124	  29.000	  32.488	-156.988	   9.488
     73.4458	  23.000	  33.293	-163.793	   9.486
     73.4792	  38.000	  34.132	-149.632	   9.484
     73.5126	  35.000	  35.003	-153.503	   9.482
     73.5461	  46.000	  35.902	-143.402	   9.480
     73.5795	  46.000	  36.827	-144.327	   9.478
     73.6129	  39.000	  37.771	-152.271	   9.477
     73.6463	  42.000	  38.728	-150.228	   9.475
     73.6798	  37.000	  39.692	-156.192	   9.473
     73.7132	  35.000	  40.652	-159.152	   9.471
     73.7466	  34.000	  41.599	-161.099	   9.469
     73.7800	  37.000	  42.522	-159.022	   9.467
     73.8135	  60.000	  43.409	-136.910	   9.466
     73.8469	  54.000	  44.249	-143.749	   9.464
     73.8803	  54.000	  45.027	-144.527	   9.462
     73.9137	  51.000	  45.733	-148.233	   9.461
     73.9471	  45.000	  46.357	-154.857	   9.459
     73.9806	  51.000	  46.888	-149.388	   9.458
     74.0140	  36.000	  47.320	-164.820	   9.456
     74.0474	  44.000	  47.647	-157.147	   9.454
     74.0808	  52.000	  47.868	-149.368	   9.453
     74.1143	  65.000	  47.982	-136.482	   9.451
     74.1477	  50.000	  47.994	-151.494	   9.450
     74.1811	  61.000	  47.907	-140.407	   9.449
     74.2145	  48.000	  47.730	-153.230	   9.447
     74.2479	  28.000	  47.473	-172.973	   9.446
     74.2814	  55.000	  47.145	-145.645	   9.444
     74.3148	  46.000	  46.759	-154.259	   9.443
     74.3482	  58.000	  46.327	-141.827	   9.442
     74.3816	  47.000	  45.860	-152.360	   9.441
     74.4151	  49.000	  45.371	-149.871	   9.439
     74.4485	  45.000	  44.869	-153.369	   9.438
     74.4819	  52.000	  44.366	-145.866	   9.437
     74.5153	  46.000	  43.868	-151.368	   9.436
     74.5488	  38.000	  43.383	-158.883	   9.435
     74.5822	  39.000	  42.917	-157.417	   9.434
     74.6156	  38.000	  42.471	-157.971	   9.433
     74.6490	  34.000	  42.048	-161.548	   9.431
     74.6824	  34.000	  41.649	-161.149	   9.430
     74.7159	  28.000	  41.272	-166.772	   9.429
     74.7493	  36.000	  40.914	-158.414	   9.429
     74.7827	  38.000	  40.571	-156.071	   9.428
     74.8161	  38.000	  40.239	-155.739	   9.427
     74.8495	  48.000	  39.913	-145.413	   9.426
     74.8830	  34.000	  39.586	-159.086	   9.425
     74.9164	  46.000	  39.252	-146.752	   9.424
     74.9498	  47.000	  38.906	-145.406	   9.423
     74.9832	  38.000	  38.543	-154.043	   9.423
     75.0167	  41.000	  38.157	-150.657	   9.422
     75.0501	  51.000	  37.747	-140.247	   9.421
     75.0835	  37.000	  37.308	-153.808	   9.420
     75.1169	  44.000	  36.840	-146.340	   9.420
     75.1504	  34.000	  36.343	-155.843	   9.419
     75.1838	  34.000	  35.817	-155.317	   9.419
     75.2172	  32.000	  35.265	-156.765	   9.418
     75.2506	  31.000	  34.689	-157.189	   9.417
     75.2840	  31.000	  34.094	-156.594	   9.417
     75.3175	  29.000	  33.482	-157.982	   9.416
     75.3509	  41.000	  32.859	-145.359	   9.416
     75.3843	  30.000	  32.228	-155.728	   9.416
     75.4177	  42.000	  31.594	-143.094	   9.415
     75.4512	  42.000	  30.961	-142.461	   9.415
     75.4846	  29.000	  30.334	-154.834	   9.414
     75.5180	  32.000	  29.716	-151.216	   9.414
     75.5514	  22.000	  29.109	-160.609	   9.414
     75.5848	  22.000	  28.517	-160.017	   9.414
     75.6183	  24.000	  27.941	-157.441	   9.413
     75.6517	  25.000	  27.384	-155.884	   9.413
     75.6851	  24.000	  26.846	-156.346	   9.413
     75.7185	  31.000	  26.329	-148.829	   9.413
     75.7520	  28.000	  25.832	-151.332	   9.413
     75.7854	  28.000	  25.357	-150.857	   9.413
     75.8188	  18.000	  24.904	-160.404	   9.412
     75.8522	  27.000	  24.471	-150.971	   9.412
     75.8857	  33.000	  24.059	-144.559	   9.412
     75.9191	  25.000	  23.667	-152.167	   9.412
     75.9525	  19.000	  23.294	-157.794	   9.412
     75.9859	  22.000	  22.941	-154.441	   9.413
     76.0193	  25.000	  22.606	-151.106	   9.413
     76.0528	  23.000	  22.288	-152.788	   9.413
     76.0862	  36.000	  21.986	-139.486	   9.413
     76.1196	  16.000	  21.701	-159.201	   9.413
     76.1530	  20.000	  21.430	-154.930	   9.413
     76.1865	  31.000	  21.174	-143.674	   9.413
     76.2199	  23.000	  20.931	-151.431	   9.414
     76.2533	  18.000	  20.702	-156.202	   9.414
     76.2867	  17.000	  20.485	-156.985	   9.414
     76.3201	  27.000	  20.279	-146.779	   9.415
     76.3536	  18.000	  20.084	-155.584	   9.415
     76.3870	  21.000	  19.900	-152.400	   9.415
     76.4204	  28.000	  19.726	-145.226	   9.416
     76.4538	  21.000	  19.561	-152.061	   9.416
     76.4873	  20.000	  19.405	-152.905	   9.417
     76.5207	  11.000	  19.258	-161.758	   9.417
     76.5541	  20.000	  19.119	-152.619	   9.418
     76.5875	  22.000	  18.988	-150.488	   9.418
     76.6209	  19.000	  18.864	-153.364	   9.419
     76.6544	  27.000	  18.747	-145.247	   9.420
     76.6878	  19.000	  18.637	-153.137	   9.420
     76.7212	  24.000	  18.533	-148.033	   9.421
     76.7546	  12.000	  18.435	-159.935	   9.422
     76.7881	  25.000	  18.344	-146.844	   9.422
     76.8215	  18.000	  18.258	-153.758	   9.423
     76.8549	  24.000	  18.177	-147.677	   9.424
     76.8883	  11.000	  18.102	-160.602	   9.425
     76.9218	  11.000	  18.032	-160.532	   9.426
     76.9552	  18.000	  17.967	-153.467	   9.426
     76.9886	  27.000	  17.907	-144.407	   9.427
     77.0220	  27.000	  17.851	-144.351	   9.428
     77.0554	  18.000	  17.800	-153.300	   9.429
     77.0889	  24.000	  17.754	-147.254	   9.430
     77.1223	  19.000	  17.712	-152.212	   9.431
     77.1557	  25.000	  17.675	-146.175	   9.432
     77.1891	  19.000	  17.642	-152.142	   9.433
     77.2225	  14.000	  17.613	-157.113	   9.434
     77.2560	  17.000	  17.589	-154.089	   9.435
     77.2894	  19.000	  17.569	-152.069	   9.437
     77.3228	  19.000	  17.553	-152.053	   9.438
     77.3562	  22.000	  17.541	-149.041	   9.439
     77.3897	  18.000	  17.534	-153.034	   9.440
     77.4231	  28.000	  17.531	-143.031	   9.441
     77.4565	  17.000	  17.532	-154.032	   9.443
     77.4899	  28.000	  17.538	-143.038	   9.444
     77.5234	  31.000	  17.549	-140.049	   9.445
     77.5568	  21.000	  17.564	-150.064	   9.447
     77.5902	  15.000	  17.584	-156.084	   9.448
     77.6236	  12.000	  17.609	-159.109	   9.449
     77.6570	  23.000	  17.639	-148.139	   9.451
     77.6905	  15.000	  17.674	-156.174	   9.452
     77.7239	  22.000	  17.714	-149.214	   9.454
     77.7573	  14.000	  17.760	-157.260	   9.455
     77.7907	  22.000	  17.812	-149.312	   9.457
     77.8242	  30.000	  17.870	-141.370	   9.459
     77.8576	  25.000	  17.934	-146.434	   9.460
     77.8910	  21.000	  18.004	-150.504	   9.462
     77.9244	  17.000	  18.081	-154.581	   9.463
     77.9578	  18.000	  18.165	-153.665	   9.465
     77.9913	  28.000	  18.256	-143.756	   9.467
     78.0247	  27.000	  18.354	-144.854	   9.469
     78.0581	  12.000	  18.460	-159.960	   9.470
     78.0915	  21.000	  18.574	-151.074	   9.472
     78.1250	  18.000	  18.696	-154.196	   9.474
     78.1584	  21.000	  18.827	-151.327	   9.476
     78.1918	  20.000	  18.966	-152.466	   9.478
     78.2252	  27.000	  19.114	-145.614	   9.480
     78.2587	  15.000	  19.270	-157.770	   9.482
     78.2921	  23.000	  19.436	-149.936	   9.484
     78.3255	  22.000	  19.610	-151.110	   9.486
     78.3589	  20.000	  19.793	-153.293	   9.488
     78.3923	  27.000	  19.984	-146.484	   9.490
     78.4258	  22.000	  20.182	-151.682	   9.492
     78.4592	  17.000	  20.388	-156.888	   9.494
     78.4926	  22.000	  20.600	-152.100	   9.496
     78.5260	  20.000	  20.816	-154.316	   9.498
     78.5595	  30.000	  21.037	-144.537	   9.500
     78.5929	  23.000	  21.259	-151.759	   9.503
     78.6263	  34.000	  21.481	-140.981	   9.505
     78.6597	  27.000	  21.701	-148.201	   9.507
     78.6931	  21.000	  21.916	-154.416	   9.509
     78.7266	  21.000	  22.124	-154.624	   9.512
     78.7600	  24.000	  22.322	-151.822	   9.514
     78.7934	  18.000	  22.505	-158.005	   9.516
     78.8268	  27.000	  22.673	-149.173	   9.519
     78.8603	  25.000	  22.821	-151.321	   9.521
     78.8937	  23.000	  22.948	-153.448	   9.524
     78.9271	  31.000	  23.050	-145.550	   9.526
     78.9605	  21.000	  23.126	-155.626	   9.529
     78.9939	  29.000	  23.173	-147.673	   9.531
     79.0274	  35.000	  23.192	-141.692	   9.534
     79.0608	  25.000	  23.182	-151.682	   9.536
     79.0942	  30.000	  23.142	-146.642	   9.539
     79.1276	  30.000	  23.074	-146.574	   9.542
     79.1611	  23.000	  22.978	-153.478	   9.544
     79.1945	  28.000	  22.857	-148.357	   9.547
     79.2279	  27.000	  22.713	-149.213	   9.550
     79.2613	  33.000	  22.548	-143.048	   9.553
     79.2947	  27.000	  22.364	-148.864	   9.555
     79.3282	  24.000	  22.164	-151.664	   9.558
     79.3616	  21.000	  21.952	-154.452	   9.561
     79.3950	  22.000	  21.730	-153.230	   9.564
     79.4284	  14.000	  21.501	-161.001	   9.567
     79.4619	  32.000	  21.267	-142.767	   9.570
     79.4953	  24.000	  21.030	-150.530	   9.573
     79.5287	  16.000	  20.793	-158.293	   9.576
     79.5621	  36.000	  20.558	-138.058	   9.579
     79.5956	  19.000	  20.315	-154.815	   9.582
     79.6290	  18.000	  20.087	-155.587	   9.585
     79.6624	  25.000	  19.865	-148.365	   9.588
     79.6958	  25.000	  19.649	-148.149	   9.591
     79.7292	  33.000	  19.440	-139.940	   9.594
     79.7627	  25.000	  19.234	-147.734	   9.598
     79.7961	  27.000	  19.041	-145.541	   9.601
     79.8295	  22.000	  18.856	-150.356	   9.604
     79.8629	  12.000	  18.680	-160.180	   9.607
     79.8964	  18.000	  18.512	-154.012	   9.611
     79.9298	  24.000	  18.352	-147.852	   9.614
     79.9632	  25.000	  18.201	-146.701	   9.617
     79.9966	  24.000	  18.057	-147.557	   9.621
     80.0300	  19.000	  17.921	-152.421	   9.624
     80.0635	  19.000	  17.792	-152.292	   9.627
     80.0969	  18.000	  17.671	-153.171	   9.631
     80.1303	  17.000	  17.557	-154.057	   9.634
     80.1637	  22.000	  17.449	-148.949	   9.638
     80.1972	  14.000	  17.348	-156.848	   9.641
     80.2306	  14.000	  17.253	-156.753	   9.645
     80.2640	  18.000	  17.163	-152.663	   9.649
     80.2974	  17.000	  17.080	-153.580	   9.652
     80.3308	  30.000	  17.002	-140.502	   9.656
     80.3643	  20.000	  16.928	-150.428	   9.660
     80.3977	  22.000	  16.860	-148.360	   9.663
     80.4311	  28.000	  16.797	-142.297	   9.667
     80.4645	  22.000	  16.738	-148.238	   9.671
     80.4980	  12.000	  16.684	-158.184	   9.675
     80.5314	  20.000	  16.633	-150.133	   9.678
     80.5648	  18.000	  16.587	-152.087	   9.682
     80.5982	  21.000	  16.545	-149.045	   9.686
     80.6317	  19.000	  16.506	-151.006	   9.690
     80.6651	  18.000	  16.471	-151.971	   9.694
     80.6985	  24.000	  16.440	-145.940	   9.698
     80.7319	   9.000	  16.412	-160.912	   9.702
     80.7653	  24.000	  16.388	-145.888	   9.706
     80.7988	  24.000	  16.367	-145.867	   9.710
     80.8322	  19.000	  16.349	-150.849	   9.714
     80.8656	  19.000	  16.334	-150.834	   9.718
     80.8990	  14.000	  16.322	-155.822	   9.722
     80.9324	  22.000	  16.314	-147.814	   9.726
     80.9659	  19.000	  16.308	-150.808	   9.730
     80.9993	  24.000	  16.306	-145.806	   9.735
     81.0327	  18.000	  16.306	-151.806	   9.739
     81.0661	  27.000	  16.310	-142.810	   9.743
     81.0996	  20.000	  16.316	-149.816	   9.747
     81.1330	  20.000	  16.325	-149.825	   9.752
     81.1664	  21.000	  16.338	-148.838	   9.756
     81.1998	  22.000	  16.352	-147.852	   9.760
     81.2333	  10.000	  16.370	-159.870	   9.765
     81.2667	  23.000	  16.390	-146.890	   9.769
     81.3001	  18.000	  16.413	-151.913	   9.774
     81.3335	  18.000	  16.438	-151.938	   9.778
     81.3669	  12.000	  16.465	-157.965	   9.783
     81.4004	  20.000	  16.494	-149.994	   9.787
     81.4338	  20.000	  16.526	-150.026	   9.792
     81.4672	  27.000	  16.558	-143.058	   9.796
     81.5006	  23.000	  16.592	-147.092	   9.801
     81.5341	  20.000	  16.627	-150.127	   9.806
     81.5675	  17.000	  16.662	-153.162	   9.810
     81.6009	  17.000	  16.698	-153.198	   9.815
     81.6343	  11.000	  16.732	-159.232	   9.820
     81.6677	  23.000	  16.766	-147.266	   9.825
     81.7012	  17.000	  16.799	-153.299	   9.829
     81.7346	  27.000	  16.829	-143.329	   9.834
     81.7680	  17.000	  16.856	-153.356	   9.839
     81.8014	  14.000	  16.881	-156.381	   9.844
     81.8349	  29.000	  16.902	-141.402	   9.849
     81.8683	  16.000	  16.919	-154.419	   9.854
     81.9017	  24.000	  16.931	-146.431	   9.859
     81.9351	  11.000	  16.939	-159.439	   9.864
     81.9686	  24.000	  16.942	-146.442	   9.869
     82.0020	  14.000	  16.940	-156.440	   9.874
     82.0354	  17.000	  16.933	-153.433	   9.879
     82.0688	  16.000	  16.922	-154.422	   9.884
     82.1022	  15.000	  16.905	-155.405	   9.889
     82.1357	  20.000	  16.885	-150.385	   9.894
     82.1691	  20.000	  16.861	-150.361	   9.899
     82.2025	  18.000	  16.833	-152.333	   9.904
     82.2359	  20.000	  16.802	-150.302	   9.910
     82.2694	  10.000	  16.768	-160.268	   9.915
     82.3028	  21.000	  16.733	-149.233	   9.920
     82.3362	  23.000	  16.696	-147.196	   9.925
     82.3696	  18.000	  16.657	-152.157	   9.931
     82.4030	  17.000	  16.618	-153.118	   9.936
     82.4365	  10.000	  16.579	-160.079	   9.942
     82.4699	  17.000	  16.540	-153.040	   9.947
     82.5033	  21.000	  16.501	-149.001	   9.952
     82.5367	  18.000	  16.463	-151.963	   9.958
     82.5702	  25.000	  16.427	-144.927	   9.963
     82.6036	  19.000	  16.391	-150.891	   9.969
     82.6370	  15.000	  16.357	-154.857	   9.974
     82.6704	  15.000	  16.324	-154.824	   9.980
     82.7038	  25.000	  16.294	-144.794	   9.986
     82.7373	  20.000	  16.265	-149.765	   9.991
     82.7707	  22.000	  16.238	-147.738	   9.997
     82.8041	  12.000	  16.212	-157.712	  10.003
     82.8375	  27.000	  16.189	-142.689	  10.008
     82.8710	  18.000	  16.168	-151.668	  10.014
     82.9044	  17.000	  16.148	-152.648	  10.020
     82.9378	  16.000	  16.131	-153.631	  10.026
     82.9712	  22.000	  16.115	-147.615	  10.032
     83.0046	   7.000	  16.101	-162.601	  10.037
     83.0381	  15.000	  16.089	-154.589	  10.043
     83.0715	  14.000	  16.079	-155.579	  10.049
     83.1049	  21.000	  16.070	-148.570	  10.055
     83.1383	  27.000	  16.063	-142.563	  10.061
     83.1718	  19.000	  16.057	-150.557	  10.067
     83.2052	  11.000	  16.053	-158.553	  10.073
     83.2386	  21.000	  16.051	-148.551	  10.079
     83.2720	  19.000	  16.050	-150.550	  10.085
     83.3055	  14.000	  16.050	-155.550	  10.091
     83.3389	  22.000	  16.052	-147.552	  10.098
     83.3723	  21.000	  16.055	-148.555	  10.104
     83.4057	  21.000	  16.060	-148.560	  10.110
     83.4391	  20.000	  16.066	-149.566	  10.116
     83.4726	  15.000	  16.073	-154.573	  10.122
     83.5060	  10.000	  16.081	-159.581	  10.129
     83.5394	  24.000	  16.091	-145.591	  10.135
     83.5728	  14.000	  16.101	-155.601	  10.141
     83.6063	  15.000	  16.113	-154.613	  10.148
     83.6397	  19.000	  16.127	-150.627	  10.154
     83.6731	  15.000	  16.141	-154.641	  10.160
     83.7065	  20.000	  16.156	-149.656	  10.167
     83.7399	  16.000	  16.173	-153.673	  10.173
     83.7734	  23.000	  16.190	-146.690	  10.180
     83.8068	  16.000	  16.209	-153.709	  10.186
     83.8402	  23.000	  16.229	-146.729	  10.193
     83.8736	  17.000	  16.250	-152.750	  10.199
     83.9071	  23.000	  16.272	-146.772	  10.206
     83.9405	  34.000	  16.296	-135.796	  10.213
     83.9739	  20.000	  16.320	-149.820	  10.219
     84.0073	  29.000	  16.346	-140.846	  10.226
     84.0407	  18.000	  16.373	-151.873	  10.233
     84.0742	  22.000	  16.400	-147.900	  10.240
     84.1076	  16.000	  16.430	-153.930	  10.246
     84.1410	  18.000	  16.460	-151.960	  10.253
     84.1744	  24.000	  16.492	-145.992	  10.260
     84.2079	  17.000	  16.525	-153.025	  10.267
     84.2413	  21.000	  16.559	-149.059	  10.274
     84.2747	  22.000	  16.594	-148.094	  10.281
     84.3081	  18.000	  16.631	-152.131	  10.287
     84.3416	  18.000	  16.669	-152.169	  10.294
     84.3750	  19.000	  16.709	-151.209	  10.301
     84.4084	  14.000	  16.750	-156.250	  10.308
     84.4418	  22.000	  16.793	-148.293	  10.315
     84.4752	  21.000	  16.803	-149.303	  10.323
     84.5087	  17.000	  16.849	-153.349	  10.330
     84.5421	  16.000	  16.896	-154.396	  10.337
     84.5755	  11.000	  16.945	-159.445	  10.344
     84.6089	  10.000	  16.996	-160.496	  10.351
     84.6424	  24.000	  17.049	-146.549	  10.358
     84.6758	  16.000	  17.087	-154.587	  10.366
     84.7092	  27.000	  17.144	-143.644	  10.373
     84.7426	  29.000	  17.203	-141.703	  10.380
     84.7760	  23.000	  17.264	-147.764	  10.387
     84.8095	  15.000	  17.327	-155.827	  10.395
     84.8429	  30.000	  17.393	-140.893	  10.402
     84.8763	  21.000	  17.461	-149.961	  10.410
     84.9097	  14.000	  17.531	-157.031	  10.417
     84.9432	  20.000	  17.605	-151.105	  10.425
     84.9766	  22.000	  17.681	-149.181	  10.432
     85.0100	  20.000	  17.759	-151.259	  10.440
     85.0434	  27.000	  17.841	-144.341	  10.447
     85.0768	  22.000	  17.926	-149.426	  10.455
     85.1103	  12.000	  18.015	-159.515	  10.462
     85.1437	  27.000	  18.106	-144.606	  10.470
     85.1771	  24.000	  18.202	-147.702	  10.477
     85.2105	  19.000	  18.301	-152.801	  10.485
     85.2440	  17.000	  18.404	-154.904	  10.493
     85.2774	  22.000	  18.511	-150.011	  10.501
     85.3108	  18.000	  18.623	-154.123	  10.508
     85.3442	  17.000	  18.739	-155.239	  10.516
     85.3776	  20.000	  18.860	-152.360	  10.524
     85.4111	  29.000	  18.986	-143.486	  10.532
     85.4445	  25.000	  19.118	-147.618	  10.540
     85.4779	  28.000	  19.255	-144.755	  10.548
     85.5113	  19.000	  19.397	-153.897	  10.556
     85.5448	  28.000	  19.546	-145.046	  10.564
     85.5782	  12.000	  19.701	-161.201	  10.571
     85.6116	  21.000	  19.863	-152.363	  10.580
     85.6450	  14.000	  20.031	-159.531	  10.588
     85.6785	  33.000	  20.207	-140.707	  10.596
     85.7119	  27.000	  20.390	-146.890	  10.604
     85.7453	  25.000	  20.581	-149.081	  10.612
     85.7787	  14.000	  20.780	-160.280	  10.620
     85.8121	  25.000	  20.988	-149.488	  10.628
     85.8456	  17.000	  21.203	-157.703	  10.636
     85.8790	  25.000	  21.428	-149.928	  10.645
     85.9124	  36.000	  21.662	-139.162	  10.653
     85.9458	  19.000	  21.904	-156.404	  10.661
     85.9793	  20.000	  22.156	-155.656	  10.669
     86.0127	  34.000	  22.417	-141.917	  10.678
     86.0461	  27.000	  22.687	-149.187	  10.686
     86.0795	  29.000	  22.966	-147.466	  10.695
     86.1129	  20.000	  23.254	-156.754	  10.703
     86.1464	  31.000	  23.550	-146.050	  10.711
     86.1798	  32.000	  23.853	-145.353	  10.720
     86.2132	  28.000	  24.164	-149.664	  10.728
     86.2466	  29.000	  24.480	-148.980	  10.737
     86.2801	  31.000	  24.801	-147.301	  10.746
     86.3135	  23.000	  25.125	-155.625	  10.754
     86.3469	  24.000	  25.452	-154.952	  10.763
     86.3803	  31.000	  25.778	-148.277	  10.771
     86.4137	  32.000	  26.101	-147.601	  10.780
     86.4472	  39.000	  26.421	-140.921	  10.789
     86.4806	  21.000	  26.733	-159.233	  10.798
     86.5140	  32.000	  27.036	-148.536	  10.806
     86.5474	  19.000	  27.327	-161.827	  10.815
     86.5809	  29.000	  27.603	-152.103	  10.824
     86.6143	  25.000	  27.861	-156.361	  10.833
     86.6477	  35.000	  28.100	-146.600	  10.842
     86.6811	  37.000	  28.316	-144.816	  10.850
     86.7146	  27.000	  28.509	-155.009	  10.859
     86.7480	  32.000	  28.675	-150.175	  10.868
     86.7814	  31.000	  28.814	-151.314	  10.877
     86.8148	  23.000	  28.925	-159.425	  10.886
     86.8482	  35.000	  29.008	-147.508	  10.895
     86.8817	  28.000	  29.063	-154.563	  10.904
     86.9151	  24.000	  29.090	-158.590	  10.914
     86.9485	  24.000	  29.091	-158.591	  10.923
     86.9819	  24.000	  29.067	-158.567	  10.932
     87.0154	  34.000	  29.019	-148.519	  10.941
     87.0488	  35.000	  28.950	-147.450	  10.950
     87.0822	  29.000	  28.863	-153.363	  10.959
     87.1156	  24.000	  28.759	-158.259	  10.969
     87.1490	  24.000	  28.641	-158.141	  10.978
     87.1825	  15.000	  28.513	-167.013	  10.987
     87.2159	  38.000	  28.376	-143.876	  10.997
     87.2493	  23.000	  28.233	-158.733	  11.006
     87.2827	  37.000	  28.088	-144.588	  11.015
     87.3162	  27.000	  27.942	-154.442	  11.025
     87.3496	  37.000	  27.797	-144.297	  11.034
     87.3830	  21.000	  27.656	-160.156	  11.044
     87.4164	  30.000	  27.520	-151.020	  11.053
     87.4498	  33.000	  27.392	-147.892	  11.063
     87.4833	  32.000	  27.272	-148.772	  11.072
     87.5167	  28.000	  27.162	-152.662	  11.082
     87.5501	  33.000	  27.064	-147.564	  11.091
     87.5835	  37.000	  26.977	-143.477	  11.101
     87.6170	  22.000	  26.903	-158.403	  11.111
     87.6504	  36.000	  26.843	-144.343	  11.120
     87.6838	  28.000	  26.797	-152.297	  11.130
     87.7172	  25.000	  26.766	-155.266	  11.140
     87.7506	  25.000	  26.750	-155.250	  11.150
     87.7841	  27.000	  26.749	-153.249	  11.159
     87.8175	  23.000	  26.764	-157.264	  11.169
     87.8509	  29.000	  26.795	-151.295	  11.179
     87.8843	  31.000	  26.842	-149.342	  11.189
     87.9178	  22.000	  26.905	-158.405	  11.199
     87.9512	  24.000	  26.986	-156.486	  11.209
     87.9846	  34.000	  27.083	-146.583	  11.219
     88.0180	  41.000	  27.198	-139.698	  11.229
     88.0515	  29.000	  27.330	-151.830	  11.239
     88.0849	  31.000	  27.479	-149.979	  11.249
     88.1183	  25.000	  27.647	-156.147	  11.259
     88.1517	  23.000	  27.833	-158.333	  11.269
     88.1851	  22.000	  28.039	-159.539	  11.279
     88.2186	  31.000	  28.263	-150.763	  11.289
     88.2520	  24.000	  28.507	-158.007	  11.300
     88.2854	  46.000	  28.771	-136.271	  11.310
     88.3188	  31.000	  29.056	-151.556	  11.320
     88.3523	  20.000	  29.362	-162.862	  11.330
     88.3857	  36.000	  29.689	-147.189	  11.341
     88.4191	  24.000	  30.040	-159.540	  11.351
     88.4525	  25.000	  30.413	-158.913	  11.361
     88.4859	  25.000	  30.810	-159.310	  11.372
     88.5194	  44.000	  31.231	-140.731	  11.382
     88.5528	  36.000	  31.678	-149.178	  11.393
     88.5862	  27.000	  32.150	-158.650	  11.403
     88.6196	  33.000	  32.649	-153.149	  11.414
     88.6531	  41.000	  33.174	-145.674	  11.424
     88.6865	  25.000	  33.728	-162.228	  11.435
     88.7199	  33.000	  34.309	-154.809	  11.445
     88.7533	  38.000	  34.920	-150.420	  11.456
     88.7868	  38.000	  35.559	-151.059	  11.467
     88.8202	  47.000	  36.227	-142.727	  11.477
     88.8536	  25.000	  36.925	-165.425	  11.488
     88.8870	  47.000	  37.651	-144.151	  11.499
     88.9204	  30.000	  38.406	-161.906	  11.509
     88.9539	  42.000	  39.188	-150.688	  11.520
     88.9873	  34.000	  39.997	-159.497	  11.531
     89.0207	  46.000	  40.830	-148.330	  11.542
     89.0541	  44.000	  41.686	-151.186	  11.553
     89.0875	  45.000	  42.562	-151.062	  11.563
     89.1210	  45.000	  43.455	-151.955	  11.574
     89.1544	  50.000	  44.361	-147.861	  11.585
     89.1878	  44.000	  45.275	-154.775	  11.596
     89.2212	  50.000	  46.193	-149.693	  11.607
     89.2547	  42.000	  47.108	-158.608	  11.618
     89.2881	  43.000	  48.013	-158.513	  11.629
     89.3215	  59.000	  48.902	-143.402	  11.640
     89.3549	  44.000	  49.767	-159.267	  11.652
     89.3884	  44.000	  50.600	-160.100	  11.663
     89.4218	  46.000	  51.392	-158.892	  11.674
     89.4552	  45.000	  52.134	-160.634	  11.685
     89.4886	  51.000	  52.818	-155.318	  11.696
     89.5220	  43.000	  53.436	-163.936	  11.707
     89.5555	  42.000	  53.981	-165.481	  11.719
     89.5889	  47.000	  54.444	-160.944	  11.730
     89.6223	  45.000	  54.820	-163.320	  11.741
     89.6557	  41.000	  55.104	-167.604	  11.753
     89.6892	  48.000	  55.293	-160.793	  11.764
     89.7226	  45.000	  55.384	-163.884	  11.775
     89.7560	  39.000	  55.376	-169.876	  11.787
     89.7894	  56.000	  55.269	-152.769	  11.798
     89.8228	  54.000	  55.065	-154.565	  11.810
     89.8563	  47.000	  54.768	-161.268	  11.821
     89.8897	  49.000	  54.382	-158.882	  11.833
     89.9231	  38.000	  53.912	-169.413	  11.844
     89.9565	  46.000	  53.365	-160.865	  11.856
     89.9900	  42.000	  52.747	-164.247	  11.868
     90.0234	  35.000	  52.065	-170.565	  11.879
     90.0568	  44.000	  51.329	-160.829	  11.891
     90.0902	  61.000	  50.545	-143.045	  11.903
     90.1236	  49.000	  49.721	-154.221	  11.915
     90.1571	  50.000	  48.866	-152.366	  11.926
     90.1905	  48.000	  47.987	-153.487	  11.938
     90.2239	  35.000	  47.091	-165.591	  11.950
     90.2573	  55.000	  46.184	-144.684	  11.962
     90.2908	  47.000	  45.274	-151.774	  11.974
     90.3242	  52.000	  44.366	-145.866	  11.986
     90.3576	  35.000	  43.463	-161.963	  11.997
     90.3910	  35.000	  42.572	-161.072	  12.009
     90.4245	  38.000	  41.695	-157.195	  12.021
     90.4579	  38.000	  40.836	-156.336	  12.033
     90.4913	  42.000	  39.997	-151.497	  12.045
     90.5247	  51.000	  39.181	-141.681	  12.058
     90.5581	  39.000	  38.388	-152.888	  12.070
     90.5916	  47.000	  37.621	-144.121	  12.082
     90.6250	  32.000	  36.880	-158.380	  12.094
     90.6584	  27.000	  36.166	-162.666	  12.106
     90.6918	  34.000	  35.478	-154.978	  12.118
     90.7253	  34.000	  34.817	-154.317	  12.131
     90.7587	  33.000	  34.183	-154.683	  12.143
     90.7921	  32.000	  33.576	-155.076	  12.155
     90.8255	  36.000	  32.994	-150.494	  12.167
     90.8589	  24.000	  32.437	-161.937	  12.180
     90.8924	  33.000	  31.905	-152.405	  12.192
     90.9258	  32.000	  31.397	-152.897	  12.204
     90.9592	  37.000	  30.913	-147.413	  12.217
     90.9926	  22.000	  30.450	-161.950	  12.229
     91.0261	  15.000	  30.009	-168.509	  12.242
     91.0595	  39.000	  29.589	-144.089	  12.254
     91.0929	  32.000	  29.188	-150.688	  12.267
     91.1263	  27.000	  28.807	-155.307	  12.279
     91.1598	  31.000	  28.444	-150.944	  12.292
     91.1932	  32.000	  28.098	-149.598	  12.305
     91.2266	  29.000	  27.769	-152.269	  12.317
     91.2600	  22.000	  27.457	-158.957	  12.330
     91.2934	  16.000	  27.159	-164.659	  12.343
     91.3269	  30.000	  26.877	-150.377	  12.355
     91.3603	  30.000	  26.608	-150.108	  12.368
     91.3937	  34.000	  26.352	-145.852	  12.381
     91.4271	  22.000	  26.110	-157.610	  12.394
     91.4605	  21.000	  25.880	-158.380	  12.407
     91.4940	  34.000	  25.661	-145.161	  12.420
     91.5274	  35.000	  25.454	-143.954	  12.432
     91.5608	  22.000	  25.257	-156.757	  12.445
     91.5942	  32.000	  25.071	-146.571	  12.458
     91.6277	  25.000	  24.894	-153.394	  12.471
     91.6611	  28.000	  24.727	-150.227	  12.484
     91.6945	  20.000	  24.569	-158.069	  12.497
     91.7279	  15.000	  24.420	-162.920	  12.510
     91.7614	  19.000	  24.279	-158.779	  12.523
     91.7948	  22.000	  24.146	-155.646	  12.537
     91.8282	  22.000	  24.021	-155.521	  12.550
     91.8616	  22.000	  23.903	-155.403	  12.563
     91.8950	  23.000	  23.793	-154.293	  12.576
     91.9285	  27.000	  23.690	-150.190	  12.589
     91.9619	  24.000	  23.593	-153.093	  12.603
     91.9953	  21.000	  23.503	-156.003	  12.616
     92.0287	  23.000	  23.420	-153.920	  12.629
     92.0622	  19.000	  23.342	-157.842	  12.643
     92.0956	  17.000	  23.271	-159.771	  12.656
     92.1290	  25.000	  23.205	-151.705	  12.669
     92.1624	  23.000	  23.146	-153.646	  12.683
     92.1958	  15.000	  23.091	-161.591	  12.696
     92.2293	  22.000	  23.043	-154.543	  12.710
     92.2627	  35.000	  23.000	-141.500	  12.723
     92.2961	  25.000	  22.962	-151.462	  12.737
     92.3295	  28.000	  22.930	-148.430	  12.750
     92.3630	  21.000	  22.859	-155.359	  12.764
     92.3964	  33.000	  22.837	-143.337	  12.777
     92.4298	  31.000	  22.821	-145.321	  12.791
     92.4632	  21.000	  22.809	-155.309	  12.805
     92.4967	  25.000	  22.802	-151.302	  12.818
     92.5301	  21.000	  22.801	-155.301	  12.832
     92.5635	  22.000	  22.804	-154.304	  12.846
     92.5969	  19.000	  22.792	-157.292	  12.860
     92.6303	  24.000	  22.806	-152.306	  12.873
     92.6638	  22.000	  22.825	-154.325	  12.887
     92.6972	  21.000	  22.849	-155.349	  12.901
     92.7306	  30.000	  22.879	-146.379	  12.915
     92.7640	  27.000	  22.914	-149.414	  12.929
     92.7975	  17.000	  22.955	-159.455	  12.943
     92.8309	  21.000	  23.001	-155.501	  12.957
     92.8643	  23.000	  23.052	-153.552	  12.971
     92.8977	  16.000	  23.110	-160.610	  12.985
     92.9311	  25.000	  23.173	-151.673	  12.999
     92.9646	  17.000	  23.243	-159.743	  13.013
     92.9980	  18.000	  23.318	-158.818	  13.027
     93.0314	  21.000	  23.400	-155.900	  13.041
     93.0648	  25.000	  23.489	-151.989	  13.056
     93.0983	  31.000	  23.584	-146.084	  13.070
     93.1317	  19.000	  23.686	-158.186	  13.084
     93.1651	  31.000	  23.795	-146.295	  13.098
     93.1985	  32.000	  23.911	-145.411	  13.112
     93.2319	  28.000	  24.035	-149.535	  13.127
     93.2654	  22.000	  24.166	-155.666	  13.141
     93.2988	  17.000	  24.306	-160.806	  13.155
     93.3322	  22.000	  24.453	-155.953	  13.170
     93.3656	  28.000	  24.608	-150.108	  13.184
     93.3991	  22.000	  24.772	-156.272	  13.199
     93.4325	  21.000	  24.945	-157.445	  13.213
     93.4659	  27.000	  25.126	-151.626	  13.228
     93.4993	  27.000	  25.317	-151.817	  13.242
     93.5327	  28.000	  25.516	-151.016	  13.257
     93.5662	  21.000	  25.725	-158.225	  13.271
     93.5996	  27.000	  25.942	-152.442	  13.286
     93.6330	  25.000	  26.169	-154.669	  13.301
     93.6664	  33.000	  26.405	-146.905	  13.315
     93.6999	  20.000	  26.649	-160.149	  13.330
     93.7333	  20.000	  26.903	-160.403	  13.345
     93.7667	  24.000	  27.164	-156.664	  13.359
     93.8001	  17.000	  27.433	-163.933	  13.374
     93.8335	  18.000	  27.710	-163.210	  13.389
     93.8670	  34.000	  27.993	-147.493	  13.404
     93.9004	  18.000	  28.281	-163.781	  13.419
     93.9338	  36.000	  28.574	-146.074	  13.434
     93.9672	  27.000	  28.871	-155.371	  13.448
     94.0007	  36.000	  29.169	-146.669	  13.463
     94.0341	  33.000	  29.468	-149.968	  13.478
     94.0675	  28.000	  29.765	-155.265	  13.493
     94.1009	  28.000	  30.058	-155.558	  13.508
     94.1344	  30.000	  30.346	-153.846	  13.523
     94.1678	  23.000	  30.627	-161.127	  13.538
     94.2012	  27.000	  30.897	-157.397	  13.554
     94.2346	  37.000	  31.154	-147.654	  13.569
     94.2680	  31.000	  31.397	-153.897	  13.584
     94.3015	  39.000	  31.622	-146.122	  13.599
     94.3349	  24.000	  31.828	-161.328	  13.614
     94.3683	  37.000	  32.011	-148.511	  13.630
     94.4017	  33.000	  32.170	-152.670	  13.645
     94.4352	  30.000	  32.304	-155.804	  13.660
     94.4686	  38.000	  32.410	-147.910	  13.675
     94.5020	  24.000	  32.488	-161.988	  13.691
     94.5354	  25.000	  32.536	-161.036	  13.706
     94.5688	  28.000	  32.554	-158.054	  13.722
     94.6023	  30.000	  32.542	-156.042	  13.737
     94.6357	  35.000	  32.500	-151.000	  13.752
     94.6691	  37.000	  32.430	-148.930	  13.768
     94.7025	  23.000	  32.331	-162.831	  13.783
     94.7360	  30.000	  32.204	-155.704	  13.799
     94.7694	  32.000	  32.053	-153.553	  13.815
     94.8028	  24.000	  31.877	-161.377	  13.830
     94.8362	  41.000	  31.680	-144.180	  13.846
     94.8697	  30.000	  31.463	-154.963	  13.861
     94.9031	  31.000	  31.229	-153.729	  13.877
     94.9365	  28.000	  30.979	-156.479	  13.893
     94.9699	  25.000	  30.717	-159.217	  13.909
     95.0033	  21.000	  30.443	-162.943	  13.924
     95.0368	  24.000	  30.161	-159.661	  13.940
     95.0702	  30.000	  29.873	-153.373	  13.956
     95.1036	  25.000	  29.580	-158.080	  13.972
     95.1370	  25.000	  29.284	-157.784	  13.988
     95.1705	  25.000	  28.988	-157.488	  14.004
     95.2039	  35.000	  28.692	-147.192	  14.020
     95.2373	  29.000	  28.398	-152.898	  14.036
     95.2707	  34.000	  28.107	-147.607	  14.052
     95.3041	  30.000	  27.821	-151.321	  14.068
     95.3376	  24.000	  27.541	-157.041	  14.084
     95.3710	  21.000	  27.266	-159.766	  14.100
     95.4044	  29.000	  26.998	-151.498	  14.116
     95.4378	  28.000	  26.737	-152.237	  14.132
     95.4713	  32.000	  26.484	-147.984	  14.148
     95.5047	  27.000	  26.239	-152.739	  14.164
     95.5381	  18.000	  26.002	-161.502	  14.180
     95.5715	  35.000	  25.773	-144.273	  14.197
     95.6049	  20.000	  25.552	-159.052	  14.213
     95.6384	  32.000	  25.340	-146.840	  14.229
     95.6718	  28.000	  25.136	-150.636	  14.246
     95.7052	  22.000	  24.940	-156.440	  14.262
     95.7386	  25.000	  24.753	-153.253	  14.278
     95.7721	  25.000	  24.572	-153.072	  14.295
     95.8055	  18.000	  24.400	-159.900	  14.311
     95.8389	  24.000	  24.235	-153.735	  14.328
     95.8723	  24.000	  24.077	-153.577	  14.344
     95.9057	  23.000	  23.927	-154.427	  14.361
     95.9392	  32.000	  23.783	-145.283	  14.377
     95.9726	  16.000	  23.645	-161.145	  14.394
     96.0060	  16.000	  23.514	-161.014	  14.410
     96.0394	  20.000	  23.389	-156.889	  14.427
     96.0729	  24.000	  23.270	-152.770	  14.444
     96.1063	  25.000	  23.156	-151.656	  14.460
     96.1397	  18.000	  23.048	-158.548	  14.477
     96.1731	  16.000	  22.945	-160.445	  14.494
     96.2066	  32.000	  22.846	-144.346	  14.510
     96.2400	  21.000	  22.753	-155.253	  14.527
     96.2734	  14.000	  22.664	-162.164	  14.544
     96.3068	  16.000	  22.579	-160.079	  14.561
     96.3402	  27.000	  22.499	-148.999	  14.578
     96.3737	  21.000	  22.422	-154.922	  14.595
     96.4071	  14.000	  22.350	-161.850	  14.612
     96.4405	  10.000	  22.281	-165.781	  14.628
     96.4739	  17.000	  22.215	-158.715	  14.645
     96.5074	  10.000	  22.153	-165.653	  14.662
     96.5408	  19.000	  22.094	-156.594	  14.680
     96.5742	  17.000	  22.038	-158.538	  14.697
     96.6076	  20.000	  21.985	-155.485	  14.714
     96.6410	  21.000	  21.935	-154.435	  14.731
     96.6745	  21.000	  21.887	-154.387	  14.748
     96.7079	  20.000	  21.842	-155.342	  14.765
     96.7413	  25.000	  21.800	-150.300	  14.782
     96.7747	  21.000	  21.760	-154.260	  14.800
     96.8082	  25.000	  21.722	-150.222	  14.817
     96.8416	  14.000	  21.686	-161.186	  14.834
     96.8750	  20.000	  21.653	-155.153	  14.851
     96.9084	  20.000	  21.621	-155.121	  14.869
     96.9418	  20.000	  21.591	-155.091	  14.886
     96.9753	  25.000	  21.563	-150.063	  14.903
     97.0087	  15.000	  21.537	-160.037	  14.921
     97.0421	  17.000	  21.513	-158.013	  14.938
     97.0755	  21.000	  21.490	-153.990	  14.956
     97.1090	  27.000	  21.469	-147.969	  14.973
     97.1424	  19.000	  21.449	-155.949	  14.991
     97.1758	  23.000	  21.430	-151.930	  15.008
     97.2092	  16.000	  21.413	-158.913	  15.026
     97.2427	  20.000	  21.397	-154.897	  15.044
     97.2761	  20.000	  21.383	-154.883	  15.061
     97.3095	  20.000	  21.369	-154.869	  15.079
     97.3429	  22.000	  21.357	-152.857	  15.097
     97.3763	  18.000	  21.346	-156.846	  15.114
     97.4098	  12.000	  21.336	-162.836	  15.132
     97.4432	  19.000	  21.327	-155.827	  15.150
     97.4766	  28.000	  21.319	-146.819	  15.168
     97.5100	   9.000	  21.312	-165.812	  15.186
     97.5434	  11.000	  21.306	-163.806	  15.203
     97.5769	  17.000	  21.300	-157.800	  15.221
     97.6103	  20.000	  21.296	-154.796	  15.239
     97.6437	  17.000	  21.292	-157.792	  15.257
     97.6771	  14.000	  21.289	-160.789	  15.275
     97.7106	  19.000	  21.287	-155.787	  15.293
     97.7440	  21.000	  21.285	-153.785	  15.311
     97.7774	  17.000	  21.285	-157.785	  15.329
     97.8108	  16.000	  21.285	-158.785	  15.347
     97.8443	  18.000	  21.286	-156.786	  15.365
     97.8777	  17.000	  21.287	-157.787	  15.384
     97.9111	  25.000	  21.290	-149.790	  15.402
     97.9445	  17.000	  21.293	-157.793	  15.420
     97.9779	  27.000	  21.296	-147.796	  15.438
     98.0114	  14.000	  21.301	-160.801	  15.456
     98.0448	  19.000	  21.306	-155.806	  15.475
     98.0782	  18.000	  21.311	-156.811	  15.493
     98.1116	  14.000	  21.318	-160.818	  15.511
     98.1451	  19.000	  21.325	-155.825	  15.530
     98.1785	  27.000	  21.333	-147.833	  15.548
     98.2119	  15.000	  21.341	-159.841	  15.567
     98.2453	  18.000	  21.350	-156.850	  15.585
     98.2787	  18.000	  21.359	-156.859	  15.603
     98.3122	  14.000	  21.370	-160.870	  15.622
     98.3456	  21.000	  21.381	-153.881	  15.640
     98.3790	  24.000	  21.392	-150.892	  15.659
     98.4124	  15.000	  21.404	-159.904	  15.678
     98.4459	  11.000	  21.417	-163.917	  15.696
     98.4793	  21.000	  21.430	-153.930	  15.715
     98.5127	  19.000	  21.444	-155.944	  15.734
     98.5461	  15.000	  21.459	-159.959	  15.752
     98.5796	  20.000	  21.474	-154.974	  15.771
     98.6130	  16.000	  21.489	-158.989	  15.790
     98.6464	  12.000	  21.506	-163.006	  15.808
     98.6798	  12.000	  21.522	-163.022	  15.827
     98.7132	  19.000	  21.540	-156.040	  15.846
     98.7467	  14.000	  21.558	-161.058	  15.865
     98.7801	  25.000	  21.576	-150.076	  15.884
     98.8135	  20.000	  21.596	-155.096	  15.903
     98.8469	  20.000	  21.615	-155.115	  15.922
     98.8804	  22.000	  21.636	-153.136	  15.941
     98.9138	  15.000	  21.657	-160.157	  15.960
     98.9472	  19.000	  21.678	-156.178	  15.979
     98.9806	  21.000	  21.700	-154.200	  15.998
     99.0140	  22.000	  21.723	-153.223	  16.017
     99.0475	  19.000	  21.746	-156.246	  16.036
     99.0809	  25.000	  21.770	-150.270	  16.055
     99.1143	  15.000	  21.794	-160.294	  16.074
     99.1477	  17.000	  21.819	-158.319	  16.093
     99.1812	  14.000	  21.845	-161.345	  16.113
     99.2146	   8.000	  21.871	-167.371	  16.132
     99.2480	  17.000	  21.898	-158.398	  16.151
     99.2814	  18.000	  21.925	-157.425	  16.170
     99.3148	  18.000	  21.953	-157.453	  16.190
     99.3483	  14.000	  21.982	-161.482	  16.209
     99.3817	  18.000	  22.011	-157.511	  16.228
     99.4151	  14.000	  22.041	-161.541	  16.248
     99.4485	  16.000	  22.072	-159.572	  16.267
     99.4820	  22.000	  22.103	-153.603	  16.287
     99.5154	  12.000	  22.135	-163.635	  16.306
     99.5488	  29.000	  22.168	-146.668	  16.326
     99.5822	  17.000	  22.201	-158.701	  16.345
     99.6156	  18.000	  22.235	-157.735	  16.365
     99.6491	  27.000	  22.270	-148.770	  16.385
     99.6825	  18.000	  22.306	-157.806	  16.404
     99.7159	  23.000	  22.342	-152.842	  16.424
     99.7493	  10.000	  22.379	-165.879	  16.444
     99.7828	  16.000	  22.417	-159.917	  16.463
     99.8162	  14.000	  22.456	-161.956	  16.483
     99.8496	  14.000	  22.495	-161.995	  16.503
     99.8830	  18.000	  22.536	-158.036	  16.523
     99.9165	  23.000	  22.577	-153.077	  16.542
     99.9499	  22.000	  22.619	-154.119	  16.562
     99.9833	  20.000	  22.662	-156.162	  16.582
     18.3142	        	        	        	        	       0	(  1  1  1)	  0  1 :  1
     18.3596	        	        	        	        	       0	(  1  1  1)	  0  2 :  1
     30.1089	        	        	        	        	       0	(  0  2  2)	  0  1 :  1
     30.1847	        	        	        	        	       0	(  0  2  2)	  0  2 :  1
     35.4597	        	        	        	        	       0	(  1  3  1)	  0  1 :  1
     35.5497	        	        	        	        	       0	(  1  3  1)	  0  2 :  1
     37.0913	        	        	        	        	       0	(  2  2  2)	  0  1 :  1
     37.1858	        	        	        	        	       0	(  2  2  2)	  0  2 :  1
     43.0894	        	        	        	        	       0	(  0  0  4)	  0  1 :  1
     43.2007	        	        	        	        	       0	(  0  0  4)	  0  2 :  1
     47.1757	        	        	        	        	       0	(  1  3  3)	  0  1 :  1
     47.2987	        	        	        	        	       0	(  1  3  3)	  0  2 :  1
     53.4493	        	        	        	        	       0	(  2  2  4)	  0  1 :  1
     53.5912	        	        	        	        	       0	(  2  2  4)	  0  2 :  1
     56.9750	        	        	        	        	       0	(  1  5  1)	  0  1 :  1
     56.9750	        	        	        	        	       0	(  3  3  3)	  0  1 :  1
     57.1279	        	        	        	        	       0	(  1  5  1)	  0  2 :  1
     57.1279	        	        	        	        	       0	(  3  3  3)	  0  2 :  1
     62.5615	        	        	        	        	       0	(  4  4  0)	  0  1 :  1
     62.7328	        	        	        	        	       0	(  4  4  0)	  0  2 :  1
     65.7780	        	        	        	        	       0	(  5  3  1)	  0  1 :  1
     65.9603	        	        	        	        	       0	(  5  3  1)	  0  2 :  1
     66.8318	        	        	        	        	       0	(  2  4  4)	  0  1 :  1
     67.0178	        	        	        	        	       0	(  2  4  4)	  0  2 :  1
     70.9695	        	        	        	        	       0	(  6  2  0)	  0  1 :  1
     71.1705	        	        	        	        	       0	(  6  2  0)	  0  2 :  1
     74.0051	        	        	        	        	       0	(  3  5  3)	  0  1 :  1
     74.2176	        	        	        	        	       0	(  3  5  3)	  0  2 :  1
     75.0063	        	        	        	        	       0	(  2  2  6)	  0  1 :  1
     75.2227	        	        	        	        	       0	(  2  2  6)	  0  2 :  1
     78.9680	        	        	        	        	       0	(  4  4  4)	  0  1 :  1
     79.2004	        	        	        	        	       0	(  4  4  4)	  0  2 :  1
     81.9035	        	        	        	        	       0	(  1  5  5)	  0  1 :  1
     81.9035	        	        	        	        	       0	(  7  1  1)	  0  1 :  1
     82.1482	        	        	        	        	       0	(  1  5  5)	  0  2 :  1
     82.1482	        	        	        	        	       0	(  7  1  1)	  0  2 :  1
     86.7524	        	        	        	        	       0	(  4  6  2)	  0  1 :  1
     87.0190	        	        	        	        	       0	(  4  6  2)	  0  2 :  1
     89.6483	        	        	        	        	       0	(  1  3  7)	  0  1 :  1
     89.6483	        	        	        	        	       0	(  3  5  5)	  0  1 :  1
     89.9287	        	        	        	        	       0	(  1  3  7)	  0  2 :  1
     89.9287	        	        	        	        	       0	(  3  5  5)	  0  2 :  1
     94.4764	        	        	        	        	       0	(  0  0  8)	  0  1 :  1
     94.7815	        	        	        	        	       0	(  0  0  8)	  0  2 :  1
     97.3863	        	        	        	        	       0	(  7  3  3)	  0  1 :  1
     97.7075	        	        	        	        	       0	(  7  3  3)	  0  2 :  1
     98.3602	        	        	        	        	       0	(  4  4  6)	  0  1 :  1
     98.6869	        	        	        	        	       0	(  4  4  6)	  0  2 :  1
    102.2830	        	        	        	        	       0	(  0  6  6)	  0  1 :  1
    102.2830	        	        	        	        	       0	(  8  2  2)	  0  1 :  1
    102.6334	        	        	        	        	       0	(  0  6  6)	  0  2 :  1
    102.6334	        	        	        	        	       0	(  8  2  2)	  0  2 :  1
    105.2630	        	        	        	        	       0	(  7  5  1)	  0  1 :  1
    105.2630	        	        	        	        	       0	(  5  5  5)	  0  1 :  1
    105.6327	        	        	        	        	       0	(  7  5  1)	  0  2 :  1
    105.6327	        	        	        	        	       0	(  5  5  5)	  0  2 :  1
    106.2653	        	        	        	        	       0	(  2  6  6)	  0  1 :  1
    106.6419	        	        	        	        	       0	(  2  6  6)	  0  2 :  1
    110.3301	        	        	        	        	       0	(  8  0  4)	  0  1 :  1
    110.7360	        	        	        	        	       0	(  8  0  4)	  0  2 :  1
    113.4491	        	        	        	        	       0	(  5  3  7)	  0  1 :  1
    113.4491	        	        	        	        	       0	(  1  9  1)	  0  1 :  1
    113.8797	        	        	        	        	       0	(  5  3  7)	  0  2 :  1
    113.8797	        	        	        	        	       0	(  1  9  1)	  0  2 :  1
    114.5048	        	        	        	        	       0	(  4  2  8)	  0  1 :  1
    114.9442	        	        	        	        	       0	(  4  2  8)	  0  2 :  1
    118.8233	        	        	        	        	       0	(  6  6  4)	  0  1 :  1
    119.3017	        	        	        	        	       0	(  6  6  4)	  0  2 :  1
    122.1822	        	        	        	        	       0	(  3  1  9)	  0  1 :  1
    122.6946	        	        	        	        	       0	(  3  1  9)	  0  2 :  1
    128.0818	        	        	        	        	       0	(  4  4  8)	  0  1 :  1
    128.6637	        	        	        	        	       0	(  4  4  8)	  0  2 :  1
    131.8581	        	        	        	        	       0	(  7  7  1)	  0  1 :  1
    131.8581	        	        	        	        	       0	(  3  9  3)	  0  1 :  1
    131.8581	        	        	        	        	       0	(  5  5  7)	  0  1 :  1
    132.4929	        	        	        	        	       0	(  7  7  1)	  0  2 :  1
    132.4929	        	        	        	        	       0	(  3  9  3)	  0  2 :  1
    132.4929	        	        	        	        	       0	(  5  5  7)	  0  2 :  1
    138.7168	        	        	        	        	       0	(  2  6  8)	  0  1 :  1
    138.7168	        	        	        	        	       0	(  2  0 10)	  0  1 :  1
    139.4715	        	        	        	        	       0	(  2  6  8)	  0  2 :  1
    139.4715	        	        	        	        	       0	(  2  0 10)	  0  2 :  1
    143.3176	        	        	        	        	       0	(  5  1  9)	  0  1 :  1
    143.3176	        	        	        	        	       0	(  7  7  3)	  0  1 :  1
    144.1773	        	        	        	        	       0	(  5  1  9)	  0  2 :  1
    144.1773	        	        	        	        	       0	(  7  7  3)	  0  2 :  1
    144.9641	        	        	        	        	       0	(  6  6  6)	  0  1 :  1
    144.9641	        	        	        	        	       0	(  2 10  2)	  0  1 :  1
    145.8681	        	        	        	        	       0	(  6  6  6)	  0  2 :  1
    145.8682	        	        	        	        	       0	(  2 10  2)	  0  2 :  1
    159.4923	        	        	        	        	       0	(  3  5  9)	  0  1 :  1
    161.1135	        	        	        	        	       0	(  3  5  9)	  0  2 :  1
    162.4508	        	        	        	        	       0	(  8  6  4)	  0  1 :  1
    164.3819	        	        	        	        	       0	(  8  6  4)	  0  2 :  1
