 Fe3O4   Chi2:  4.3285  CELL:    8.39564   8.39564   8.39564   90.0000   90.0000   90.0000   SPGR: 227:1                  TEMP:      0.00
  1   2543     1.54060     1.54439     0.00000     0.13521     0.00000    0
    60     0     1
       0.00000      28.00000
 2Theta	Yobs	Ycal	Yobs-Ycal	Backg	Posr	(hkl)	K
     15.0232	  146.00	   53.98	 -498.50	   50.44
     15.0566	  148.00	   53.94	 -498.50	   50.40
     15.0901	  140.00	   53.90	 -498.50	   50.36
     15.1235	  144.00	   53.86	 -498.50	   50.32
     15.1569	  151.00	   53.82	 -498.50	   50.28
     15.1903	  159.00	   53.78	 -498.50	   50.24
     15.2237	  124.00	   53.74	 -498.50	   50.20
     15.2572	  158.00	   53.70	 -498.50	   50.16
     15.2906	  143.00	   53.66	 -498.50	   50.12
     15.3240	  143.00	   53.62	 -498.50	   50.08
     15.3574	  139.00	   53.58	 -498.50	   50.04
     15.3909	  145.00	   53.54	 -498.50	   50.00
     15.4243	  126.00	   53.50	 -498.50	   49.96
     15.4577	  132.00	   53.46	 -498.50	   49.92
     15.4911	  150.00	   53.42	 -498.50	   49.88
     15.5245	  129.00	   53.38	 -498.50	   49.84
     15.5580	  142.00	   53.34	 -498.50	   49.80
     15.5914	  133.00	   53.30	 -498.50	   49.76
     15.6248	  136.00	   53.26	 -498.50	   49.72
     15.6582	  140.00	   53.22	 -498.50	   49.68
     15.6917	  138.00	   53.18	 -498.50	   49.64
     15.7251	  132.00	   53.14	 -498.50	   49.60
     15.7585	  125.00	   53.10	 -498.50	   49.56
     15.7919	  119.00	   53.06	 -498.50	   49.52
     15.8254	  129.00	   53.02	 -498.50	   49.48
     15.8588	  112.00	   52.98	 -498.50	   49.44
     15.8922	  127.00	   52.94	 -498.50	   49.40
     15.9256	  118.00	   52.90	 -498.50	   49.36
     15.9590	  110.00	   52.86	 -498.50	   49.32
     15.9925	  113.00	   52.82	 -498.50	   49.28
     16.0259	  130.00	   52.78	 -498.50	   49.24
     16.0593	  142.00	   52.74	 -498.50	   49.20
     16.0927	  106.00	   52.70	 -498.50	   49.16
     16.1262	  119.00	   52.66	 -498.50	   49.12
     16.1596	  122.00	   52.62	 -498.50	   49.08
     16.1930	  124.00	   52.58	 -498.50	   49.04
     16.2264	  137.00	   52.54	 -498.50	   49.00
     16.2598	  131.00	   52.50	 -498.50	   48.96
     16.2933	  106.00	   52.46	 -498.50	   48.92
     16.3267	  122.00	   52.42	 -498.50	   48.88
     16.3601	  126.00	   52.38	 -498.50	   48.84
     16.3935	  130.00	   52.34	 -498.50	   48.80
     16.4270	  109.00	   52.30	 -498.50	   48.76
     16.4604	  128.00	   52.26	 -498.50	   48.72
     16.4938	  127.00	   52.22	 -498.50	   48.68
     16.5272	  110.00	   52.18	 -498.50	   48.64
     16.5606	  136.00	   52.14	 -498.50	   48.60
     16.5941	  104.00	   52.10	 -498.50	   48.56
     16.6275	  117.00	   52.06	 -498.50	   48.52
     16.6609	  114.00	   52.02	 -498.50	   48.48
     16.6943	  125.00	   51.98	 -498.50	   48.44
     16.7278	  111.00	   51.94	 -498.50	   48.41
     16.7612	  100.00	   51.90	 -498.50	   48.37
     16.7946	  109.00	   51.86	 -498.50	   48.33
     16.8280	  109.00	   51.83	 -498.50	   48.29
     16.8615	  104.00	   51.79	 -498.50	   48.25
     16.8949	  104.00	   51.75	 -498.50	   48.21
     16.9283	  112.00	   51.71	 -498.50	   48.17
     16.9617	  110.00	   51.67	 -498.50	   48.13
     16.9951	  111.00	   51.63	 -498.50	   48.09
     17.0286	  108.00	   51.59	 -498.50	   48.05
     17.0620	  113.00	   51.55	 -498.50	   48.01
     17.0954	   94.00	   51.51	 -498.50	   47.97
     17.1288	  112.00	   51.47	 -498.50	   47.93
     17.1623	  100.00	   51.43	 -498.50	   47.89
     17.1957	  106.00	   51.39	 -498.50	   47.86
     17.2291	  116.00	   51.35	 -498.50	   47.82
     17.2625	   91.00	   51.32	 -498.50	   47.78
     17.2959	  105.00	   51.28	 -498.50	   47.74
     17.3294	  100.00	   51.24	 -498.50	   47.70
     17.3628	  117.00	   51.20	 -498.50	   47.66
     17.3962	   95.00	   51.16	 -498.50	   47.62
     17.4296	   85.00	   51.12	 -498.50	   47.58
     17.4631	  103.00	   51.08	 -498.50	   47.54
     17.4965	   94.00	   51.04	 -498.50	   47.50
     17.5299	   89.00	   51.00	 -498.50	   47.46
     17.5633	  126.00	   50.96	 -498.50	   47.43
     17.5967	  115.00	   50.93	 -498.50	   47.39
     17.6302	   81.00	   50.89	 -498.50	   47.35
     17.6636	   88.00	   50.85	 -498.50	   47.31
     17.6970	   96.00	   50.81	 -498.50	   47.27
     17.7304	  102.00	   50.77	 -498.50	   47.23
     17.7639	  101.00	   50.73	 -498.50	   47.19
     17.7973	  116.00	   50.69	 -498.50	   47.15
     17.8307	  105.00	   50.65	 -498.50	   47.12
     17.8641	   84.00	   50.61	 -498.50	   47.08
     17.8975	   95.00	   50.58	 -498.50	   47.04
     17.9310	  114.00	   50.54	 -498.50	   47.00
     17.9644	   83.00	   50.50	 -498.50	   46.96
     17.9978	   81.00	   50.46	 -498.50	   46.92
     18.0312	  122.00	   50.42	 -498.50	   46.88
     18.0647	   85.00	   50.38	 -498.50	   46.84
     18.0981	  122.00	   50.34	 -498.50	   46.81
     18.1315	   82.00	   50.31	 -498.50	   46.77
     18.1649	   66.00	   50.27	 -498.50	   46.73
     18.1984	   89.00	   50.23	 -498.50	   46.69
     18.2318	   83.00	   50.19	 -498.50	   46.65
     18.2652	  118.00	   50.15	 -498.50	   46.61
     18.2986	  102.00	   50.11	 -498.50	   46.57
     18.3320	  103.00	   50.07	 -498.50	   46.54
     18.3655	  180.00	   50.04	 -498.50	   46.50
     18.3989	  218.00	   50.00	 -498.50	   46.46
     18.4323	  222.00	   49.96	 -498.50	   46.42
     18.4657	  229.00	   49.92	 -498.50	   46.38
     18.4992	  179.00	   49.88	 -498.50	   46.34
     18.5326	  128.00	   49.84	 -498.50	   46.31
     18.5660	  108.00	   49.81	 -498.50	   46.27
     18.5994	   81.00	   49.77	 -498.50	   46.23
     18.6328	  105.00	   49.73	 -498.50	   46.19
     18.6663	   91.00	   49.69	 -498.50	   46.15
     18.6997	  116.00	   49.65	 -498.50	   46.11
     18.7331	   74.00	   49.61	 -498.50	   46.08
     18.7665	  108.00	   49.58	 -498.50	   46.04
     18.8000	   77.00	   49.54	 -498.50	   46.00
     18.8334	   91.00	   49.50	 -498.50	   45.96
     18.8668	   92.00	   49.46	 -498.50	   45.92
     18.9002	   87.00	   49.42	 -498.50	   45.89
     18.9336	   95.00	   49.39	 -498.50	   45.85
     18.9671	   81.00	   49.35	 -498.50	   45.81
     19.0005	   88.00	   49.31	 -498.50	   45.77
     19.0339	   76.00	   49.27	 -498.50	   45.73
     19.0673	   74.00	   49.23	 -498.50	   45.70
     19.1008	   87.00	   49.20	 -498.50	   45.66
     19.1342	   87.00	   49.16	 -498.50	   45.62
     19.1676	  101.00	   49.12	 -498.50	   45.58
     19.2010	   85.00	   49.08	 -498.50	   45.54
     19.2345	   83.00	   49.04	 -498.50	   45.51
     19.2679	   83.00	   49.01	 -498.50	   45.47
     19.3013	   89.00	   48.97	 -498.50	   45.43
     19.3347	   79.00	   48.93	 -498.50	   45.39
     19.3681	   77.00	   48.89	 -498.50	   45.35
     19.4016	   90.00	   48.85	 -498.50	   45.32
     19.4350	   99.00	   48.82	 -498.50	   45.28
     19.4684	   92.00	   48.78	 -498.50	   45.24
     19.5018	   71.00	   48.74	 -498.50	   45.20
     19.5353	   81.00	   48.70	 -498.50	   45.17
     19.5687	   88.00	   48.67	 -498.50	   45.13
     19.6021	   86.00	   48.63	 -498.50	   45.09
     19.6355	   83.00	   48.59	 -498.50	   45.05
     19.6689	   77.00	   48.55	 -498.50	   45.01
     19.7024	   76.00	   48.51	 -498.50	   44.98
     19.7358	   85.00	   48.48	 -498.50	   44.94
     19.7692	   75.00	   48.44	 -498.50	   44.90
     19.8026	  100.00	   48.40	 -498.50	   44.86
     19.8361	   70.00	   48.36	 -498.50	   44.83
     19.8695	   72.00	   48.33	 -498.50	   44.79
     19.9029	   83.00	   48.29	 -498.50	   44.75
     19.9363	   70.00	   48.25	 -498.50	   44.71
     19.9697	   69.00	   48.21	 -498.50	   44.68
     20.0032	   70.00	   48.18	 -498.50	   44.64
     20.0366	   75.00	   48.14	 -498.50	   44.60
     20.0700	   77.00	   48.10	 -498.50	   44.56
     20.1034	   87.00	   48.07	 -498.50	   44.53
     20.1369	   77.00	   48.03	 -498.50	   44.49
     20.1703	   69.00	   47.99	 -498.50	   44.45
     20.2037	   64.00	   47.95	 -498.50	   44.41
     20.2371	   65.00	   47.92	 -498.50	   44.38
     20.2705	   79.00	   47.88	 -498.50	   44.34
     20.3040	   78.00	   47.84	 -498.50	   44.30
     20.3374	   61.00	   47.80	 -498.50	   44.27
     20.3708	   71.00	   47.77	 -498.50	   44.23
     20.4042	   70.00	   47.73	 -498.50	   44.19
     20.4377	   87.00	   47.69	 -498.50	   44.15
     20.4711	   84.00	   47.66	 -498.50	   44.12
     20.5045	   88.00	   47.62	 -498.50	   44.08
     20.5379	   97.00	   47.58	 -498.50	   44.04
     20.5714	   72.00	   47.54	 -498.50	   44.01
     20.6048	   59.00	   47.51	 -498.50	   43.97
     20.6382	   77.00	   47.47	 -498.50	   43.93
     20.6716	   68.00	   47.43	 -498.50	   43.89
     20.7050	   76.00	   47.40	 -498.50	   43.86
     20.7385	   66.00	   47.36	 -498.50	   43.82
     20.7719	   70.00	   47.32	 -498.50	   43.78
     20.8053	   76.00	   47.28	 -498.50	   43.75
     20.8387	   77.00	   47.25	 -498.50	   43.71
     20.8722	   69.00	   47.21	 -498.50	   43.67
     20.9056	   73.00	   47.17	 -498.50	   43.64
     20.9390	   68.00	   47.14	 -498.50	   43.60
     20.9724	   77.00	   47.10	 -498.50	   43.56
     21.0058	   73.00	   47.06	 -498.50	   43.53
     21.0393	   63.00	   47.03	 -498.50	   43.49
     21.0727	   83.00	   46.99	 -498.50	   43.45
     21.1061	   58.00	   46.95	 -498.50	   43.42
     21.1395	   72.00	   46.92	 -498.50	   43.38
     21.1730	   59.00	   46.88	 -498.50	   43.34
     21.2064	   62.00	   46.84	 -498.50	   43.31
     21.2398	   65.00	   46.81	 -498.50	   43.27
     21.2732	   52.00	   46.77	 -498.50	   43.23
     21.3066	   59.00	   46.73	 -498.50	   43.20
     21.3401	   74.00	   46.70	 -498.50	   43.16
     21.3735	   69.00	   46.66	 -498.50	   43.12
     21.4069	   69.00	   46.62	 -498.50	   43.09
     21.4403	   54.00	   46.59	 -498.50	   43.05
     21.4738	   68.00	   46.55	 -498.50	   43.01
     21.5072	   57.00	   46.51	 -498.50	   42.98
     21.5406	   73.00	   46.48	 -498.50	   42.94
     21.5740	   75.00	   46.44	 -498.50	   42.90
     21.6075	   69.00	   46.40	 -498.50	   42.87
     21.6409	   50.00	   46.37	 -498.50	   42.83
     21.6743	   69.00	   46.33	 -498.50	   42.79
     21.7077	   75.00	   46.30	 -498.50	   42.76
     21.7411	   65.00	   46.26	 -498.50	   42.72
     21.7746	   75.00	   46.22	 -498.50	   42.68
     21.8080	   55.00	   46.19	 -498.50	   42.65
     21.8414	   49.00	   46.15	 -498.50	   42.61
     21.8748	   66.00	   46.11	 -498.50	   42.58
     21.9083	   72.00	   46.08	 -498.50	   42.54
     21.9417	   68.00	   46.04	 -498.50	   42.50
     21.9751	   65.00	   46.01	 -498.50	   42.47
     22.0085	   56.00	   45.97	 -498.50	   42.43
     22.0419	   58.00	   45.93	 -498.50	   42.39
     22.0754	   56.00	   45.90	 -498.50	   42.36
     22.1088	   74.00	   45.86	 -498.50	   42.32
     22.1422	   63.00	   45.82	 -498.50	   42.29
     22.1756	   76.00	   45.79	 -498.50	   42.25
     22.2091	   46.00	   45.75	 -498.50	   42.21
     22.2425	   56.00	   45.72	 -498.50	   42.18
     22.2759	   74.00	   45.68	 -498.50	   42.14
     22.3093	   85.00	   45.64	 -498.50	   42.11
     22.3427	   72.00	   45.61	 -498.50	   42.07
     22.3762	   55.00	   45.57	 -498.50	   42.03
     22.4096	   63.00	   45.54	 -498.50	   42.00
     22.4430	   75.00	   45.50	 -498.50	   41.96
     22.4764	   65.00	   45.46	 -498.50	   41.93
     22.5099	   55.00	   45.43	 -498.50	   41.89
     22.5433	   56.00	   45.39	 -498.50	   41.85
     22.5767	   46.00	   45.36	 -498.50	   41.82
     22.6101	   52.00	   45.32	 -498.50	   41.78
     22.6436	   63.00	   45.28	 -498.50	   41.75
     22.6770	   66.00	   45.25	 -498.50	   41.71
     22.7104	   72.00	   45.21	 -498.50	   41.68
     22.7438	   69.00	   45.18	 -498.50	   41.64
     22.7772	   51.00	   45.14	 -498.50	   41.60
     22.8107	   58.00	   45.11	 -498.50	   41.57
     22.8441	   66.00	   45.07	 -498.50	   41.53
     22.8775	   60.00	   45.03	 -498.50	   41.50
     22.9109	   63.00	   45.00	 -498.50	   41.46
     22.9444	   71.00	   44.96	 -498.50	   41.43
     22.9778	   63.00	   44.93	 -498.50	   41.39
     23.0112	   62.00	   44.89	 -498.50	   41.35
     23.0446	   57.00	   44.86	 -498.50	   41.32
     23.0780	   58.00	   44.82	 -498.50	   41.28
     23.1115	   51.00	   44.79	 -498.50	   41.25
     23.1449	   74.00	   44.75	 -498.50	   41.21
     23.1783	   64.00	   44.71	 -498.50	   41.18
     23.2117	   72.00	   44.68	 -498.50	   41.14
     23.2452	   88.00	   44.64	 -498.50	   41.11
     23.2786	   66.00	   44.61	 -498.50	   41.07
     23.3120	   94.00	   44.57	 -498.50	   41.03
     23.3454	   70.00	   44.54	 -498.50	   41.00
     23.3788	   68.00	   44.50	 -498.50	   40.96
     23.4123	   57.00	   44.47	 -498.50	   40.93
     23.4457	   47.00	   44.43	 -498.50	   40.89
     23.4791	   65.00	   44.40	 -498.50	   40.86
     23.5125	   50.00	   44.36	 -498.50	   40.82
     23.5460	   61.00	   44.33	 -498.50	   40.79
     23.5794	   43.00	   44.29	 -498.50	   40.75
     23.6128	   55.00	   44.26	 -498.50	   40.72
     23.6462	   60.00	   44.22	 -498.50	   40.68
     23.6796	   47.00	   44.19	 -498.50	   40.65
     23.7131	   54.00	   44.15	 -498.50	   40.61
     23.7465	   51.00	   44.11	 -498.50	   40.58
     23.7799	   61.00	   44.08	 -498.50	   40.54
     23.8133	   47.00	   44.04	 -498.50	   40.51
     23.8468	   50.00	   44.01	 -498.50	   40.47
     23.8802	   65.00	   43.97	 -498.50	   40.44
     23.9136	   55.00	   43.94	 -498.50	   40.40
     23.9470	   54.00	   43.90	 -498.50	   40.37
     23.9805	   61.00	   43.87	 -498.50	   40.33
     24.0139	   48.00	   43.83	 -498.50	   40.30
     24.0473	   55.00	   43.80	 -498.50	   40.26
     24.0807	   58.00	   43.76	 -498.50	   40.23
     24.1141	   56.00	   43.73	 -498.50	   40.19
     24.1476	   65.00	   43.69	 -498.50	   40.16
     24.1810	   48.00	   43.66	 -498.50	   40.12
     24.2144	   48.00	   43.63	 -498.50	   40.09
     24.2478	   57.00	   43.59	 -498.50	   40.05
     24.2813	   62.00	   43.56	 -498.50	   40.02
     24.3147	   62.00	   43.52	 -498.50	   39.98
     24.3481	   48.00	   43.49	 -498.50	   39.95
     24.3815	   41.00	   43.45	 -498.50	   39.91
     24.4149	   48.00	   43.42	 -498.50	   39.88
     24.4484	   50.00	   43.38	 -498.50	   39.84
     24.4818	   36.00	   43.35	 -498.50	   39.81
     24.5152	   61.00	   43.31	 -498.50	   39.77
     24.5486	   37.00	   43.28	 -498.50	   39.74
     24.5821	   44.00	   43.24	 -498.50	   39.71
     24.6155	   46.00	   43.21	 -498.50	   39.67
     24.6489	   37.00	   43.17	 -498.50	   39.64
     24.6823	   49.00	   43.14	 -498.50	   39.60
     24.7157	   47.00	   43.10	 -498.50	   39.57
     24.7492	   48.00	   43.07	 -498.50	   39.53
     24.7826	   52.00	   43.04	 -498.50	   39.50
     24.8160	   49.00	   43.00	 -498.50	   39.46
     24.8494	   43.00	   42.97	 -498.50	   39.43
     24.8829	   49.00	   42.93	 -498.50	   39.39
     24.9163	   49.00	   42.90	 -498.50	   39.36
     24.9497	   43.00	   42.86	 -498.50	   39.33
     24.9831	   44.00	   42.83	 -498.50	   39.29
     25.0166	   55.00	   42.80	 -498.50	   39.26
     25.0500	   47.00	   42.76	 -498.50	   39.22
     25.0834	   58.00	   42.73	 -498.50	   39.19
     25.1168	   43.00	   42.69	 -498.50	   39.15
     25.1502	   56.00	   42.66	 -498.50	   39.12
     25.1837	   46.00	   42.62	 -498.50	   39.09
     25.2171	   35.00	   42.59	 -498.50	   39.05
     25.2505	   47.00	   42.56	 -498.50	   39.02
     25.2839	   49.00	   42.52	 -498.50	   38.98
     25.3174	   61.00	   42.49	 -498.50	   38.95
     25.3508	   55.00	   42.45	 -498.50	   38.91
     25.3842	   55.00	   42.42	 -498.50	   38.88
     25.4176	   33.00	   42.38	 -498.50	   38.85
     25.4510	   50.00	   42.35	 -498.50	   38.81
     25.4845	   44.00	   42.32	 -498.50	   38.78
     25.5179	   34.00	   42.28	 -498.50	   38.74
     25.5513	   58.00	   42.25	 -498.50	   38.71
     25.5847	   48.00	   42.21	 -498.50	   38.68
     25.6182	   45.00	   42.18	 -498.50	   38.64
     25.6516	   60.00	   42.15	 -498.50	   38.61
     25.6850	   34.00	   42.11	 -498.50	   38.57
     25.7184	   46.00	   42.08	 -498.50	   38.54
     25.7518	   48.00	   42.04	 -498.50	   38.51
     25.7853	   55.00	   42.01	 -498.50	   38.47
     25.8187	   41.00	   41.98	 -498.50	   38.44
     25.8521	   49.00	   41.94	 -498.50	   38.40
     25.8855	   43.00	   41.91	 -498.50	   38.37
     25.9190	   57.00	   41.88	 -498.50	   38.34
     25.9524	   51.00	   41.84	 -498.50	   38.30
     25.9858	   57.00	   41.81	 -498.50	   38.27
     26.0192	   45.00	   41.77	 -498.50	   38.24
     26.0526	   44.00	   41.74	 -498.50	   38.20
     26.0861	   55.00	   41.71	 -498.50	   38.17
     26.1195	   55.00	   41.67	 -498.50	   38.14
     26.1529	   51.00	   41.64	 -498.50	   38.10
     26.1863	   43.00	   41.61	 -498.50	   38.07
     26.2198	   44.00	   41.57	 -498.50	   38.03
     26.2532	   65.00	   41.54	 -498.50	   38.00
     26.2866	   34.00	   41.51	 -498.50	   37.97
     26.3200	   47.00	   41.47	 -498.50	   37.93
     26.3535	   54.00	   41.44	 -498.50	   37.90
     26.3869	   52.00	   41.40	 -498.50	   37.87
     26.4203	   42.00	   41.37	 -498.50	   37.83
     26.4537	   38.00	   41.34	 -498.50	   37.80
     26.4871	   39.00	   41.30	 -498.50	   37.77
     26.5206	   47.00	   41.27	 -498.50	   37.73
     26.5540	   47.00	   41.24	 -498.50	   37.70
     26.5874	   49.00	   41.20	 -498.50	   37.67
     26.6208	   51.00	   41.17	 -498.50	   37.63
     26.6543	   54.00	   41.14	 -498.50	   37.60
     26.6877	   57.00	   41.10	 -498.50	   37.57
     26.7211	   52.00	   41.07	 -498.50	   37.53
     26.7545	   36.00	   41.04	 -498.50	   37.50
     26.7879	   33.00	   41.00	 -498.50	   37.47
     26.8214	   39.00	   40.97	 -498.50	   37.43
     26.8548	   45.00	   40.94	 -498.50	   37.40
     26.8882	   49.00	   40.90	 -498.50	   37.37
     26.9216	   44.00	   40.87	 -498.50	   37.33
     26.9551	   42.00	   40.84	 -498.50	   37.30
     26.9885	   32.00	   40.81	 -498.50	   37.27
     27.0219	   46.00	   40.77	 -498.50	   37.23
     27.0553	   42.00	   40.74	 -498.50	   37.20
     27.0887	   52.00	   40.71	 -498.50	   37.17
     27.1222	   44.00	   40.67	 -498.50	   37.13
     27.1556	   50.00	   40.64	 -498.50	   37.10
     27.1890	   58.00	   40.61	 -498.50	   37.07
     27.2224	   32.00	   40.57	 -498.50	   37.04
     27.2559	   45.00	   40.54	 -498.50	   37.00
     27.2893	   42.00	   40.51	 -498.50	   36.97
     27.3227	   35.00	   40.47	 -498.50	   36.94
     27.3561	   48.00	   40.44	 -498.50	   36.90
     27.3895	   44.00	   40.41	 -498.50	   36.87
     27.4230	   46.00	   40.38	 -498.50	   36.84
     27.4564	   51.00	   40.34	 -498.50	   36.81
     27.4898	   41.00	   40.31	 -498.50	   36.77
     27.5232	   39.00	   40.28	 -498.50	   36.74
     27.5567	   35.00	   40.24	 -498.50	   36.71
     27.5901	   45.00	   40.21	 -498.50	   36.67
     27.6235	   36.00	   40.18	 -498.50	   36.64
     27.6569	   39.00	   40.15	 -498.50	   36.61
     27.6904	   38.00	   40.11	 -498.50	   36.58
     27.7238	   42.00	   40.08	 -498.50	   36.54
     27.7572	   42.00	   40.05	 -498.50	   36.51
     27.7906	   43.00	   40.02	 -498.50	   36.48
     27.8240	   49.00	   39.98	 -498.50	   36.45
     27.8575	   52.00	   39.95	 -498.50	   36.41
     27.8909	   42.00	   39.92	 -498.50	   36.38
     27.9243	   38.00	   39.89	 -498.50	   36.35
     27.9577	   38.00	   39.85	 -498.50	   36.31
     27.9912	   38.00	   39.82	 -498.50	   36.28
     28.0246	   45.00	   40.15	 -493.65	   36.25
     28.0580	   37.00	   40.13	 -501.63	   36.22
     28.0914	   44.00	   40.11	 -494.61	   36.19
     28.1248	   58.00	   40.09	 -480.59	   36.15
     28.1583	   47.00	   40.07	 -491.57	   36.12
     28.1917	   50.00	   40.05	 -488.55	   36.09
     28.2251	   36.00	   40.04	 -502.54	   36.06
     28.2585	   41.00	   40.02	 -497.52	   36.02
     28.2920	   43.00	   40.00	 -495.50	   35.99
     28.3254	   47.00	   39.99	 -491.49	   35.96
     28.3588	   41.00	   39.97	 -497.47	   35.93
     28.3922	   51.00	   39.96	 -487.46	   35.89
     28.4256	   44.00	   39.94	 -494.44	   35.86
     28.4591	   49.00	   39.93	 -489.43	   35.83
     28.4925	   55.00	   39.92	 -483.42	   35.80
     28.5259	   54.00	   39.91	 -484.41	   35.77
     28.5593	   31.00	   39.91	 -507.41	   35.73
     28.5928	   51.00	   39.90	 -487.40	   35.70
     28.6262	   43.00	   39.90	 -495.40	   35.67
     28.6596	   46.00	   39.89	 -492.39	   35.64
     28.6930	   31.00	   39.89	 -507.39	   35.60
     28.7265	   28.00	   39.89	 -510.39	   35.57
     28.7599	   45.00	   39.90	 -493.40	   35.54
     28.7933	   34.00	   39.90	 -504.40	   35.51
     28.8267	   36.00	   39.91	 -502.41	   35.48
     28.8601	   47.00	   39.92	 -491.42	   35.44
     28.8936	   46.00	   39.94	 -492.44	   35.41
     28.9270	   41.00	   39.96	 -497.46	   35.38
     28.9604	   47.00	   39.98	 -491.48	   35.35
     28.9938	   33.00	   40.01	 -505.51	   35.32
     29.0273	   37.00	   40.04	 -501.54	   35.28
     29.0607	   46.00	   40.08	 -492.58	   35.25
     29.0941	   41.00	   40.13	 -497.63	   35.22
     29.1275	   52.00	   40.18	 -486.68	   35.19
     29.1609	   49.00	   40.24	 -489.74	   35.16
     29.1944	   54.00	   40.31	 -484.81	   35.13
     29.2278	   52.00	   40.38	 -486.88	   35.09
     29.2612	   48.00	   40.47	 -490.97	   35.06
     29.2946	   45.00	   40.58	 -494.08	   35.03
     29.3281	   58.00	   40.70	 -481.20	   35.00
     29.3615	   46.00	   40.83	 -493.33	   34.97
     29.3949	   42.00	   40.99	 -497.49	   34.94
     29.4283	   47.00	   41.17	 -492.67	   34.90
     29.4617	   31.00	   41.38	 -508.88	   34.87
     29.4952	   45.00	   41.62	 -495.12	   34.84
     29.5286	   41.00	   41.90	 -499.40	   34.81
     29.5620	   39.00	   42.22	 -501.72	   34.78
     29.5954	   38.00	   42.61	 -503.11	   34.75
     29.6289	   45.00	   43.06	 -496.56	   34.71
     29.6623	   48.00	   43.60	 -494.10	   34.68
     29.6957	   69.00	   44.25	 -473.75	   34.65
     29.7291	   44.00	   45.03	 -499.53	   34.62
     29.7626	   51.00	   45.99	 -493.49	   34.59
     29.7960	   47.00	   47.18	 -498.68	   34.56
     29.8294	   43.00	   48.68	 -504.18	   34.53
     29.8628	   46.00	   50.60	 -503.10	   34.49
     29.8962	   52.00	   53.10	 -499.60	   34.46
     29.9297	   68.00	   56.44	 -486.94	   34.43
     29.9631	   54.00	   61.08	 -505.58	   34.40
     29.9965	   71.00	   68.04	 -495.54	   34.37
     30.0299	   76.00	   80.10	 -502.60	   34.34
     30.0634	   92.00	  104.68	 -511.18	   34.31
     30.0968	  141.00	  156.80	 -514.30	   34.28
     30.1302	  189.00	  255.09	 -564.59	   34.24
     30.1636	  319.00	  403.15	 -582.65	   34.21
     30.1970	  460.00	  554.82	 -593.32	   34.18
     30.2305	  553.00	  608.42	 -553.92	   34.15
     30.2639	  464.00	  552.91	 -587.41	   34.12
     30.2973	  340.00	  442.81	 -601.31	   34.09
     30.3307	  236.00	  308.07	 -570.57	   34.06
     30.3642	  158.00	  197.51	 -538.01	   34.03
     30.3976	  123.00	  128.28	 -503.78	   34.00
     30.4310	  125.00	   91.42	 -464.92	   33.96
     30.4644	  128.00	   73.17	 -443.67	   33.93
     30.4978	  132.00	   63.62	 -430.12	   33.90
     30.5313	  128.00	   57.85	 -428.35	   33.87
     30.5647	  103.00	   53.88	 -449.38	   33.84
     30.5981	   77.00	   50.96	 -472.46	   33.81
     30.6315	   58.00	   48.74	 -489.24	   33.78
     30.6650	   70.00	   47.01	 -475.51	   33.75
     30.6984	   59.00	   45.62	 -485.12	   33.72
     30.7318	   55.00	   44.51	 -488.01	   33.69
     30.7652	   46.00	   43.59	 -496.09	   33.66
     30.7986	   46.00	   42.82	 -495.32	   33.62
     30.8321	   39.00	   42.17	 -501.67	   33.59
     30.8655	   49.00	   41.62	 -491.12	   33.56
     30.8989	   38.00	   41.15	 -501.65	   33.53
     30.9323	   41.00	   40.74	 -498.24	   33.50
     30.9658	   43.00	   40.37	 -495.87	   33.47
     30.9992	   39.00	   40.06	 -499.56	   33.44
     31.0326	   59.00	   39.77	 -479.27	   33.41
     31.0660	   62.00	   39.52	 -476.02	   33.38
     31.0995	   81.00	   39.29	 -456.79	   33.35
     31.1329	   71.00	   39.08	 -466.58	   33.32
     31.1663	   71.00	   38.90	 -466.40	   33.29
     31.1997	   71.00	   38.72	 -466.22	   33.26
     31.2331	   73.00	   38.57	 -464.07	   33.23
     31.2666	   61.00	   38.42	 -475.92	   33.20
     31.3000	   48.00	   38.29	 -488.79	   33.17
     31.3334	   43.00	   38.16	 -493.66	   33.13
     31.3668	   44.00	   38.04	 -492.54	   33.10
     31.4003	   48.00	   37.93	 -488.43	   33.07
     31.4337	   46.00	   37.83	 -490.33	   33.04
     31.4671	   52.00	   37.73	 -484.23	   33.01
     31.5005	   50.00	   37.64	 -486.14	   32.98
     31.5339	   44.00	   37.55	 -492.05	   32.95
     31.5674	   48.00	   37.47	 -487.97	   32.92
     31.6008	   36.00	   37.39	 -499.89	   32.89
     31.6342	   37.00	   37.32	 -498.82	   32.86
     31.6676	   36.00	   37.24	 -499.74	   32.83
     31.7011	   54.00	   37.17	 -481.67	   32.80
     31.7345	   31.00	   37.11	 -504.61	   32.77
     31.7679	   31.00	   37.04	 -504.54	   32.74
     31.8013	   36.00	   36.98	 -499.48	   32.71
     31.8347	   42.00	   37.24	 -493.74	   32.68
     31.8682	   45.00	   37.19	 -490.69	   32.65
     31.9016	   43.00	   37.14	 -492.64	   32.62
     31.9350	   32.00	   37.25	 -503.75	   32.59
     31.9684	   29.00	   37.20	 -506.70	   32.56
     32.0019	   44.00	   37.16	 -491.66	   32.53
     32.0353	   39.00	   37.12	 -496.62	   32.50
     32.0687	   34.00	   37.08	 -501.58	   32.47
     32.1021	   44.00	   37.04	 -491.54	   32.44
     32.1356	   43.00	   37.00	 -492.50	   32.41
     32.1690	   51.00	   36.97	 -484.47	   32.38
     32.2024	   35.00	   36.93	 -500.43	   32.35
     32.2358	   51.00	   36.90	 -484.40	   32.32
     32.2692	   46.00	   36.87	 -489.37	   32.29
     32.3027	   56.00	   36.84	 -479.34	   32.26
     32.3361	   55.00	   36.81	 -480.31	   32.23
     32.3695	   78.00	   36.78	 -457.28	   32.20
     32.4029	   97.00	   36.75	 -438.25	   32.17
     32.4364	  128.00	   36.72	 -407.22	   32.14
     32.4698	  186.00	   36.69	 -349.19	   32.11
     32.5032	  164.00	   36.67	 -371.17	   32.08
     32.5366	  159.00	   36.64	 -376.14	   32.05
     32.5700	  141.00	   36.62	 -394.12	   32.02
     32.6035	   99.00	   36.60	 -436.10	   31.99
     32.6369	   77.00	   36.58	 -458.08	   31.96
     32.6703	   58.00	   36.56	 -477.06	   31.93
     32.7037	   59.00	   36.54	 -476.04	   31.90
     32.7372	   52.00	   36.52	 -483.02	   31.87
     32.7706	   51.00	   36.50	 -484.00	   31.84
     32.8040	   39.00	   36.48	 -495.98	   31.82
     32.8374	   38.00	   36.47	 -496.97	   31.79
     32.8708	   36.00	   36.45	 -498.95	   31.76
     32.9043	   41.00	   36.44	 -493.94	   31.73
     32.9377	   49.00	   36.43	 -485.93	   31.70
     32.9711	   31.00	   36.42	 -503.92	   31.67
     33.0045	   42.00	   36.41	 -492.91	   31.64
     33.0380	   43.00	   36.40	 -491.90	   31.61
     33.0714	   41.00	   36.39	 -493.89	   31.58
     33.1048	   51.00	   36.39	 -483.89	   31.55
     33.1382	   45.00	   36.38	 -489.88	   31.52
     33.1716	   46.00	   36.38	 -488.88	   31.49
     33.2051	   36.00	   36.38	 -498.88	   31.46
     33.2385	   46.00	   36.38	 -488.88	   31.43
     33.2719	   45.00	   36.38	 -489.88	   31.40
     33.3053	   61.00	   36.38	 -473.88	   31.37
     33.3388	   39.00	   36.39	 -495.89	   31.35
     33.3722	   49.00	   36.39	 -485.89	   31.32
     33.4056	   54.00	   36.40	 -480.90	   31.29
     33.4390	   45.00	   36.44	 -489.94	   31.26
     33.4725	   36.00	   36.45	 -498.95	   31.23
     33.5059	   32.00	   36.47	 -502.97	   31.20
     33.5393	   31.00	   36.50	 -504.00	   31.17
     33.5727	   34.00	   36.52	 -501.02	   31.14
     33.6061	   34.00	   36.54	 -501.04	   31.11
     33.6396	   47.00	   36.57	 -488.07	   31.08
     33.6730	   29.00	   36.60	 -506.10	   31.05
     33.7064	   33.00	   36.64	 -502.14	   31.02
     33.7398	   36.00	   36.67	 -499.17	   31.00
     33.7733	   45.00	   36.72	 -490.22	   30.97
     33.8067	   36.00	   36.76	 -499.26	   30.94
     33.8401	   34.00	   36.81	 -501.31	   30.91
     33.8735	   36.00	   36.78	 -499.28	   30.88
     33.9069	   47.00	   36.84	 -488.34	   30.85
     33.9404	   45.00	   36.86	 -490.36	   30.82
     33.9738	   43.00	   36.94	 -492.44	   30.79
     34.0072	   42.00	   37.02	 -493.52	   30.76
     34.0406	   39.00	   37.11	 -496.61	   30.74
     34.0741	   37.00	   37.20	 -498.70	   30.71
     34.1075	   46.00	   37.31	 -489.81	   30.68
     34.1409	   38.00	   37.42	 -497.92	   30.65
     34.1743	   63.00	   37.55	 -473.05	   30.62
     34.2077	   66.00	   37.68	 -470.18	   30.59
     34.2412	   85.00	   37.83	 -451.33	   30.56
     34.2746	  127.00	   37.99	 -409.49	   30.54
     34.3080	  159.00	   38.17	 -377.67	   30.51
     34.3414	  210.00	   38.36	 -326.86	   30.48
     34.3749	  179.00	   38.57	 -358.07	   30.45
     34.4083	  179.00	   38.80	 -358.30	   30.42
     34.4417	  133.00	   39.06	 -404.56	   30.39
     34.4751	  114.00	   39.34	 -423.84	   30.36
     34.5085	   74.00	   39.65	 -464.15	   30.34
     34.5420	   58.00	   39.99	 -480.49	   30.31
     34.5754	   51.00	   40.37	 -487.87	   30.28
     34.6088	   54.00	   40.79	 -485.29	   30.25
     34.6422	   57.00	   41.26	 -482.76	   30.22
     34.6757	   62.00	   41.78	 -478.28	   30.19
     34.7091	   50.00	   42.37	 -490.87	   30.16
     34.7425	   45.00	   43.03	 -496.53	   30.14
     34.7759	   47.00	   43.78	 -495.28	   30.11
     34.8094	   54.00	   44.63	 -489.13	   30.08
     34.8428	   57.00	   45.60	 -487.10	   30.05
     34.8762	   36.00	   46.72	 -509.22	   30.02
     34.9096	   51.00	   48.00	 -495.50	   29.99
     34.9430	   49.00	   49.50	 -499.00	   29.97
     34.9765	   38.00	   51.24	 -511.74	   29.94
     35.0099	   48.00	   53.30	 -503.80	   29.91
     35.0433	   49.00	   55.75	 -505.25	   29.88
     35.0767	   70.00	   58.70	 -487.20	   29.85
     35.1102	   49.00	   62.28	 -511.78	   29.83
     35.1436	   54.00	   66.69	 -511.19	   29.80
     35.1770	   55.00	   72.21	 -515.71	   29.77
     35.2104	   75.00	   79.23	 -502.73	   29.74
     35.2438	   82.00	   88.34	 -504.84	   29.71
     35.2773	  113.00	  100.48	 -485.98	   29.69
     35.3107	  128.00	  117.30	 -487.80	   29.66
     35.3441	  131.00	  142.52	 -510.02	   29.63
     35.3775	  145.00	  186.20	 -539.70	   29.60
     35.4110	  232.00	  273.76	 -540.26	   29.57
     35.4444	  365.00	  453.70	 -587.20	   29.55
     35.4778	  649.00	  782.58	 -632.08	   29.52
     35.5112	 1280.00	 1265.84	 -484.34	   29.49
     35.5447	 1992.00	 1752.74	 -259.24	   29.46
     35.5781	 1994.00	 1920.62	 -425.12	   29.43
     35.6115	 1639.00	 1753.11	 -612.61	   29.41
     35.6449	 1337.00	 1470.57	 -632.07	   29.38
     35.6783	 1053.00	 1093.04	 -538.54	   29.35
     35.7118	  580.00	  712.15	 -630.65	   29.32
     35.7452	  325.00	  435.36	 -608.86	   29.30
     35.7786	  233.00	  270.50	 -536.00	   29.27
     35.8120	  224.00	  183.69	 -458.19	   29.24
     35.8455	  145.00	  139.12	 -492.62	   29.21
     35.8789	  136.00	  113.98	 -476.48	   29.18
     35.9123	  135.00	   97.67	 -461.17	   29.16
     35.9457	  118.00	   86.02	 -466.52	   29.13
     35.9791	   84.00	   77.28	 -491.78	   29.10
     36.0126	   81.00	   70.53	 -488.03	   29.07
     36.0460	   61.00	   65.22	 -502.72	   29.05
     36.0794	   77.00	   60.95	 -482.45	   29.02
     36.1128	   47.00	   57.48	 -508.98	   28.99
     36.1463	   49.00	   54.62	 -504.12	   28.96
     36.1797	   42.00	   52.24	 -508.74	   28.94
     36.2131	   52.00	   50.23	 -496.73	   28.91
     36.2465	   43.00	   48.53	 -504.03	   28.88
     36.2799	   59.00	   47.07	 -486.57	   28.85
     36.3134	   45.00	   45.82	 -499.32	   28.83
     36.3468	   46.00	   44.74	 -497.24	   28.80
     36.3802	   35.00	   43.80	 -507.30	   28.77
     36.4136	   38.00	   42.99	 -503.49	   28.74
     36.4471	   42.00	   42.28	 -498.78	   28.72
     36.4805	   42.00	   41.67	 -498.17	   28.69
     36.5139	   42.00	   41.14	 -497.64	   28.66
     36.5473	   34.00	   40.68	 -505.18	   28.64
     36.5807	   37.00	   40.30	 -501.80	   28.61
     36.6142	   46.00	   39.99	 -492.49	   28.58
     36.6476	   29.00	   39.74	 -509.24	   28.55
     36.6810	   28.00	   39.57	 -510.07	   28.53
     36.7144	   30.00	   39.47	 -507.97	   28.50
     36.7479	   33.00	   39.45	 -504.95	   28.47
     36.7813	   46.00	   39.53	 -492.03	   28.45
     36.8147	   38.00	   39.73	 -500.23	   28.42
     36.8481	   33.00	   40.08	 -505.58	   28.39
     36.8815	   39.00	   40.63	 -500.13	   28.36
     36.9150	   36.00	   41.47	 -503.97	   28.34
     36.9484	   30.00	   42.76	 -511.26	   28.31
     36.9818	   43.00	   44.86	 -500.36	   28.28
     37.0152	   56.00	   48.81	 -491.31	   28.26
     37.0487	   49.00	   57.01	 -506.51	   28.23
     37.0821	   65.00	   73.66	 -507.16	   28.20
     37.1155	   95.00	  102.79	 -506.29	   28.18
     37.1489	  156.00	  142.89	 -485.39	   28.15
     37.1824	  219.00	  178.12	 -457.62	   28.12
     37.2158	  209.00	  184.05	 -473.55	   28.09
     37.2492	  190.00	  167.77	 -476.27	   28.07
     37.2826	  199.00	  145.35	 -444.85	   28.04
     37.3160	  183.00	  115.82	 -431.32	   28.01
     37.3495	  121.00	   86.37	 -463.87	   27.99
     37.3829	   87.00	   65.01	 -476.51	   27.96
     37.4163	   72.00	   52.20	 -478.70	   27.93
     37.4497	   56.00	   45.37	 -487.87	   27.91
     37.4832	   42.00	   41.79	 -498.29	   27.88
     37.5166	   50.00	   39.71	 -488.21	   27.85
     37.5500	   25.00	   38.33	 -511.83	   27.83
     37.5834	   38.00	   37.31	 -497.81	   27.80
     37.6168	   37.00	   36.53	 -498.03	   27.77
     37.6503	   33.00	   35.91	 -501.41	   27.75
     37.6837	   22.00	   35.41	 -511.91	   27.72
     37.7171	   38.00	   34.99	 -495.49	   27.69
     37.7505	   31.00	   34.64	 -502.14	   27.67
     37.7840	   35.00	   34.34	 -497.84	   27.64
     37.8174	   32.00	   34.07	 -500.57	   27.62
     37.8508	   37.00	   33.84	 -495.34	   27.59
     37.8842	   31.00	   33.64	 -501.14	   27.56
     37.9176	   35.00	   33.46	 -496.96	   27.54
     37.9511	   32.00	   33.29	 -499.79	   27.51
     37.9845	   38.00	   33.14	 -493.64	   27.48
     38.0179	   34.00	   33.01	 -497.51	   27.46
     38.0513	   29.00	   32.88	 -502.38	   27.43
     38.0848	   29.00	   32.76	 -502.26	   27.40
     38.1182	   32.00	   32.65	 -499.15	   27.38
     38.1516	   34.00	   32.55	 -497.05	   27.35
     38.1850	   34.00	   32.46	 -496.96	   27.33
     38.2185	   21.00	   32.36	 -509.86	   27.30
     38.2519	   32.00	   32.28	 -498.78	   27.27
     38.2853	   31.00	   32.20	 -499.70	   27.25
     38.3187	   34.00	   32.12	 -496.62	   27.22
     38.3521	   30.00	   32.04	 -500.54	   27.19
     38.3856	   33.00	   31.97	 -497.47	   27.17
     38.4190	   34.00	   31.90	 -496.40	   27.14
     38.4524	   27.00	   31.84	 -503.34	   27.12
     38.4858	   41.00	   31.77	 -489.27	   27.09
     38.5193	   27.00	   31.71	 -503.21	   27.06
     38.5527	   32.00	   31.65	 -498.15	   27.04
     38.5861	   30.00	   31.59	 -500.09	   27.01
     38.6195	   29.00	   31.54	 -501.04	   26.99
     38.6529	   32.00	   31.48	 -497.98	   26.96
     38.6864	   37.00	   31.43	 -492.93	   26.93
     38.7198	   27.00	   31.38	 -502.88	   26.91
     38.7532	   32.00	   31.33	 -497.83	   26.88
     38.7866	   37.00	   31.28	 -492.78	   26.86
     38.8201	   30.00	   31.23	 -499.73	   26.83
     38.8535	   27.00	   31.18	 -502.68	   26.81
     38.8869	   23.00	   31.13	 -506.63	   26.78
     38.9203	   24.00	   31.09	 -505.59	   26.75
     38.9537	   22.00	   31.04	 -507.54	   26.73
     38.9872	   31.00	   31.00	 -498.50	   26.70
     39.0206	   15.00	   30.95	 -514.45	   26.68
     39.0540	   25.00	   30.91	 -504.41	   26.65
     39.0874	   33.00	   30.87	 -496.37	   26.63
     39.1209	   31.00	   30.83	 -498.33	   26.60
     39.1543	   20.00	   30.79	 -509.29	   26.57
     39.1877	   19.00	   30.75	 -510.25	   26.55
     39.2211	   32.00	   30.71	 -497.21	   26.52
     39.2546	   24.00	   30.67	 -505.17	   26.50
     39.2880	   28.00	   30.63	 -501.13	   26.47
     39.3214	   24.00	   30.34	 -504.84	   26.45
     39.3548	   29.00	   30.31	 -499.81	   26.42
     39.3882	   30.00	   30.12	 -498.62	   26.39
     39.4217	   20.00	   30.09	 -508.59	   26.37
     39.4551	   21.00	   30.10	 -507.60	   26.34
     39.4885	   20.00	   30.07	 -508.57	   26.32
     39.5219	   20.00	   30.05	 -508.55	   26.29
     39.5554	   25.00	   30.02	 -503.52	   26.27
     39.5888	   19.00	   29.99	 -509.49	   26.24
     39.6222	   17.00	   29.97	 -511.47	   26.22
     39.6556	   23.00	   29.94	 -505.44	   26.19
     39.6890	   23.00	   29.92	 -505.42	   26.17
     39.7225	   25.00	   29.89	 -503.39	   26.14
     39.7559	   23.00	   29.87	 -505.37	   26.12
     39.7893	   22.00	   29.84	 -506.34	   26.09
     39.8227	   21.00	   29.82	 -507.32	   26.07
     39.8562	   18.00	   29.79	 -510.29	   26.04
     39.8896	   19.00	   29.77	 -509.27	   26.01
     39.9230	   27.00	   29.74	 -501.24	   25.99
     39.9564	   22.00	   29.72	 -506.22	   25.96
     39.9898	   27.00	   29.70	 -501.20	   25.94
     40.0233	   27.00	   29.67	 -501.17	   25.91
     40.0567	   20.00	   29.65	 -508.15	   25.89
     40.0901	   23.00	   29.63	 -505.13	   25.86
     40.1235	   24.00	   29.60	 -504.10	   25.84
     40.1570	   23.00	   29.58	 -505.08	   25.81
     40.1904	   29.00	   29.56	 -499.06	   25.79
     40.2238	   23.00	   29.53	 -505.03	   25.76
     40.2572	   29.00	   29.51	 -499.01	   25.74
     40.2906	   22.00	   29.49	 -505.99	   25.71
     40.3241	   30.00	   29.47	 -497.97	   25.69
     40.3575	   28.00	   29.44	 -499.94	   25.66
     40.3909	   34.00	   29.42	 -493.92	   25.64
     40.4243	   39.00	   29.40	 -488.90	   25.61
     40.4578	   31.00	   29.38	 -496.88	   25.59
     40.4912	   45.00	   29.36	 -482.86	   25.56
     40.5246	   60.00	   29.34	 -467.84	   25.54
     40.5580	   63.00	   29.32	 -464.82	   25.52
     40.5915	   62.00	   29.30	 -465.80	   25.49
     40.6249	   59.00	   29.28	 -468.78	   25.47
     40.6583	   51.00	   29.26	 -476.76	   25.44
     40.6917	   37.00	   29.24	 -490.74	   25.42
     40.7251	   50.00	   29.22	 -477.72	   25.39
     40.7586	   41.00	   29.20	 -486.70	   25.37
     40.7920	   34.00	   29.18	 -493.68	   25.34
     40.8254	   28.00	   29.16	 -499.66	   25.32
     40.8588	   24.00	   29.15	 -503.65	   25.29
     40.8923	   33.00	   29.13	 -494.63	   25.27
     40.9257	   17.00	   29.11	 -510.61	   25.24
     40.9591	   27.00	   29.07	 -500.57	   25.22
     40.9925	   22.00	   29.05	 -505.55	   25.20
     41.0259	   19.00	   29.04	 -508.54	   25.17
     41.0594	   24.00	   29.01	 -503.51	   25.15
     41.0928	   30.00	   29.00	 -497.50	   25.12
     41.1262	   30.00	   28.98	 -497.48	   25.10
     41.1596	   27.00	   28.97	 -500.47	   25.07
     41.1931	   25.00	   28.96	 -502.46	   25.05
     41.2265	   28.00	   28.94	 -499.44	   25.02
     41.2599	   25.00	   28.93	 -502.43	   25.00
     41.2933	   25.00	   28.92	 -502.42	   24.98
     41.3267	   38.00	   28.91	 -489.41	   24.95
     41.3602	   21.00	   28.90	 -506.40	   24.93
     41.3936	   35.00	   28.90	 -492.40	   24.90
     41.4270	   39.00	   28.89	 -488.39	   24.88
     41.4604	   24.00	   28.88	 -503.38	   24.85
     41.4939	   28.00	   28.88	 -499.38	   24.83
     41.5273	   18.00	   28.87	 -509.37	   24.81
     41.5607	   22.00	   28.87	 -505.37	   24.78
     41.5941	   35.00	   28.87	 -492.37	   24.76
     41.6276	   23.00	   28.87	 -504.37	   24.73
     41.6610	   35.00	   28.87	 -492.37	   24.71
     41.6944	   29.00	   28.88	 -498.38	   24.69
     41.7278	   31.00	   28.88	 -496.38	   24.66
     41.7612	   28.00	   28.89	 -499.39	   24.64
     41.7947	   35.00	   28.90	 -492.40	   24.61
     41.8281	   36.00	   28.91	 -491.41	   24.59
     41.8615	   24.00	   28.93	 -503.43	   24.57
     41.8949	   27.00	   28.94	 -500.44	   24.54
     41.9284	   31.00	   28.96	 -496.46	   24.52
     41.9618	   32.00	   28.99	 -495.49	   24.49
     41.9952	   37.00	   29.02	 -490.52	   24.47
     42.0286	   24.00	   29.05	 -503.55	   24.45
     42.0620	   25.00	   29.09	 -502.59	   24.42
     42.0955	   39.00	   29.13	 -488.63	   24.40
     42.1289	   33.00	   29.19	 -494.69	   24.37
     42.1623	   24.00	   29.24	 -503.74	   24.35
     42.1957	   30.00	   29.31	 -497.81	   24.33
     42.2292	   36.00	   29.38	 -491.88	   24.30
     42.2626	   20.00	   29.47	 -507.97	   24.28
     42.2960	   22.00	   29.57	 -506.07	   24.26
     42.3294	   31.00	   29.68	 -497.18	   24.23
     42.3628	   29.00	   29.81	 -499.31	   24.21
     42.3963	   22.00	   29.95	 -506.45	   24.18
     42.4297	   32.00	   30.12	 -496.62	   24.16
     42.4631	   23.00	   30.32	 -505.82	   24.14
     42.4965	   38.00	   30.54	 -491.04	   24.11
     42.5300	   32.00	   30.80	 -497.30	   24.09
     42.5634	   37.00	   31.11	 -492.61	   24.07
     42.5968	   36.00	   31.47	 -493.97	   24.04
     42.6302	   37.00	   31.90	 -493.40	   24.02
     42.6637	   47.00	   32.41	 -483.91	   24.00
     42.6971	   56.00	   33.03	 -475.53	   23.97
     42.7305	   73.00	   33.78	 -459.28	   23.95
     42.7639	   62.00	   34.70	 -471.20	   23.93
     42.7973	   56.00	   35.86	 -478.36	   23.90
     42.8308	   51.00	   37.33	 -484.83	   23.88
     42.8642	   48.00	   39.23	 -489.73	   23.86
     42.8976	   61.00	   41.75	 -479.25	   23.83
     42.9310	   64.00	   45.24	 -479.74	   23.81
     42.9645	   73.00	   50.42	 -475.92	   23.79
     42.9979	   77.00	   59.24	 -480.74	   23.76
     43.0313	  103.00	   76.30	 -471.80	   23.74
     43.0647	  138.00	  110.21	 -470.71	   23.72
     43.0981	  257.00	  170.84	 -412.34	   23.69
     43.1316	  529.00	  259.98	 -229.48	   23.67
     43.1650	  775.00	  353.72	  -77.22	   23.65
     43.1984	  868.00	  393.21	  -23.71	   23.62
     43.2318	  757.00	  363.80	 -105.30	   23.60
     43.2653	  651.00	  319.77	 -167.27	   23.58
     43.2987	  573.00	  274.79	 -200.29	   23.55
     43.3321	  463.00	  212.82	 -248.32	   23.53
     43.3655	  277.00	  149.33	 -370.83	   23.51
     43.3989	  176.00	  102.05	 -424.55	   23.48
     43.4324	   85.00	   72.89	 -486.39	   23.46
     43.4658	   74.00	   56.94	 -481.44	   23.44
     43.4992	   63.00	   48.44	 -483.94	   23.42
     43.5326	   44.00	   43.52	 -498.02	   23.39
     43.5661	   56.00	   40.27	 -482.77	   23.37
     43.5995	   49.00	   37.92	 -487.42	   23.35
     43.6329	   35.00	   36.14	 -499.64	   23.32
     43.6663	   33.00	   34.75	 -500.25	   23.30
     43.6997	   23.00	   33.64	 -509.14	   23.28
     43.7332	   31.00	   32.74	 -500.24	   23.26
     43.7666	   31.00	   32.00	 -499.50	   23.23
     43.8000	   28.00	   31.39	 -501.89	   23.21
     43.8334	   34.00	   30.87	 -495.37	   23.19
     43.8669	   29.00	   30.42	 -499.92	   23.16
     43.9003	   19.00	   30.04	 -509.54	   23.14
     43.9337	   28.00	   29.71	 -500.21	   23.12
     43.9671	   23.00	   29.41	 -504.91	   23.10
     44.0005	   24.00	   29.16	 -503.66	   23.07
     44.0340	   30.00	   28.93	 -497.43	   23.05
     44.0674	   31.00	   28.72	 -496.22	   23.03
     44.1008	   31.00	   28.54	 -496.04	   23.01
     44.1342	   21.00	   28.37	 -505.87	   22.98
     44.1677	   22.00	   28.22	 -504.72	   22.96
     44.2011	   21.00	   28.08	 -505.58	   22.94
     44.2345	   27.00	   27.96	 -499.46	   22.92
     44.2679	   32.00	   27.84	 -494.34	   22.89
     44.3014	   20.00	   27.73	 -506.23	   22.87
     44.3348	   19.00	   27.63	 -507.13	   22.85
     44.3682	   18.00	   27.54	 -508.04	   22.83
     44.4016	   21.00	   27.45	 -504.95	   22.80
     44.4350	   30.00	   27.37	 -495.87	   22.78
     44.4685	   31.00	   27.29	 -494.79	   22.76
     44.5019	   25.00	   27.22	 -500.72	   22.74
     44.5353	   27.00	   27.15	 -498.65	   22.71
     44.5687	   19.00	   27.08	 -506.58	   22.69
     44.6022	   24.00	   27.02	 -501.52	   22.67
     44.6356	   18.00	   26.96	 -507.46	   22.65
     44.6690	   25.00	   26.90	 -500.40	   22.62
     44.7024	   30.00	   26.85	 -495.35	   22.60
     44.7358	   21.00	   26.79	 -504.29	   22.58
     44.7693	   22.00	   26.74	 -503.24	   22.56
     44.8027	   23.00	   26.69	 -502.19	   22.54
     44.8361	   20.00	   26.65	 -505.15	   22.51
     44.8695	   28.00	   26.60	 -497.10	   22.49
     44.9030	   30.00	   26.56	 -495.06	   22.47
     44.9364	   25.00	   26.51	 -500.01	   22.45
     44.9698	   23.00	   26.47	 -501.97	   22.43
     45.0032	   23.00	   26.43	 -501.93	   22.40
     45.0367	   15.00	   26.39	 -509.89	   22.38
     45.0701	   30.00	   26.35	 -494.85	   22.36
     45.1035	   17.00	   26.32	 -507.82	   22.34
     45.1369	   22.00	   26.28	 -502.78	   22.32
     45.1703	   25.00	   26.24	 -499.74	   22.29
     45.2038	   21.00	   26.21	 -503.71	   22.27
     45.2372	   12.00	   26.17	 -512.67	   22.25
     45.2706	   20.00	   26.14	 -504.64	   22.23
     45.3040	   23.00	   26.11	 -501.61	   22.21
     45.3375	   22.00	   26.08	 -502.58	   22.18
     45.3709	   25.00	   26.04	 -499.54	   22.16
     45.4043	   11.00	   26.01	 -513.51	   22.14
     45.4377	   18.00	   25.98	 -506.48	   22.12
     45.4711	   21.00	   25.95	 -503.45	   22.10
     45.5046	   29.00	   25.92	 -495.42	   22.08
     45.5380	   12.00	   25.89	 -512.39	   22.05
     45.5714	   25.00	   25.86	 -499.36	   22.03
     45.6048	   16.00	   25.83	 -508.33	   22.01
     45.6383	   20.00	   25.80	 -504.30	   21.99
     45.6717	   19.00	   25.78	 -505.28	   21.97
     45.7051	   27.00	   25.75	 -497.25	   21.95
     45.7385	   15.00	   25.72	 -509.22	   21.92
     45.7719	   25.00	   25.69	 -499.19	   21.90
     45.8054	   15.00	   25.67	 -509.17	   21.88
     45.8388	   17.00	   25.64	 -507.14	   21.86
     45.8722	   21.00	   25.61	 -503.11	   21.84
     45.9056	   17.00	   25.59	 -507.09	   21.82
     45.9391	   22.00	   25.56	 -502.06	   21.79
     45.9725	   11.00	   25.54	 -513.04	   21.77
     46.0059	   12.00	   25.51	 -512.01	   21.75
     46.0393	   18.00	   25.49	 -505.99	   21.73
     46.0728	   23.00	   25.46	 -500.96	   21.71
     46.1062	   12.00	   25.44	 -511.94	   21.69
     46.1396	   18.00	   25.42	 -505.92	   21.67
     46.1730	   15.00	   25.39	 -508.89	   21.65
     46.2064	   21.00	   25.37	 -502.87	   21.62
     46.2399	   22.00	   25.35	 -501.85	   21.60
     46.2733	   23.00	   25.32	 -500.82	   21.58
     46.3067	   21.00	   25.30	 -502.80	   21.56
     46.3401	   19.00	   25.28	 -504.78	   21.54
     46.3736	   24.00	   25.26	 -499.76	   21.52
     46.4070	   16.00	   25.24	 -507.74	   21.50
     46.4404	   18.00	   25.22	 -505.72	   21.48
     46.4738	   21.00	   25.20	 -502.70	   21.45
     46.5072	   21.00	   25.18	 -502.68	   21.43
     46.5407	   17.00	   25.16	 -506.66	   21.41
     46.5741	   22.00	   25.15	 -501.65	   21.39
     46.6075	   19.00	   25.13	 -504.63	   21.37
     46.6409	   24.00	   25.12	 -499.62	   21.35
     46.6744	   21.00	   25.10	 -502.60	   21.33
     46.7078	   16.00	   25.09	 -507.59	   21.31
     46.7412	   25.00	   25.08	 -498.58	   21.29
     46.7746	   19.00	   25.08	 -504.58	   21.26
     46.8080	   10.00	   25.07	 -513.57	   21.24
     46.8415	   32.00	   25.08	 -491.58	   21.22
     46.8749	   23.00	   25.09	 -500.59	   21.20
     46.9083	   24.00	   25.10	 -499.60	   21.18
     46.9417	   32.00	   25.13	 -491.63	   21.16
     46.9752	   33.00	   25.18	 -490.68	   21.14
     47.0086	   22.00	   25.25	 -501.75	   21.12
     47.0420	   41.00	   25.36	 -482.86	   21.10
     47.0754	   29.00	   25.49	 -494.99	   21.08
     47.1088	   19.00	   25.89	 -505.39	   21.06
     47.1423	   29.00	   26.70	 -496.20	   21.04
     47.1757	   29.00	   28.12	 -497.62	   21.02
     47.2091	   38.00	   30.32	 -490.82	   20.99
     47.2425	   35.00	   32.79	 -496.29	   20.97
     47.2760	   30.00	   34.11	 -502.61	   20.95
     47.3094	   34.00	   33.48	 -497.98	   20.93
     47.3428	   33.00	   32.26	 -497.76	   20.91
     47.3762	   25.00	   31.31	 -504.81	   20.89
     47.4097	   19.00	   30.12	 -509.62	   20.87
     47.4431	   22.00	   28.50	 -505.00	   20.85
     47.4765	   28.00	   27.03	 -497.53	   20.83
     47.5099	   11.00	   25.99	 -513.49	   20.81
     47.5433	   22.00	   25.37	 -501.87	   20.79
     47.5768	   25.00	   25.02	 -498.52	   20.77
     47.6102	   20.00	   24.81	 -503.31	   20.75
     47.6436	   15.00	   24.68	 -508.18	   20.73
     47.6770	   19.00	   24.58	 -504.08	   20.71
     47.7105	   20.00	   24.51	 -503.01	   20.69
     47.7439	   16.00	   24.44	 -506.94	   20.67
     47.7773	   14.00	   24.39	 -508.89	   20.65
     47.8107	   18.00	   24.34	 -504.84	   20.63
     47.8441	   27.00	   24.30	 -495.80	   20.61
     47.8776	   17.00	   24.26	 -505.76	   20.59
     47.9110	   24.00	   24.23	 -498.73	   20.56
     47.9444	   20.00	   24.19	 -502.69	   20.54
     47.9778	   21.00	   24.16	 -501.66	   20.52
     48.0113	   22.00	   24.13	 -500.63	   20.50
     48.0447	   21.00	   24.10	 -501.60	   20.48
     48.0781	   22.00	   24.08	 -500.58	   20.46
     48.1115	   18.00	   24.05	 -504.55	   20.44
     48.1449	   27.00	   24.03	 -495.53	   20.42
     48.1784	   25.00	   24.00	 -497.50	   20.40
     48.2118	   18.00	   23.98	 -504.48	   20.38
     48.2452	   23.00	   23.95	 -499.45	   20.36
     48.2786	   19.00	   23.93	 -503.43	   20.34
     48.3121	   14.00	   23.91	 -508.41	   20.32
     48.3455	   17.00	   23.88	 -505.38	   20.30
     48.3789	   21.00	   23.86	 -501.36	   20.28
     48.4123	   22.00	   23.84	 -500.34	   20.26
     48.4458	   20.00	   23.82	 -502.32	   20.24
     48.4792	   24.00	   23.79	 -498.29	   20.22
     48.5126	   15.00	   23.77	 -507.27	   20.20
     48.5460	   22.00	   23.75	 -500.25	   20.18
     48.5794	   18.00	   23.73	 -504.23	   20.16
     48.6129	   21.00	   23.71	 -501.21	   20.14
     48.6463	   19.00	   23.69	 -503.19	   20.12
     48.6797	   18.00	   23.67	 -504.17	   20.10
     48.7131	   29.00	   23.65	 -493.15	   20.09
     48.7466	   28.00	   23.62	 -494.12	   20.07
     48.7800	   19.00	   23.60	 -503.10	   20.05
     48.8134	   17.00	   23.58	 -505.08	   20.03
     48.8468	   18.00	   23.56	 -504.06	   20.01
     48.8802	   23.00	   23.54	 -499.04	   19.99
     48.9137	   22.00	   23.52	 -500.02	   19.97
     48.9471	   12.00	   23.50	 -510.00	   19.95
     48.9805	   16.00	   23.48	 -505.98	   19.93
     49.0139	   20.00	   23.46	 -501.96	   19.91
     49.0474	   19.00	   23.44	 -502.94	   19.89
     49.0808	   19.00	   23.42	 -502.92	   19.87
     49.1142	   15.00	   23.40	 -506.90	   19.85
     49.1476	   20.00	   23.38	 -501.88	   19.83
     49.1810	   16.00	   23.36	 -505.86	   19.81
     49.2145	   18.00	   23.34	 -503.84	   19.79
     49.2479	   23.00	   23.32	 -498.82	   19.77
     49.2813	   17.00	   23.30	 -504.80	   19.75
     49.3147	   17.00	   23.28	 -504.78	   19.73
     49.3482	   15.00	   23.26	 -506.76	   19.71
     49.3816	   17.00	   23.24	 -504.74	   19.69
     49.4150	   17.00	   23.22	 -504.72	   19.67
     49.4484	   15.00	   23.20	 -506.70	   19.66
     49.4818	   23.00	   23.22	 -498.72	   19.64
     49.5153	   18.00	   23.20	 -503.70	   19.62
     49.5487	   17.00	   23.18	 -504.68	   19.60
     49.5821	   24.00	   23.16	 -497.66	   19.58
     49.6155	   16.00	   23.15	 -505.65	   19.56
     49.6490	   16.00	   23.14	 -505.64	   19.54
     49.6824	   20.00	   23.12	 -501.62	   19.52
     49.7158	   12.00	   23.10	 -509.60	   19.50
     49.7492	   12.00	   23.08	 -509.58	   19.48
     49.7826	   11.00	   23.06	 -510.56	   19.46
     49.8161	   24.00	   23.04	 -497.54	   19.44
     49.8495	   14.00	   23.03	 -507.53	   19.43
     49.8829	   22.00	   23.01	 -499.51	   19.41
     49.9163	   21.00	   22.99	 -500.49	   19.39
     49.9498	   15.00	   22.97	 -506.47	   19.37
     49.9832	   18.00	   22.95	 -503.45	   19.35
     50.0166	   29.00	   22.94	 -492.44	   19.33
     50.0500	   20.00	   22.92	 -501.42	   19.31
     50.0835	   22.00	   22.90	 -499.40	   19.29
     50.1169	   27.00	   22.88	 -494.38	   19.27
     50.1503	   18.00	   22.86	 -503.36	   19.26
     50.1837	   24.00	   22.85	 -497.35	   19.24
     50.2171	   16.00	   22.83	 -505.33	   19.22
     50.2506	   24.00	   22.81	 -497.31	   19.20
     50.2840	   24.00	   22.79	 -497.29	   19.18
     50.3174	   24.00	   22.78	 -497.28	   19.16
     50.3508	   20.00	   22.76	 -501.26	   19.14
     50.3843	   24.00	   22.74	 -497.24	   19.12
     50.4177	   11.00	   22.72	 -510.22	   19.10
     50.4511	   32.00	   22.71	 -489.21	   19.09
     50.4845	   29.00	   22.69	 -492.19	   19.07
     50.5179	   30.00	   22.67	 -491.17	   19.05
     50.5514	   34.00	   22.66	 -487.16	   19.03
     50.5848	   27.00	   22.64	 -494.14	   19.01
     50.6182	   27.00	   22.62	 -494.12	   18.99
     50.6516	   19.00	   22.61	 -502.11	   18.97
     50.6851	   23.00	   22.59	 -498.09	   18.96
     50.7185	   24.00	   22.57	 -497.07	   18.94
     50.7519	   31.00	   22.56	 -490.06	   18.92
     50.7853	   24.00	   22.54	 -497.04	   18.90
     50.8187	   20.00	   22.52	 -501.02	   18.88
     50.8522	   21.00	   22.51	 -500.01	   18.86
     50.8856	   27.00	   22.49	 -493.99	   18.85
     50.9190	   24.00	   22.48	 -496.98	   18.83
     50.9524	   17.00	   22.46	 -503.96	   18.81
     50.9859	   16.00	   22.45	 -504.95	   18.79
     51.0193	   17.00	   22.43	 -503.93	   18.77
     51.0527	   21.00	   22.41	 -499.91	   18.75
     51.0861	   23.00	   22.40	 -497.90	   18.74
     51.1196	   27.00	   22.38	 -493.88	   18.72
     51.1530	   20.00	   22.37	 -500.87	   18.70
     51.1864	   19.00	   22.36	 -501.86	   18.68
     51.2198	   22.00	   22.34	 -498.84	   18.66
     51.2532	   14.00	   22.32	 -506.82	   18.64
     51.2867	   31.00	   22.31	 -489.81	   18.63
     51.3201	   16.00	   22.30	 -504.80	   18.61
     51.3535	    9.00	   22.28	 -511.78	   18.59
     51.3869	   27.00	   22.27	 -493.77	   18.57
     51.4204	   14.00	   22.26	 -506.76	   18.55
     51.4538	   20.00	   22.24	 -500.74	   18.54
     51.4872	    8.00	   22.23	 -512.73	   18.52
     51.5206	   22.00	   22.22	 -498.72	   18.50
     51.5540	   17.00	   22.21	 -503.71	   18.48
     51.5875	   20.00	   22.19	 -500.69	   18.46
     51.6209	   15.00	   22.18	 -505.68	   18.45
     51.6543	    8.00	   22.17	 -512.67	   18.43
     51.6877	   16.00	   22.16	 -504.66	   18.41
     51.7212	   17.00	   22.15	 -503.65	   18.39
     51.7546	    8.00	   22.14	 -512.64	   18.37
     51.7880	   18.00	   22.13	 -502.63	   18.36
     51.8214	   21.00	   22.12	 -499.62	   18.34
     51.8548	   18.00	   22.12	 -502.62	   18.32
     51.8883	   20.00	   22.11	 -500.61	   18.30
     51.9217	   19.00	   22.10	 -501.60	   18.28
     51.9551	   14.00	   22.09	 -506.59	   18.27
     51.9885	   23.00	   22.09	 -497.59	   18.25
     52.0220	   27.00	   22.08	 -493.58	   18.23
     52.0554	   22.00	   22.08	 -498.58	   18.21
     52.0888	   23.00	   22.08	 -497.58	   18.20
     52.1222	   25.00	   22.08	 -495.58	   18.18
     52.1557	   20.00	   22.08	 -500.58	   18.16
     52.1891	   21.00	   22.08	 -499.58	   18.14
     52.2225	   18.00	   22.08	 -502.58	   18.13
     52.2559	    8.00	   22.08	 -512.58	   18.11
     52.2893	   20.00	   22.09	 -500.59	   18.09
     52.3228	   23.00	   22.09	 -497.59	   18.07
     52.3562	   16.00	   22.10	 -504.60	   18.06
     52.3896	   11.00	   22.11	 -509.61	   18.04
     52.4230	   17.00	   22.13	 -503.63	   18.02
     52.4565	   24.00	   22.15	 -496.65	   18.00
     52.4899	   15.00	   22.17	 -505.67	   17.99
     52.5233	   18.00	   22.19	 -502.69	   17.97
     52.5567	   11.00	   22.22	 -509.72	   17.95
     52.5901	   10.00	   22.25	 -510.75	   17.93
     52.6236	   16.00	   22.29	 -504.79	   17.92
     52.6570	   14.00	   22.33	 -506.83	   17.90
     52.6904	   14.00	   22.38	 -506.88	   17.88
     52.7238	   18.00	   22.44	 -502.94	   17.86
     52.7573	   10.00	   22.51	 -511.01	   17.85
     52.7907	   22.00	   22.59	 -499.09	   17.83
     52.8241	   20.00	   22.68	 -501.18	   17.81
     52.8575	   17.00	   22.79	 -504.29	   17.79
     52.8909	   12.00	   22.92	 -509.42	   17.78
     52.9244	   31.00	   23.17	 -490.67	   17.76
     52.9578	   17.00	   23.35	 -504.85	   17.74
     52.9912	   23.00	   23.56	 -499.06	   17.73
     53.0246	   18.00	   23.82	 -504.32	   17.71
     53.0581	   21.00	   24.18	 -501.68	   17.69
     53.0915	   25.00	   24.56	 -498.06	   17.68
     53.1249	   23.00	   25.03	 -500.53	   17.66
     53.1583	   20.00	   25.61	 -504.11	   17.64
     53.1917	   28.00	   26.36	 -496.86	   17.62
     53.2252	   25.00	   27.33	 -500.83	   17.61
     53.2586	   24.00	   28.63	 -503.13	   17.59
     53.2920	   29.00	   30.46	 -499.96	   17.57
     53.3254	   31.00	   33.30	 -500.80	   17.56
     53.3589	   25.00	   38.27	 -511.77	   17.54
     53.3923	   38.00	   47.70	 -508.20	   17.52
     53.4257	   47.00	   65.07	 -516.57	   17.51
     53.4591	   62.00	   93.27	 -529.77	   17.49
     53.4926	   94.00	  130.53	 -535.03	   17.47
     53.5260	  144.00	  163.52	 -518.02	   17.46
     53.5594	  119.00	  169.49	 -548.99	   17.44
     53.5928	   97.00	  151.25	 -552.75	   17.42
     53.6262	   84.00	  133.09	 -547.59	   17.40
     53.6597	   94.00	  123.01	 -527.51	   17.39
     53.6931	   86.00	  110.78	 -523.28	   17.37
     53.7265	   68.00	   89.59	 -520.09	   17.35
     53.7599	   64.00	   67.43	 -501.93	   17.34
     53.7934	   51.00	   50.58	 -498.08	   17.32
     53.8268	   32.00	   39.86	 -506.36	   17.31
     53.8602	   43.00	   33.76	 -489.26	   17.29
     53.8936	   27.00	   30.36	 -501.86	   17.27
     53.9270	   30.00	   28.32	 -496.82	   17.26
     53.9605	   30.00	   26.96	 -495.46	   17.24
     53.9939	   44.00	   25.97	 -480.47	   17.22
     54.0273	   43.00	   25.20	 -480.70	   17.21
     54.0607	   42.00	   24.60	 -481.10	   17.19
     54.0942	   41.00	   24.12	 -481.62	   17.17
     54.1276	   50.00	   23.73	 -472.23	   17.16
     54.1610	   42.00	   23.40	 -479.90	   17.14
     54.1944	   28.00	   23.13	 -493.63	   17.12
     54.2278	   41.00	   22.89	 -480.39	   17.11
     54.2613	   41.00	   22.70	 -480.20	   17.09
     54.2947	   32.00	   22.52	 -489.02	   17.07
     54.3281	   25.00	   22.38	 -495.88	   17.06
     54.3615	   31.00	   22.25	 -489.75	   17.04
     54.3950	   20.00	   22.13	 -500.63	   17.03
     54.4284	   25.00	   22.03	 -495.53	   17.01
     54.4618	   23.00	   21.94	 -497.44	   16.99
     54.4952	   23.00	   21.86	 -497.36	   16.98
     54.5287	   27.00	   21.78	 -493.28	   16.96
     54.5621	   20.00	   21.72	 -500.22	   16.94
     54.5955	   19.00	   21.66	 -501.16	   16.93
     54.6289	   16.00	   21.61	 -504.11	   16.91
     54.6623	   28.00	   21.56	 -492.06	   16.90
     54.6958	   17.00	   21.51	 -503.01	   16.88
     54.7292	   23.00	   21.47	 -496.97	   16.86
     54.7626	   25.00	   21.44	 -494.94	   16.85
     54.7960	   28.00	   21.41	 -491.91	   16.83
     54.8295	   21.00	   21.38	 -498.88	   16.82
     54.8629	   24.00	   21.35	 -495.85	   16.80
     54.8963	   19.00	   21.33	 -500.83	   16.78
     54.9297	   34.00	   21.30	 -485.80	   16.77
     54.9631	   29.00	   21.28	 -490.78	   16.75
     54.9966	   29.00	   21.27	 -490.77	   16.74
     55.0300	   31.00	   21.25	 -488.75	   16.72
     55.0634	   32.00	   21.24	 -487.74	   16.71
     55.0968	   39.00	   21.23	 -480.73	   16.69
     55.1303	   39.00	   21.22	 -480.72	   16.67
     55.1637	   25.00	   21.22	 -494.72	   16.66
     55.1971	   34.00	   21.21	 -485.71	   16.64
     55.2305	   33.00	   21.21	 -486.71	   16.63
     55.2639	   51.00	   21.21	 -468.71	   16.61
     55.2974	   62.00	   21.22	 -457.72	   16.59
     55.3308	   62.00	   21.22	 -457.72	   16.58
     55.3642	   73.00	   21.23	 -446.73	   16.56
     55.3976	   62.00	   21.24	 -457.74	   16.55
     55.4311	   68.00	   21.25	 -451.75	   16.53
     55.4645	   46.00	   21.27	 -473.77	   16.52
     55.4979	   51.00	   21.29	 -468.79	   16.50
     55.5313	   44.00	   21.31	 -475.81	   16.49
     55.5648	   42.00	   21.33	 -477.83	   16.47
     55.5982	   30.00	   21.36	 -489.86	   16.45
     55.6316	   30.00	   21.39	 -489.89	   16.44
     55.6650	   33.00	   21.43	 -486.93	   16.42
     55.6984	   30.00	   21.47	 -489.97	   16.41
     55.7319	   25.00	   21.51	 -495.01	   16.39
     55.7653	   20.00	   21.57	 -500.07	   16.38
     55.7987	   30.00	   21.62	 -490.12	   16.36
     55.8321	   37.00	   21.68	 -483.18	   16.35
     55.8656	   33.00	   21.75	 -487.25	   16.33
     55.8990	   32.00	   21.83	 -488.33	   16.32
     55.9324	   43.00	   21.92	 -477.42	   16.30
     55.9658	   31.00	   22.01	 -489.51	   16.29
     55.9992	   32.00	   22.12	 -488.62	   16.27
     56.0327	   39.00	   22.24	 -481.74	   16.25
     56.0661	   38.00	   22.37	 -482.87	   16.24
     56.0995	   29.00	   22.52	 -492.02	   16.22
     56.1329	   20.00	   22.68	 -501.18	   16.21
     56.1664	   32.00	   22.87	 -489.37	   16.19
     56.1998	   25.00	   23.08	 -496.58	   16.18
     56.2332	   28.00	   23.31	 -493.81	   16.16
     56.2666	   36.00	   23.58	 -486.08	   16.15
     56.3000	   35.00	   23.88	 -487.38	   16.13
     56.3335	   18.00	   24.22	 -504.72	   16.12
     56.3669	   33.00	   24.62	 -490.12	   16.10
     56.4003	   28.00	   25.07	 -495.57	   16.09
     56.4337	   29.00	   25.60	 -495.10	   16.07
     56.4672	   30.00	   26.21	 -494.71	   16.06
     56.5006	   44.00	   26.93	 -481.43	   16.04
     56.5340	   75.00	   27.79	 -451.29	   16.03
     56.5674	   51.00	   28.81	 -476.31	   16.01
     56.6008	   55.00	   30.04	 -473.54	   16.00
     56.6343	   56.00	   31.55	 -474.05	   15.98
     56.6677	   59.00	   33.42	 -472.92	   15.97
     56.7011	   56.00	   35.78	 -478.28	   15.95
     56.7345	   69.00	   38.80	 -468.30	   15.94
     56.7680	   88.00	   42.78	 -453.28	   15.92
     56.8014	   74.00	   48.25	 -472.75	   15.91
     56.8348	   96.00	   56.36	 -458.86	   15.89
     56.8682	  122.00	   69.87	 -446.37	   15.88
     56.9017	  155.00	   94.71	 -438.21	   15.87
     56.9351	  175.00	  140.69	 -464.19	   15.85
     56.9685	  291.00	  218.41	 -425.91	   15.84
     57.0019	  510.00	  329.61	 -318.11	   15.82
     57.0353	  788.00	  449.22	 -159.72	   15.81
     57.0688	  802.00	  509.27	 -205.77	   15.79
     57.1022	  638.00	  470.98	 -331.48	   15.78
     57.1356	  448.00	  400.22	 -450.72	   15.76
     57.1690	  441.00	  356.28	 -413.78	   15.75
     57.2025	  538.00	  335.05	 -295.55	   15.73
     57.2359	  475.00	  294.39	 -317.89	   15.72
     57.2693	  279.00	  225.64	 -445.14	   15.70
     57.3027	  216.00	  158.22	 -440.72	   15.69
     57.3361	  153.00	  108.36	 -453.86	   15.68
     57.3696	  114.00	   77.01	 -461.51	   15.66
     57.4030	   65.00	   59.09	 -492.59	   15.65
     57.4364	   60.00	   48.93	 -487.43	   15.63
     57.4698	   49.00	   42.70	 -492.20	   15.62
     57.5033	   41.00	   38.45	 -495.95	   15.60
     57.5367	   56.00	   35.32	 -477.82	   15.59
     57.5701	   39.00	   32.91	 -492.41	   15.58
     57.6035	   45.00	   30.99	 -484.49	   15.56
     57.6369	   43.00	   29.42	 -484.92	   15.55
     57.6704	   48.00	   28.16	 -478.66	   15.53
     57.7038	   50.00	   27.12	 -475.62	   15.52
     57.7372	   46.00	   26.24	 -478.74	   15.50
     57.7706	   23.00	   25.49	 -500.99	   15.49
     57.8041	   34.00	   24.84	 -489.34	   15.48
     57.8375	   43.00	   24.29	 -479.79	   15.46
     57.8709	   39.00	   23.81	 -483.31	   15.45
     57.9043	   35.00	   23.39	 -486.89	   15.43
     57.9378	   28.00	   23.01	 -493.51	   15.42
     57.9712	   29.00	   22.69	 -492.19	   15.41
     58.0046	   24.00	   22.39	 -496.89	   15.39
     58.0380	   19.00	   22.13	 -501.63	   15.38
     58.0714	   20.00	   21.89	 -500.39	   15.36
     58.1049	   25.00	   21.68	 -495.18	   15.35
     58.1383	   27.00	   21.48	 -492.98	   15.34
     58.1717	   32.00	   21.30	 -487.80	   15.32
     58.2051	   21.00	   21.14	 -498.64	   15.31
     58.2386	   17.00	   20.99	 -502.49	   15.29
     58.2720	   16.00	   20.85	 -503.35	   15.28
     58.3054	   14.00	   20.73	 -505.23	   15.27
     58.3388	   20.00	   20.75	 -499.25	   15.25
     58.3722	   33.00	   20.64	 -486.14	   15.24
     58.4057	   21.00	   20.54	 -498.04	   15.22
     58.4391	   23.00	   20.44	 -495.94	   15.21
     58.4725	   16.00	   20.36	 -502.86	   15.20
     58.5059	   29.00	   20.34	 -489.84	   15.18
     58.5394	   23.00	   20.27	 -495.77	   15.17
     58.5728	   19.00	   20.20	 -499.70	   15.16
     58.6062	   16.00	   20.13	 -502.63	   15.14
     58.6396	   11.00	   20.07	 -507.57	   15.13
     58.6730	   24.00	   20.01	 -494.51	   15.12
     58.7065	   21.00	   19.95	 -497.45	   15.10
     58.7399	   18.00	   19.90	 -500.40	   15.09
     58.7733	   16.00	   19.85	 -502.35	   15.07
     58.8067	   14.00	   19.80	 -504.30	   15.06
     58.8402	   23.00	   19.75	 -495.25	   15.05
     58.8736	   21.00	   19.71	 -497.21	   15.03
     58.9070	   16.00	   19.67	 -502.17	   15.02
     58.9404	   14.00	   19.63	 -504.13	   15.01
     58.9739	   16.00	   19.59	 -502.09	   14.99
     59.0073	    9.00	   19.56	 -509.06	   14.98
     59.0407	   24.00	   19.52	 -494.02	   14.97
     59.0741	   25.00	   19.49	 -492.99	   14.95
     59.1075	   24.00	   19.46	 -493.96	   14.94
     59.1410	   22.00	   19.43	 -495.93	   14.93
     59.1744	   15.00	   19.40	 -502.90	   14.91
     59.2078	   19.00	   19.37	 -498.87	   14.90
     59.2412	   11.00	   19.34	 -506.84	   14.89
     59.2747	   18.00	   19.32	 -499.82	   14.87
     59.3081	   17.00	   19.29	 -500.79	   14.86
     59.3415	   18.00	   19.27	 -499.77	   14.85
     59.3749	   21.00	   19.25	 -496.75	   14.83
     59.4083	   20.00	   19.23	 -497.73	   14.82
     59.4418	   18.00	   19.21	 -499.71	   14.81
     59.4752	   22.00	   19.19	 -495.69	   14.79
     59.5086	   17.00	   19.17	 -500.67	   14.78
     59.5420	   22.00	   19.15	 -495.65	   14.77
     59.5755	   16.00	   19.13	 -501.63	   14.76
     59.6089	   30.00	   19.11	 -487.61	   14.74
     59.6423	   25.00	   19.10	 -492.60	   14.73
     59.6757	   20.00	   19.08	 -497.58	   14.72
     59.7091	   21.00	   19.07	 -496.57	   14.70
     59.7426	   22.00	   19.06	 -495.56	   14.69
     59.7760	   24.00	   19.04	 -493.54	   14.68
     59.8094	   11.00	   19.03	 -506.53	   14.66
     59.8428	   20.00	   19.02	 -497.52	   14.65
     59.8763	   19.00	   19.01	 -498.51	   14.64
     59.9097	   27.00	   19.00	 -490.50	   14.63
     59.9431	   19.00	   18.99	 -498.49	   14.61
     59.9765	   11.00	   18.98	 -506.48	   14.60
     60.0099	   19.00	   18.98	 -498.48	   14.59
     60.0434	   17.00	   18.97	 -500.47	   14.57
     60.0768	   29.00	   18.96	 -488.46	   14.56
     60.1102	   29.00	   18.96	 -488.46	   14.55
     60.1436	   15.00	   18.95	 -502.45	   14.54
     60.1771	   24.00	   18.95	 -493.45	   14.52
     60.2105	   11.00	   18.95	 -506.45	   14.51
     60.2439	   22.00	   18.95	 -495.45	   14.50
     60.2773	   19.00	   18.94	 -498.44	   14.49
     60.3107	   31.00	   18.94	 -486.44	   14.47
     60.3442	   43.00	   18.95	 -474.45	   14.46
     60.3776	   24.00	   18.95	 -493.45	   14.45
     60.4110	   41.00	   18.95	 -476.45	   14.44
     60.4444	   30.00	   18.95	 -487.45	   14.42
     60.4779	   39.00	   18.96	 -478.46	   14.41
     60.5113	   27.00	   18.97	 -490.47	   14.40
     60.5447	   31.00	   18.97	 -486.47	   14.39
     60.5781	   23.00	   18.98	 -494.48	   14.37
     60.6116	   30.00	   18.99	 -487.49	   14.36
     60.6450	   28.00	   19.01	 -489.51	   14.35
     60.6784	   36.00	   19.02	 -481.52	   14.34
     60.7118	   20.00	   19.04	 -497.54	   14.32
     60.7452	   18.00	   19.05	 -499.55	   14.31
     60.7787	   21.00	   19.07	 -496.57	   14.30
     60.8121	   22.00	   19.09	 -495.59	   14.29
     60.8455	   31.00	   19.12	 -486.62	   14.27
     60.8789	   20.00	   19.14	 -497.64	   14.26
     60.9124	   27.00	   19.17	 -490.67	   14.25
     60.9458	   17.00	   19.20	 -500.70	   14.24
     60.9792	   14.00	   19.23	 -503.73	   14.22
     61.0126	   29.00	   19.27	 -488.77	   14.21
     61.0460	   29.00	   19.31	 -488.81	   14.20
     61.0795	   25.00	   19.35	 -492.85	   14.19
     61.1129	   20.00	   19.40	 -497.90	   14.18
     61.1463	   24.00	   19.45	 -493.95	   14.16
     61.1797	   19.00	   19.51	 -499.01	   14.15
     61.2132	   21.00	   19.57	 -497.07	   14.14
     61.2466	   37.00	   19.53	 -481.03	   14.13
     61.2800	   22.00	   19.60	 -496.10	   14.12
     61.3134	   17.00	   19.68	 -501.18	   14.10
     61.3468	   18.00	   19.77	 -500.27	   14.09
     61.3803	   18.00	   19.86	 -500.36	   14.08
     61.4137	   21.00	   19.91	 -497.41	   14.07
     61.4471	   15.00	   20.03	 -503.53	   14.06
     61.4805	   16.00	   20.16	 -502.66	   14.04
     61.5140	   16.00	   20.29	 -502.79	   14.03
     61.5474	   15.00	   20.44	 -503.94	   14.02
     61.5808	   20.00	   20.60	 -499.10	   14.01
     61.6142	   20.00	   20.78	 -499.28	   14.00
     61.6477	   24.00	   20.98	 -495.48	   13.99
     61.6811	   34.00	   21.20	 -485.70	   13.97
     61.7145	   16.00	   21.45	 -503.95	   13.96
     61.7479	   23.00	   21.72	 -497.22	   13.95
     61.7813	   27.00	   22.02	 -493.52	   13.94
     61.8148	   22.00	   22.36	 -498.86	   13.93
     61.8482	   29.00	   22.74	 -492.24	   13.91
     61.8816	   19.00	   23.17	 -502.67	   13.90
     61.9150	   16.00	   23.66	 -506.16	   13.89
     61.9485	   29.00	   24.22	 -493.72	   13.88
     61.9819	   32.00	   24.86	 -491.36	   13.87
     62.0153	    9.00	   25.61	 -515.11	   13.86
     62.0487	   27.00	   26.47	 -497.97	   13.85
     62.0821	   31.00	   27.48	 -494.98	   13.83
     62.1156	   28.00	   28.67	 -499.17	   13.82
     62.1490	   34.00	   30.09	 -494.59	   13.81
     62.1824	   28.00	   31.80	 -502.30	   13.80
     62.2158	   39.00	   33.89	 -493.39	   13.79
     62.2493	   36.00	   36.48	 -498.98	   13.78
     62.2827	   47.00	   39.72	 -491.22	   13.77
     62.3161	   54.00	   43.88	 -488.38	   13.75
     62.3495	   52.00	   49.35	 -495.85	   13.74
     62.3829	   60.00	   56.87	 -495.37	   13.73
     62.4164	   52.00	   68.10	 -514.60	   13.72
     62.4498	   68.00	   86.74	 -517.24	   13.71
     62.4832	   86.00	  120.33	 -532.83	   13.70
     62.5166	  136.00	  180.59	 -543.09	   13.69
     62.5501	  173.00	  279.41	 -604.91	   13.67
     62.5835	  328.00	  417.70	 -588.20	   13.66
     62.6169	  584.00	  564.76	 -479.26	   13.65
     62.6503	  595.00	  639.30	 -542.80	   13.64
     62.6838	  481.00	  590.47	 -607.97	   13.63
     62.7172	  345.00	  493.41	 -646.91	   13.62
     62.7506	  328.00	  428.36	 -598.86	   13.61
     62.7840	  318.00	  408.43	 -588.93	   13.60
     62.8174	  357.00	  391.54	 -533.04	   13.59
     62.8509	  345.00	  331.89	 -485.39	   13.57
     62.8843	  194.00	  246.75	 -551.25	   13.56
     62.9177	  153.00	  171.07	 -516.57	   13.55
     62.9511	  104.00	  117.39	 -511.89	   13.54
     62.9846	   69.00	   84.11	 -513.61	   13.53
     63.0180	   70.00	   64.87	 -493.37	   13.52
     63.0514	   54.00	   53.59	 -498.09	   13.51
     63.0848	   58.00	   46.41	 -486.91	   13.50
     63.1182	   57.00	   41.37	 -482.87	   13.49
     63.1517	   41.00	   37.60	 -495.10	   13.48
     63.1851	   55.00	   34.65	 -478.15	   13.47
     63.2185	   69.00	   32.30	 -461.80	   13.45
     63.2519	   57.00	   30.39	 -471.89	   13.44
     63.2854	   94.00	   28.82	 -433.32	   13.43
     63.3188	  102.00	   27.51	 -424.01	   13.42
     63.3522	   82.00	   26.40	 -442.90	   13.41
     63.3856	   96.00	   25.46	 -427.96	   13.40
     63.4190	   83.00	   24.65	 -440.15	   13.39
     63.4525	   56.00	   23.95	 -466.45	   13.38
     63.4859	   60.00	   23.34	 -461.84	   13.37
     63.5193	   62.00	   22.80	 -459.30	   13.36
     63.5527	   44.00	   22.33	 -476.83	   13.35
     63.5862	   30.00	   21.91	 -490.41	   13.34
     63.6196	   37.00	   21.53	 -483.03	   13.33
     63.6530	   30.00	   21.19	 -489.69	   13.32
     63.6864	   30.00	   20.89	 -489.39	   13.30
     63.7198	   31.00	   20.62	 -488.12	   13.29
     63.7533	   29.00	   20.37	 -489.87	   13.28
     63.7867	   19.00	   20.14	 -499.64	   13.27
     63.8201	   28.00	   19.93	 -490.43	   13.26
     63.8535	   15.00	   19.74	 -503.24	   13.25
     63.8870	   29.00	   19.57	 -489.07	   13.24
     63.9204	   20.00	   19.41	 -497.91	   13.23
     63.9538	   21.00	   19.26	 -496.76	   13.22
     63.9872	   37.00	   19.12	 -480.62	   13.21
     64.0207	   23.00	   18.99	 -494.49	   13.20
     64.0541	   20.00	   18.87	 -497.37	   13.19
     64.0875	   23.00	   18.76	 -494.26	   13.18
     64.1209	   33.00	   18.66	 -484.16	   13.17
     64.1543	   22.00	   18.56	 -495.06	   13.16
     64.1878	   33.00	   18.47	 -483.97	   13.15
     64.2212	   24.00	   18.39	 -492.89	   13.14
     64.2546	   17.00	   18.31	 -499.81	   13.13
     64.2880	   24.00	   18.23	 -492.73	   13.12
     64.3214	   20.00	   18.16	 -496.66	   13.11
     64.3549	   31.00	   18.09	 -485.59	   13.10
     64.3883	   15.00	   18.03	 -501.53	   13.09
     64.4217	   23.00	   17.97	 -493.47	   13.08
     64.4551	   24.00	   17.91	 -492.41	   13.07
     64.4886	   29.00	   17.85	 -487.35	   13.06
     64.5220	   16.00	   17.80	 -500.30	   13.05
     64.5554	   29.00	   17.75	 -487.25	   13.04
     64.5888	   24.00	   17.71	 -492.21	   13.03
     64.6223	   25.00	   17.66	 -491.16	   13.02
     64.6557	   22.00	   17.62	 -494.12	   13.01
     64.6891	   19.00	   17.58	 -497.08	   13.00
     64.7225	   16.00	   17.54	 -500.04	   12.99
     64.7559	   21.00	   17.50	 -495.00	   12.98
     64.7894	   25.00	   17.47	 -490.97	   12.97
     64.8228	   19.00	   17.44	 -496.94	   12.96
     64.8562	   18.00	   17.41	 -497.91	   12.95
     64.8896	   16.00	   17.38	 -499.88	   12.94
     64.9231	   19.00	   17.35	 -496.85	   12.93
     64.9565	   19.00	   17.33	 -496.83	   12.92
     64.9899	   19.00	   17.30	 -496.80	   12.91
     65.0233	   21.00	   17.28	 -494.78	   12.90
     65.0567	   20.00	   17.26	 -495.76	   12.89
     65.0902	    8.00	   17.24	 -507.74	   12.88
     65.1236	   23.00	   17.23	 -492.73	   12.87
     65.1570	   20.00	   17.21	 -495.71	   12.86
     65.1904	   29.00	   17.20	 -486.70	   12.85
     65.2239	   27.00	   17.20	 -488.70	   12.84
     65.2573	   18.00	   17.20	 -497.70	   12.83
     65.2907	   14.00	   17.20	 -501.70	   12.82
     65.3241	   17.00	   17.20	 -498.70	   12.81
     65.3576	   23.00	   17.22	 -492.72	   12.80
     65.3910	   22.00	   17.24	 -493.74	   12.79
     65.4244	   14.00	   17.27	 -501.77	   12.79
     65.4578	   10.00	   17.31	 -505.81	   12.78
     65.4912	   22.00	   17.37	 -493.87	   12.77
     65.5247	   16.00	   17.46	 -499.96	   12.76
     65.5581	   23.00	   17.57	 -493.07	   12.75
     65.5915	   21.00	   17.74	 -495.24	   12.74
     65.6249	   25.00	   18.00	 -491.50	   12.73
     65.6584	   23.00	   18.43	 -493.93	   12.72
     65.6918	   20.00	   19.21	 -497.71	   12.71
     65.7252	   22.00	   20.61	 -497.11	   12.70
     65.7586	   32.00	   22.91	 -489.41	   12.69
     65.7920	   25.00	   26.18	 -499.68	   12.68
     65.8255	   25.00	   29.84	 -503.34	   12.67
     65.8589	   36.00	   32.07	 -494.57	   12.66
     65.8923	   24.00	   31.25	 -505.75	   12.66
     65.9257	   31.00	   28.76	 -496.26	   12.65
     65.9592	   22.00	   26.78	 -503.28	   12.64
     65.9926	   30.00	   26.05	 -494.55	   12.63
     66.0260	   29.00	   25.97	 -495.47	   12.62
     66.0594	   16.00	   25.19	 -507.69	   12.61
     66.0928	   21.00	   23.34	 -500.84	   12.60
     66.1263	   24.00	   21.29	 -495.79	   12.59
     66.1597	   20.00	   19.65	 -498.15	   12.58
     66.1931	   18.00	   18.55	 -499.05	   12.57
     66.2265	   22.00	   17.88	 -494.38	   12.56
     66.2600	   11.00	   17.48	 -504.98	   12.56
     66.2934	   19.00	   17.23	 -496.73	   12.55
     66.3268	   17.00	   17.06	 -498.56	   12.54
     66.3602	   18.00	   16.94	 -497.44	   12.53
     66.3937	   16.00	   16.84	 -499.34	   12.52
     66.4271	   11.00	   16.75	 -504.25	   12.51
     66.4605	   15.00	   16.69	 -500.19	   12.50
     66.4939	   18.00	   16.64	 -497.14	   12.49
     66.5273	   22.00	   16.59	 -493.09	   12.48
     66.5608	   10.00	   16.54	 -505.04	   12.48
     66.5942	   17.00	   16.51	 -498.01	   12.47
     66.6276	   16.00	   16.47	 -498.97	   12.46
     66.6610	   20.00	   16.44	 -494.94	   12.45
     66.6945	   20.00	   16.42	 -494.92	   12.44
     66.7279	   18.00	   16.39	 -496.89	   12.43
     66.7613	   16.00	   16.37	 -498.87	   12.42
     66.7947	   10.00	   16.35	 -504.85	   12.42
     66.8281	   19.00	   16.33	 -495.83	   12.41
     66.8616	   18.00	   16.31	 -496.81	   12.40
     66.8950	   21.00	   16.30	 -493.80	   12.39
     66.9284	   17.00	   16.28	 -497.78	   12.38
     66.9618	   16.00	   16.26	 -498.76	   12.37
     66.9953	   21.00	   16.10	 -493.60	   12.36
     67.0287	   19.00	   16.09	 -495.59	   12.36
     67.0621	   20.00	   16.07	 -494.57	   12.35
     67.0955	   11.00	   16.06	 -503.56	   12.34
     67.1289	   18.00	   16.04	 -496.54	   12.33
     67.1624	   17.00	   15.96	 -497.46	   12.32
     67.1958	   14.00	   15.94	 -500.44	   12.31
     67.2292	   11.00	   15.93	 -503.43	   12.31
     67.2626	   15.00	   15.92	 -499.42	   12.30
     67.2961	   11.00	   15.91	 -503.41	   12.29
     67.3295	   16.00	   15.90	 -498.40	   12.28
     67.3629	   12.00	   15.89	 -502.39	   12.27
     67.3963	   10.00	   15.88	 -504.38	   12.26
     67.4297	   25.00	   15.87	 -489.37	   12.26
     67.4632	   12.00	   15.86	 -502.36	   12.25
     67.4966	   15.00	   15.85	 -499.35	   12.24
     67.5300	   10.00	   15.84	 -504.34	   12.23
     67.5634	   18.00	   15.83	 -496.33	   12.22
     67.5969	   17.00	   15.82	 -497.32	   12.21
     67.6303	   19.00	   15.81	 -495.31	   12.21
     67.6637	   21.00	   15.80	 -493.30	   12.20
     67.6971	   16.00	   15.79	 -498.29	   12.19
     67.7306	   24.00	   15.78	 -490.28	   12.18
     67.7640	   25.00	   15.77	 -489.27	   12.17
     67.7974	   35.00	   15.77	 -479.27	   12.17
     67.8308	   32.00	   15.76	 -482.26	   12.16
     67.8642	   27.00	   15.75	 -487.25	   12.15
     67.8977	   25.00	   15.74	 -489.24	   12.14
     67.9311	   22.00	   15.73	 -492.23	   12.13
     67.9645	   20.00	   15.72	 -494.22	   12.13
     67.9979	   34.00	   15.72	 -480.22	   12.12
     68.0314	   23.00	   15.71	 -491.21	   12.11
     68.0648	   23.00	   15.70	 -491.20	   12.10
     68.0982	   14.00	   15.69	 -500.19	   12.10
     68.1316	   18.00	   15.69	 -496.19	   12.09
     68.1650	   20.00	   15.68	 -494.18	   12.08
     68.1985	   19.00	   15.67	 -495.17	   12.07
     68.2319	   15.00	   15.66	 -499.16	   12.06
     68.2653	   23.00	   15.66	 -491.16	   12.06
     68.2987	   22.00	   15.65	 -492.15	   12.05
     68.3322	   17.00	   15.64	 -497.14	   12.04
     68.3656	   11.00	   15.63	 -503.13	   12.03
     68.3990	   20.00	   15.63	 -494.13	   12.03
     68.4324	   22.00	   15.62	 -492.12	   12.02
     68.4659	   23.00	   15.61	 -491.11	   12.01
     68.4993	   24.00	   15.61	 -490.11	   12.00
     68.5327	   17.00	   15.60	 -497.10	   12.00
     68.5661	   18.00	   15.59	 -496.09	   11.99
     68.5995	   15.00	   15.59	 -499.09	   11.98
     68.6330	   25.00	   15.58	 -489.08	   11.97
     68.6664	   19.00	   15.58	 -495.08	   11.97
     68.6998	   24.00	   15.57	 -490.07	   11.96
     68.7332	   17.00	   15.56	 -497.06	   11.95
     68.7666	   17.00	   15.56	 -497.06	   11.94
     68.8001	   14.00	   15.55	 -500.05	   11.94
     68.8335	   11.00	   15.55	 -503.05	   11.93
     68.8669	   14.00	   15.54	 -500.04	   11.92
     68.9003	   16.00	   15.53	 -498.03	   11.91
     68.9338	   15.00	   15.53	 -499.03	   11.91
     68.9672	   19.00	   15.52	 -495.02	   11.90
     69.0006	   11.00	   15.52	 -503.02	   11.89
     69.0340	   10.00	   15.51	 -504.01	   11.88
     69.0675	   22.00	   15.51	 -492.01	   11.88
     69.1009	   19.00	   15.50	 -495.00	   11.87
     69.1343	    9.00	   15.50	 -505.00	   11.86
     69.1677	   17.00	   15.50	 -497.00	   11.86
     69.2011	   14.00	   15.49	 -499.99	   11.85
     69.2346	   12.00	   15.49	 -501.99	   11.84
     69.2680	   18.00	   15.48	 -495.98	   11.83
     69.3014	   22.00	   15.48	 -491.98	   11.83
     69.3348	    8.00	   15.48	 -505.98	   11.82
     69.3683	   14.00	   15.47	 -499.97	   11.81
     69.4017	   12.00	   15.47	 -501.97	   11.81
     69.4351	   12.00	   15.50	 -502.00	   11.80
     69.4685	   12.00	   15.50	 -502.00	   11.79
     69.5019	   19.00	   15.49	 -494.99	   11.79
     69.5354	   14.00	   15.49	 -499.99	   11.78
     69.5688	   22.00	   15.49	 -491.99	   11.77
     69.6022	   10.00	   15.49	 -503.99	   11.76
     69.6356	   16.00	   15.51	 -498.01	   11.76
     69.6691	   15.00	   15.51	 -499.01	   11.75
     69.7025	   28.00	   15.51	 -486.01	   11.74
     69.7359	    8.00	   15.51	 -506.01	   11.74
     69.7693	   16.00	   15.52	 -498.02	   11.73
     69.8027	   17.00	   15.52	 -497.02	   11.72
     69.8362	   24.00	   15.52	 -490.02	   11.72
     69.8696	   12.00	   15.53	 -502.03	   11.71
     69.9030	   17.00	   15.54	 -497.04	   11.70
     69.9364	    9.00	   15.55	 -505.05	   11.70
     69.9699	   12.00	   15.55	 -502.05	   11.69
     70.0033	    9.00	   15.56	 -505.06	   11.68
     70.0367	   18.00	   15.58	 -496.08	   11.68
     70.0701	   19.00	   15.59	 -495.09	   11.67
     70.1036	   19.00	   15.61	 -495.11	   11.66
     70.1370	   16.00	   15.63	 -498.13	   11.66
     70.1704	   20.00	   15.65	 -494.15	   11.65
     70.2038	   15.00	   15.67	 -499.17	   11.64
     70.2372	   18.00	   15.70	 -496.20	   11.64
     70.2707	   14.00	   15.73	 -500.23	   11.63
     70.3041	   12.00	   15.76	 -502.26	   11.62
     70.3375	   15.00	   15.81	 -499.31	   11.62
     70.3709	   14.00	   15.86	 -500.36	   11.61
     70.4044	   12.00	   15.93	 -502.43	   11.61
     70.4378	    9.00	   16.00	 -505.50	   11.60
     70.4712	   16.00	   16.07	 -498.57	   11.59
     70.5046	   24.00	   16.17	 -490.67	   11.59
     70.5380	   18.00	   16.28	 -496.78	   11.58
     70.5715	   16.00	   16.42	 -498.92	   11.57
     70.6049	   22.00	   16.59	 -493.09	   11.57
     70.6383	   11.00	   16.80	 -504.30	   11.56
     70.6717	   25.00	   17.05	 -490.55	   11.55
     70.7052	   10.00	   17.38	 -505.88	   11.55
     70.7386	   22.00	   17.81	 -494.31	   11.54
     70.7720	   25.00	   18.39	 -491.89	   11.54
     70.8054	   20.00	   19.24	 -497.74	   11.53
     70.8388	   27.00	   20.61	 -492.11	   11.52
     70.8723	   12.00	   22.96	 -509.46	   11.52
     70.9057	   20.00	   27.04	 -505.54	   11.51
     70.9391	   28.00	   33.67	 -504.17	   11.51
     70.9725	   47.00	   43.13	 -494.63	   11.50
     71.0060	   69.00	   54.14	 -483.64	   11.49
     71.0394	   99.00	   62.12	 -461.62	   11.49
     71.0728	   62.00	   61.48	 -497.98	   11.48
     71.1062	   52.00	   54.18	 -500.68	   11.48
     71.1396	   45.00	   46.90	 -500.40	   11.47
     71.1731	   42.00	   43.17	 -499.67	   11.46
     71.2065	   58.00	   42.95	 -483.45	   11.46
     71.2399	   64.00	   43.36	 -477.86	   11.45
     71.2733	   39.00	   40.70	 -500.20	   11.45
     71.3068	   39.00	   35.07	 -494.57	   11.44
     71.3402	   32.00	   29.20	 -495.70	   11.43
     71.3736	   28.00	   24.60	 -495.10	   11.43
     71.4070	   22.00	   21.51	 -498.01	   11.42
     71.4405	   29.00	   19.61	 -489.11	   11.42
     71.4739	   17.00	   18.48	 -499.98	   11.41
     71.5073	   29.00	   17.77	 -487.27	   11.41
     71.5407	   24.00	   17.30	 -491.80	   11.40
     71.5741	   17.00	   16.95	 -498.45	   11.39
     71.6076	   23.00	   16.68	 -492.18	   11.39
     71.6410	   14.00	   16.47	 -500.97	   11.38
     71.6744	   24.00	   16.30	 -490.80	   11.38
     71.7078	   19.00	   16.16	 -495.66	   11.37
     71.7413	   20.00	   16.04	 -494.54	   11.37
     71.7747	   27.00	   15.94	 -487.44	   11.36
     71.8081	   18.00	   15.86	 -496.36	   11.36
     71.8415	   21.00	   15.79	 -493.29	   11.35
     71.8749	   16.00	   15.73	 -498.23	   11.34
     71.9084	   17.00	   15.68	 -497.18	   11.34
     71.9418	   19.00	   15.63	 -495.13	   11.33
     71.9752	   15.00	   15.59	 -499.09	   11.33
     72.0086	   22.00	   15.55	 -492.05	   11.32
     72.0421	   22.00	   15.52	 -492.02	   11.32
     72.0755	   17.00	   15.50	 -497.00	   11.31
     72.1089	   15.00	   15.47	 -498.97	   11.31
     72.1423	   23.00	   15.45	 -490.95	   11.30
     72.1758	   23.00	   15.44	 -490.94	   11.30
     72.2092	   29.00	   15.42	 -484.92	   11.29
     72.2426	   19.00	   15.41	 -494.91	   11.29
     72.2760	   18.00	   15.40	 -495.90	   11.28
     72.3094	   18.00	   15.39	 -495.89	   11.27
     72.3429	   22.00	   15.38	 -491.88	   11.27
     72.3763	   19.00	   15.37	 -494.87	   11.26
     72.4097	   21.00	   15.37	 -492.87	   11.26
     72.4431	   16.00	   15.37	 -497.87	   11.25
     72.4766	   19.00	   15.37	 -494.87	   11.25
     72.5100	   18.00	   15.37	 -495.87	   11.24
     72.5434	   20.00	   15.37	 -493.87	   11.24
     72.5768	   25.00	   15.38	 -488.88	   11.23
     72.6102	   18.00	   15.38	 -495.88	   11.23
     72.6437	   16.00	   15.39	 -497.89	   11.22
     72.6771	   15.00	   15.40	 -498.90	   11.22
     72.7105	   29.00	   15.41	 -484.91	   11.21
     72.7439	   23.00	   15.42	 -490.92	   11.21
     72.7774	   27.00	   15.44	 -486.94	   11.20
     72.8108	   14.00	   15.46	 -499.96	   11.20
     72.8442	   20.00	   15.48	 -493.98	   11.19
     72.8776	   25.00	   15.50	 -489.00	   11.19
     72.9110	   28.00	   15.52	 -486.02	   11.18
     72.9445	   21.00	   15.55	 -493.05	   11.18
     72.9779	   23.00	   15.58	 -491.08	   11.17
     73.0113	   23.00	   15.62	 -491.12	   11.17
     73.0447	   24.00	   15.66	 -490.16	   11.17
     73.0782	   27.00	   15.70	 -487.20	   11.16
     73.1116	   24.00	   15.75	 -490.25	   11.16
     73.1450	   21.00	   15.80	 -493.30	   11.15
     73.1784	   29.00	   15.87	 -485.37	   11.15
     73.2118	   19.00	   15.94	 -495.44	   11.14
     73.2453	   20.00	   16.01	 -494.51	   11.14
     73.2787	   33.00	   16.10	 -481.60	   11.13
     73.3121	   27.00	   16.20	 -487.70	   11.13
     73.3455	   21.00	   16.31	 -493.81	   11.12
     73.3790	   17.00	   16.44	 -497.94	   11.12
     73.4124	   19.00	   16.59	 -496.09	   11.11
     73.4458	   20.00	   16.76	 -495.26	   11.11
     73.4792	   24.00	   16.96	 -491.46	   11.10
     73.5126	   16.00	   17.19	 -499.69	   11.10
     73.5461	   17.00	   17.47	 -498.97	   11.10
     73.5795	   23.00	   17.79	 -493.29	   11.09
     73.6129	   19.00	   18.18	 -497.68	   11.09
     73.6463	   16.00	   18.66	 -501.16	   11.08
     73.6798	   17.00	   19.24	 -500.74	   11.08
     73.7132	   22.00	   19.97	 -496.47	   11.07
     73.7466	   28.00	   20.90	 -491.40	   11.07
     73.7800	   18.00	   22.13	 -502.63	   11.07
     73.8135	   21.00	   23.82	 -501.32	   11.06
     73.8469	   23.00	   26.35	 -501.85	   11.06
     73.8803	   31.00	   30.48	 -497.98	   11.05
     73.9137	   39.00	   37.57	 -497.07	   11.05
     73.9471	   29.00	   49.50	 -519.00	   11.04
     73.9806	   45.00	   67.97	 -521.47	   11.04
     74.0140	   76.00	   92.89	 -515.39	   11.04
     74.0474	  133.00	  119.33	 -484.83	   11.03
     74.0808	  144.00	  134.31	 -488.81	   11.03
     74.1143	  125.00	  127.23	 -500.73	   11.02
     74.1477	   87.00	  107.49	 -518.99	   11.02
     74.1811	   59.00	   90.28	 -529.78	   11.02
     74.2145	   52.00	   82.27	 -528.77	   11.01
     74.2479	   66.00	   82.74	 -515.24	   11.01
     74.2814	   89.00	   85.00	 -494.50	   11.00
     74.3148	   96.00	   80.01	 -482.51	   11.00
     74.3482	   54.00	   67.01	 -511.51	   11.00
     74.3816	   49.00	   52.56	 -502.06	   10.99
     74.4151	   34.00	   40.83	 -505.33	   10.99
     74.4485	   28.00	   32.74	 -503.24	   10.98
     74.4819	   34.00	   27.69	 -492.19	   10.98
     74.5153	   28.00	   24.69	 -495.19	   10.98
     74.5488	   22.00	   22.89	 -499.39	   10.97
     74.5822	   23.00	   21.77	 -497.27	   10.97
     74.6156	   27.00	   21.02	 -492.52	   10.96
     74.6490	   22.00	   20.54	 -497.04	   10.96
     74.6824	   20.00	   20.26	 -498.76	   10.96
     74.7159	   22.00	   20.16	 -496.66	   10.95
     74.7493	   17.00	   20.24	 -501.74	   10.95
     74.7827	   19.00	   20.52	 -500.02	   10.95
     74.8161	   23.00	   21.08	 -496.58	   10.94
     74.8495	   30.00	   22.11	 -490.61	   10.94
     74.8830	   25.00	   23.96	 -497.46	   10.93
     74.9164	   28.00	   27.30	 -497.80	   10.93
     74.9498	   31.00	   32.99	 -500.49	   10.93
     74.9832	   47.00	   41.78	 -493.28	   10.92
     75.0167	   50.00	   53.49	 -501.99	   10.92
     75.0501	   68.00	   65.59	 -496.09	   10.92
     75.0835	   92.00	   71.83	 -478.33	   10.91
     75.1169	   68.00	   67.78	 -498.28	   10.91
     75.1504	   59.00	   58.28	 -497.78	   10.91
     75.1838	   45.00	   50.23	 -503.73	   10.90
     75.2172	   48.00	   46.50	 -497.00	   10.90
     75.2506	   36.00	   46.74	 -509.24	   10.90
     75.2840	   56.00	   47.93	 -490.43	   10.89
     75.3175	   43.00	   45.84	 -501.34	   10.89
     75.3509	   32.00	   39.86	 -506.36	   10.89
     75.3843	   28.00	   33.02	 -503.52	   10.88
     75.4177	   36.00	   27.37	 -489.87	   10.88
     75.4512	   27.00	   23.39	 -494.89	   10.88
     75.4846	   21.00	   20.86	 -498.36	   10.87
     75.5180	   19.00	   19.31	 -498.81	   10.87
     75.5514	   22.00	   18.34	 -494.84	   10.87
     75.5848	   21.00	   17.69	 -495.19	   10.86
     75.6183	   22.00	   17.21	 -493.71	   10.86
     75.6517	   11.00	   16.85	 -504.35	   10.86
     75.6851	   18.00	   16.56	 -497.06	   10.85
     75.7185	   21.00	   16.32	 -493.82	   10.85
     75.7520	   19.00	   16.12	 -495.62	   10.85
     75.7854	   19.00	   15.96	 -495.46	   10.84
     75.8188	   14.00	   15.82	 -500.32	   10.84
     75.8522	   21.00	   15.69	 -493.19	   10.84
     75.8857	   16.00	   15.58	 -498.08	   10.83
     75.9191	   15.00	   15.49	 -498.99	   10.83
     75.9525	   21.00	   15.41	 -492.91	   10.83
     75.9859	   18.00	   15.34	 -495.84	   10.83
     76.0193	   18.00	   15.27	 -495.77	   10.82
     76.0528	   24.00	   15.22	 -489.72	   10.82
     76.0862	   10.00	   15.16	 -503.66	   10.82
     76.1196	    5.00	   15.12	 -508.62	   10.81
     76.1530	   17.00	   15.07	 -496.57	   10.81
     76.1865	   12.00	   15.03	 -501.53	   10.81
     76.2199	   18.00	   15.00	 -495.50	   10.81
     76.2533	   11.00	   14.96	 -502.46	   10.80
     76.2867	   12.00	   14.93	 -501.43	   10.80
     76.3201	   24.00	   14.90	 -489.40	   10.80
     76.3536	   12.00	   14.88	 -501.38	   10.79
     76.3870	   16.00	   14.85	 -497.35	   10.79
     76.4204	   19.00	   14.83	 -494.33	   10.79
     76.4538	   12.00	   14.81	 -501.31	   10.79
     76.4873	   17.00	   14.79	 -496.29	   10.78
     76.5207	    8.00	   14.77	 -505.27	   10.78
     76.5541	   10.00	   14.75	 -503.25	   10.78
     76.5875	   14.00	   14.74	 -499.24	   10.78
     76.6209	   20.00	   14.72	 -493.22	   10.77
     76.6544	   14.00	   14.71	 -499.21	   10.77
     76.6878	   12.00	   14.69	 -501.19	   10.77
     76.7212	   20.00	   14.68	 -493.18	   10.77
     76.7546	   19.00	   14.67	 -494.17	   10.76
     76.7881	   17.00	   14.66	 -496.16	   10.76
     76.8215	   22.00	   14.65	 -491.15	   10.76
     76.8549	   18.00	   14.64	 -495.14	   10.76
     76.8883	   17.00	   14.63	 -496.13	   10.75
     76.9218	   18.00	   14.62	 -495.12	   10.75
     76.9552	   19.00	   14.61	 -494.11	   10.75
     76.9886	   20.00	   14.60	 -493.10	   10.75
     77.0220	   19.00	   14.59	 -494.09	   10.74
     77.0554	   14.00	   14.59	 -499.09	   10.74
     77.0889	   20.00	   14.58	 -493.08	   10.74
     77.1223	   18.00	   14.57	 -495.07	   10.74
     77.1557	   19.00	   14.57	 -494.07	   10.74
     77.1891	   11.00	   14.56	 -502.06	   10.73
     77.2225	   15.00	   14.56	 -498.06	   10.73
     77.2560	   14.00	   14.55	 -499.05	   10.73
     77.2894	   16.00	   14.55	 -497.05	   10.73
     77.3228	   19.00	   14.55	 -494.05	   10.72
     77.3562	   16.00	   14.54	 -497.04	   10.72
     77.3897	   15.00	   14.54	 -498.04	   10.72
     77.4231	   12.00	   14.54	 -501.04	   10.72
     77.4565	    8.00	   14.54	 -505.04	   10.72
     77.4899	   20.00	   14.54	 -493.04	   10.71
     77.5234	   12.00	   14.53	 -501.03	   10.71
     77.5568	   11.00	   14.53	 -502.03	   10.71
     77.5902	   12.00	   14.53	 -501.03	   10.71
     77.6236	   14.00	   14.53	 -499.03	   10.71
     77.6570	   14.00	   14.54	 -499.04	   10.70
     77.6905	   12.00	   14.54	 -501.04	   10.70
     77.7239	   18.00	   14.54	 -495.04	   10.70
     77.7573	   15.00	   14.54	 -498.04	   10.70
     77.7907	   19.00	   14.55	 -494.05	   10.70
     77.8242	   18.00	   14.55	 -495.05	   10.69
     77.8576	   15.00	   14.56	 -498.06	   10.69
     77.8910	   20.00	   14.56	 -493.06	   10.69
     77.9244	   11.00	   14.57	 -502.07	   10.69
     77.9578	    9.00	   14.58	 -504.08	   10.69
     77.9913	   17.00	   14.59	 -496.09	   10.69
     78.0247	   10.00	   14.60	 -503.10	   10.68
     78.0581	   17.00	   14.61	 -496.11	   10.68
     78.0915	   16.00	   14.63	 -497.13	   10.68
     78.1250	   10.00	   14.64	 -503.14	   10.68
     78.1584	   22.00	   14.66	 -491.16	   10.68
     78.1918	   11.00	   14.69	 -502.19	   10.68
     78.2252	   16.00	   14.71	 -497.21	   10.67
     78.2587	   18.00	   14.74	 -495.24	   10.67
     78.2921	   17.00	   14.77	 -496.27	   10.67
     78.3255	   12.00	   14.81	 -501.31	   10.67
     78.3589	    9.00	   14.85	 -504.35	   10.67
     78.3923	   15.00	   14.90	 -498.40	   10.67
     78.4258	   11.00	   14.96	 -502.46	   10.67
     78.4592	   16.00	   15.03	 -497.53	   10.66
     78.4926	   21.00	   15.11	 -492.61	   10.66
     78.5260	   23.00	   15.20	 -490.70	   10.66
     78.5595	   20.00	   15.32	 -493.82	   10.66
     78.5929	   19.00	   15.46	 -494.96	   10.66
     78.6263	   19.00	   15.63	 -495.13	   10.66
     78.6597	   17.00	   15.84	 -497.34	   10.66
     78.6931	   20.00	   16.11	 -494.61	   10.65
     78.7266	   18.00	   16.47	 -496.96	   10.65
     78.7600	   21.00	   16.92	 -494.42	   10.65
     78.7934	   16.00	   17.62	 -500.12	   10.65
     78.8268	   14.00	   18.74	 -503.24	   10.65
     78.8603	   15.00	   20.61	 -504.11	   10.65
     78.8937	   25.00	   23.71	 -497.21	   10.65
     78.9271	   24.00	   28.54	 -503.04	   10.65
     78.9605	   39.00	   35.24	 -494.74	   10.64
     78.9939	   65.00	   42.98	 -476.48	   10.64
     79.0274	   57.00	   48.91	 -490.41	   10.64
     79.0608	   59.00	   49.16	 -488.66	   10.64
     79.0942	   50.00	   44.15	 -492.65	   10.64
     79.1276	   29.00	   38.16	 -507.66	   10.64
     79.1611	   27.00	   34.15	 -505.65	   10.64
     79.1945	   27.00	   32.89	 -504.39	   10.64
     79.2279	   35.00	   33.74	 -497.24	   10.64
     79.2613	   30.00	   34.68	 -503.18	   10.64
     79.2947	   35.00	   33.34	 -496.84	   10.63
     79.3282	   36.00	   29.67	 -492.17	   10.63
     79.3616	   30.00	   25.52	 -494.02	   10.63
     79.3950	   21.00	   22.08	 -499.58	   10.63
     79.4284	   22.00	   19.63	 -496.13	   10.63
     79.4619	   22.00	   18.04	 -494.54	   10.63
     79.4953	   10.00	   17.06	 -505.56	   10.63
     79.5287	   20.00	   16.45	 -494.95	   10.63
     79.5621	   16.00	   16.04	 -498.54	   10.63
     79.5956	   11.00	   15.75	 -503.25	   10.63
     79.6290	   17.00	   15.52	 -497.02	   10.63
     79.6624	   14.00	   15.35	 -499.85	   10.63
     79.6958	   11.00	   15.20	 -502.70	   10.63
     79.7292	   16.00	   15.09	 -497.59	   10.62
     79.7627	   18.00	   14.99	 -495.49	   10.62
     79.7961	   25.00	   14.89	 -488.39	   10.62
     79.8295	    8.00	   14.82	 -505.32	   10.62
     79.8629	   15.00	   14.76	 -498.26	   10.62
     79.8964	   15.00	   14.71	 -498.21	   10.62
     79.9298	   16.00	   14.67	 -497.17	   10.62
     79.9632	   12.00	   14.63	 -501.13	   10.62
     79.9966	   18.00	   14.59	 -495.09	   10.62
     80.0300	   27.00	   14.55	 -486.05	   10.62
     80.0635	   14.00	   14.53	 -499.03	   10.62
     80.0969	   15.00	   14.50	 -498.00	   10.62
     80.1303	   16.00	   14.48	 -496.98	   10.62
     80.1637	   18.00	   14.46	 -494.96	   10.62
     80.1972	   14.00	   14.44	 -498.94	   10.62
     80.2306	   19.00	   14.43	 -493.93	   10.62
     80.2640	   10.00	   14.41	 -502.91	   10.62
     80.2974	   16.00	   14.40	 -496.90	   10.62
     80.3308	   11.00	   14.39	 -501.89	   10.62
     80.3643	   12.00	   14.38	 -500.88	   10.62
     80.3977	   18.00	   14.37	 -494.87	   10.62
     80.4311	   16.00	   14.36	 -496.86	   10.62
     80.4645	    8.00	   14.35	 -504.85	   10.62
     80.4980	   14.00	   14.34	 -498.84	   10.62
     80.5314	   18.00	   14.34	 -494.84	   10.61
     80.5648	   17.00	   14.33	 -495.83	   10.61
     80.5982	   10.00	   14.33	 -502.83	   10.61
     80.6317	   18.00	   14.32	 -494.82	   10.61
     80.6651	   19.00	   14.32	 -493.82	   10.61
     80.6985	   11.00	   14.31	 -501.81	   10.61
     80.7319	   15.00	   14.31	 -497.81	   10.61
     80.7653	   15.00	   14.31	 -497.81	   10.61
     80.7988	   10.00	   14.30	 -502.80	   10.61
     80.8322	   16.00	   14.30	 -496.80	   10.61
     80.8656	   16.00	   14.30	 -496.80	   10.61
     80.8990	   22.00	   14.30	 -490.80	   10.61
     80.9324	   12.00	   14.30	 -500.80	   10.61
     80.9659	   16.00	   14.30	 -496.80	   10.61
     80.9993	   19.00	   14.30	 -493.80	   10.61
     81.0327	   18.00	   14.30	 -494.80	   10.62
     81.0661	   17.00	   14.30	 -495.80	   10.62
     81.0996	   22.00	   14.31	 -490.81	   10.62
     81.1330	   20.00	   14.31	 -492.81	   10.62
     81.1664	   16.00	   14.31	 -496.81	   10.62
     81.1998	   12.00	   14.32	 -500.82	   10.62
     81.2333	   16.00	   14.32	 -496.82	   10.62
     81.2667	    6.00	   14.33	 -506.83	   10.62
     81.3001	   10.00	   14.34	 -502.84	   10.62
     81.3335	   12.00	   14.35	 -500.85	   10.62
     81.3669	   18.00	   14.36	 -494.86	   10.62
     81.4004	   10.00	   14.38	 -502.88	   10.62
     81.4338	   19.00	   14.39	 -493.89	   10.62
     81.4672	   15.00	   14.41	 -497.91	   10.62
     81.5006	   12.00	   14.44	 -500.94	   10.62
     81.5341	   20.00	   14.47	 -492.97	   10.62
     81.5675	   22.00	   14.51	 -491.01	   10.62
     81.6009	   17.00	   14.56	 -496.06	   10.62
     81.6343	   16.00	   14.62	 -497.12	   10.62
     81.6677	   12.00	   14.71	 -501.21	   10.62
     81.7012	   16.00	   14.82	 -497.32	   10.62
     81.7346	   16.00	   14.99	 -497.49	   10.62
     81.7680	   16.00	   15.27	 -497.77	   10.62
     81.8014	   12.00	   15.72	 -502.22	   10.62
     81.8349	   21.00	   16.44	 -493.94	   10.62
     81.8683	   19.00	   17.53	 -497.03	   10.63
     81.9017	   19.00	   18.95	 -498.45	   10.63
     81.9351	   33.00	   20.48	 -485.98	   10.63
     81.9686	   22.00	   21.42	 -497.92	   10.63
     82.0020	   15.00	   21.16	 -504.66	   10.63
     82.0354	   24.00	   20.02	 -494.52	   10.63
     82.0688	   31.00	   18.84	 -486.34	   10.63
     82.1022	   30.00	   18.10	 -486.60	   10.63
     82.1357	   29.00	   17.89	 -487.39	   10.63
     82.1691	   22.00	   18.10	 -494.60	   10.63
     82.2025	   25.00	   18.35	 -491.85	   10.63
     82.2359	   27.00	   18.17	 -489.67	   10.63
     82.2694	   28.00	   17.50	 -488.00	   10.63
     82.3028	   27.00	   16.67	 -488.17	   10.64
     82.3362	   27.00	   15.96	 -487.46	   10.64
     82.3696	   18.00	   15.43	 -495.93	   10.64
     82.4030	   21.00	   15.08	 -492.58	   10.64
     82.4365	   15.00	   14.86	 -498.36	   10.64
     82.4699	   25.00	   14.72	 -488.22	   10.64
     82.5033	   17.00	   14.63	 -496.13	   10.64
     82.5367	   17.00	   14.57	 -496.07	   10.64
     82.5702	   12.00	   14.52	 -501.02	   10.64
     82.6036	   15.00	   14.48	 -497.98	   10.65
     82.6370	    7.00	   14.45	 -505.95	   10.65
     82.6704	   11.00	   14.43	 -501.93	   10.65
     82.7038	   14.00	   14.41	 -498.91	   10.65
     82.7373	    8.00	   14.39	 -504.89	   10.65
     82.7707	   15.00	   14.38	 -497.88	   10.65
     82.8041	   14.00	   14.37	 -498.87	   10.65
     82.8375	   14.00	   14.36	 -498.86	   10.65
     82.8710	   27.00	   14.35	 -485.85	   10.65
     82.9044	   15.00	   14.34	 -497.84	   10.66
     82.9378	   19.00	   14.34	 -493.84	   10.66
     82.9712	   19.00	   14.33	 -493.83	   10.66
     83.0046	   18.00	   14.33	 -494.83	   10.66
     83.0381	   20.00	   14.32	 -492.82	   10.66
     83.0715	   10.00	   14.32	 -502.82	   10.66
     83.1049	   25.00	   14.32	 -487.82	   10.66
     83.1383	   15.00	   14.31	 -497.81	   10.67
     83.1718	   19.00	   14.31	 -493.81	   10.67
     83.2052	   19.00	   14.31	 -493.81	   10.67
     83.2386	   10.00	   14.31	 -502.81	   10.67
     83.2720	   11.00	   14.31	 -501.81	   10.67
     83.3055	   11.00	   14.31	 -501.81	   10.67
     83.3389	   11.00	   14.31	 -501.81	   10.67
     83.3723	   10.00	   14.31	 -502.81	   10.68
     83.4057	   17.00	   14.31	 -495.81	   10.68
     83.4391	   18.00	   14.31	 -494.81	   10.68
     83.4726	   28.00	   14.31	 -484.81	   10.68
     83.5060	   16.00	   14.31	 -496.81	   10.68
     83.5394	   11.00	   14.31	 -501.81	   10.68
     83.5728	   11.00	   14.31	 -501.81	   10.69
     83.6063	   23.00	   14.31	 -489.81	   10.69
     83.6397	   17.00	   14.31	 -495.81	   10.69
     83.6731	   14.00	   14.32	 -498.82	   10.69
     83.7065	   19.00	   14.32	 -493.82	   10.69
     83.7399	    8.00	   14.32	 -504.82	   10.70
     83.7734	   19.00	   14.32	 -493.82	   10.70
     83.8068	   11.00	   14.32	 -501.82	   10.70
     83.8402	   10.00	   14.32	 -502.82	   10.70
     83.8736	   14.00	   14.33	 -498.83	   10.70
     83.9071	   18.00	   14.32	 -494.82	   10.70
     83.9405	    9.00	   14.32	 -503.82	   10.71
     83.9739	   14.00	   14.33	 -498.83	   10.71
     84.0073	    8.00	   14.33	 -504.83	   10.71
     84.0407	   10.00	   14.33	 -502.83	   10.71
     84.0742	   18.00	   14.33	 -494.83	   10.71
     84.1076	   12.00	   14.34	 -500.84	   10.72
     84.1410	   20.00	   14.33	 -492.83	   10.72
     84.1744	   15.00	   14.34	 -497.84	   10.72
     84.2079	   16.00	   14.34	 -496.84	   10.72
     84.2413	   10.00	   14.34	 -502.84	   10.73
     84.2747	   16.00	   14.35	 -496.85	   10.73
     84.3081	   20.00	   14.35	 -492.85	   10.73
     84.3416	   14.00	   14.36	 -498.86	   10.73
     84.3750	   21.00	   14.36	 -491.86	   10.73
     84.4084	   17.00	   14.41	 -495.91	   10.74
     84.4418	   20.00	   14.41	 -492.91	   10.74
     84.4752	   24.00	   14.42	 -488.92	   10.74
     84.5087	   19.00	   14.42	 -493.92	   10.74
     84.5421	   14.00	   14.43	 -498.93	   10.75
     84.5755	   17.00	   14.43	 -495.93	   10.75
     84.6089	   24.00	   14.44	 -488.94	   10.75
     84.6424	   15.00	   14.44	 -497.94	   10.75
     84.6758	    8.00	   14.47	 -504.97	   10.75
     84.7092	   10.00	   14.48	 -502.98	   10.76
     84.7426	   12.00	   14.48	 -500.98	   10.76
     84.7760	   18.00	   14.49	 -494.99	   10.76
     84.8095	   14.00	   14.49	 -498.99	   10.76
     84.8429	   10.00	   14.50	 -503.00	   10.77
     84.8763	   12.00	   14.51	 -501.01	   10.77
     84.9097	   16.00	   14.52	 -497.02	   10.77
     84.9432	    9.00	   14.52	 -504.02	   10.77
     84.9766	    8.00	   14.53	 -505.03	   10.78
     85.0100	   11.00	   14.54	 -502.04	   10.78
     85.0434	   19.00	   14.55	 -494.05	   10.78
     85.0768	   17.00	   14.56	 -496.06	   10.78
     85.1103	   20.00	   14.57	 -493.07	   10.79
     85.1437	   12.00	   14.58	 -501.08	   10.79
     85.1771	   10.00	   14.59	 -503.09	   10.79
     85.2105	   16.00	   14.60	 -497.10	   10.80
     85.2440	   22.00	   14.61	 -491.11	   10.80
     85.2774	   11.00	   14.62	 -502.12	   10.80
     85.3108	   24.00	   14.63	 -489.13	   10.80
     85.3442	   22.00	   14.64	 -491.14	   10.81
     85.3776	   16.00	   14.65	 -497.15	   10.81
     85.4111	   20.00	   14.67	 -493.17	   10.81
     85.4445	   11.00	   14.68	 -502.18	   10.82
     85.4779	    9.00	   14.70	 -504.20	   10.82
     85.5113	   21.00	   14.71	 -492.21	   10.82
     85.5448	   12.00	   14.73	 -501.23	   10.82
     85.5782	   10.00	   14.75	 -503.25	   10.83
     85.6116	   20.00	   14.77	 -493.27	   10.83
     85.6450	   18.00	   14.79	 -495.29	   10.83
     85.6785	   10.00	   14.81	 -503.31	   10.84
     85.7119	   19.00	   14.83	 -494.33	   10.84
     85.7453	   18.00	   14.86	 -495.36	   10.84
     85.7787	   19.00	   14.89	 -494.39	   10.85
     85.8121	   10.00	   14.91	 -503.41	   10.85
     85.8456	   12.00	   14.95	 -501.45	   10.85
     85.8790	   22.00	   14.98	 -491.48	   10.85
     85.9124	   19.00	   15.02	 -494.52	   10.86
     85.9458	   18.00	   15.06	 -495.56	   10.86
     85.9793	   12.00	   15.11	 -501.61	   10.86
     86.0127	   14.00	   15.16	 -499.66	   10.87
     86.0461	   12.00	   15.21	 -501.71	   10.87
     86.0795	   16.00	   15.27	 -497.77	   10.87
     86.1129	   21.00	   15.34	 -492.84	   10.88
     86.1464	    9.00	   15.42	 -504.92	   10.88
     86.1798	   14.00	   15.51	 -500.01	   10.88
     86.2132	   16.00	   15.62	 -498.12	   10.89
     86.2466	   11.00	   15.74	 -503.24	   10.89
     86.2801	   18.00	   15.88	 -496.38	   10.89
     86.3135	   15.00	   16.04	 -499.54	   10.90
     86.3469	   15.00	   16.24	 -499.74	   10.90
     86.3803	   19.00	   16.48	 -495.98	   10.90
     86.4137	   12.00	   16.76	 -503.26	   10.91
     86.4472	   14.00	   17.12	 -501.62	   10.91
     86.4806	   16.00	   17.58	 -500.08	   10.91
     86.5140	   16.00	   18.18	 -500.68	   10.92
     86.5474	   18.00	   19.03	 -499.53	   10.92
     86.5809	   25.00	   20.30	 -493.80	   10.92
     86.6143	   25.00	   22.32	 -495.82	   10.93
     86.6477	   16.00	   25.57	 -508.07	   10.93
     86.6811	   33.00	   30.61	 -496.11	   10.94
     86.7146	   45.00	   37.85	 -491.35	   10.94
     86.7480	   54.00	   47.08	 -491.58	   10.94
     86.7814	   57.00	   56.51	 -498.01	   10.95
     86.8148	   66.00	   62.00	 -494.50	   10.95
     86.8482	   52.00	   59.97	 -506.47	   10.95
     86.8817	   56.00	   52.62	 -495.12	   10.96
     86.9151	   27.00	   44.85	 -516.35	   10.96
     86.9485	   30.00	   39.51	 -508.01	   10.97
     86.9819	   23.00	   37.46	 -512.96	   10.97
     87.0154	   27.00	   38.28	 -509.78	   10.97
     87.0488	   39.00	   40.53	 -500.03	   10.98
     87.0822	   41.00	   41.55	 -499.05	   10.98
     87.1156	   35.00	   39.23	 -502.73	   10.98
     87.1490	   39.00	   34.45	 -493.95	   10.99
     87.1825	   31.00	   29.37	 -496.87	   10.99
     87.2159	   23.00	   25.19	 -500.69	   11.00
     87.2493	   23.00	   22.16	 -497.66	   11.00
     87.2827	   23.00	   20.15	 -495.65	   11.00
     87.3162	   21.00	   18.87	 -496.37	   11.01
     87.3496	   24.00	   18.04	 -492.54	   11.01
     87.3830	   23.00	   17.49	 -492.99	   11.02
     87.4164	   20.00	   17.10	 -495.60	   11.02
     87.4498	   14.00	   16.80	 -501.30	   11.02
     87.4833	   22.00	   16.57	 -493.07	   11.03
     87.5167	   14.00	   16.38	 -500.88	   11.03
     87.5501	   27.00	   16.23	 -487.73	   11.04
     87.5835	   20.00	   16.11	 -494.61	   11.04
     87.6170	   19.00	   16.01	 -495.51	   11.05
     87.6504	   20.00	   15.93	 -494.43	   11.05
     87.6838	   20.00	   15.86	 -494.36	   11.05
     87.7172	   12.00	   15.80	 -502.30	   11.06
     87.7506	   18.00	   15.76	 -496.26	   11.06
     87.7841	   24.00	   15.72	 -490.22	   11.07
     87.8175	   19.00	   15.69	 -495.19	   11.07
     87.8509	   22.00	   15.67	 -492.17	   11.08
     87.8843	   25.00	   15.65	 -489.15	   11.08
     87.9178	   14.00	   15.63	 -500.13	   11.08
     87.9512	   20.00	   15.63	 -494.13	   11.09
     87.9846	   21.00	   15.62	 -493.12	   11.09
     88.0180	   28.00	   15.62	 -486.12	   11.10
     88.0515	   21.00	   15.62	 -493.12	   11.10
     88.0849	   20.00	   15.63	 -494.13	   11.11
     88.1183	   12.00	   15.64	 -502.14	   11.11
     88.1517	   20.00	   15.65	 -494.15	   11.12
     88.1851	   19.00	   15.67	 -495.17	   11.12
     88.2186	   17.00	   15.69	 -497.19	   11.12
     88.2520	   23.00	   15.71	 -491.21	   11.13
     88.2854	   17.00	   15.74	 -497.24	   11.13
     88.3188	   15.00	   15.77	 -499.27	   11.14
     88.3523	   17.00	   15.80	 -497.30	   11.14
     88.3857	   22.00	   15.84	 -492.34	   11.15
     88.4191	   23.00	   15.88	 -491.38	   11.15
     88.4525	   23.00	   15.92	 -491.42	   11.16
     88.4859	   32.00	   15.97	 -482.47	   11.16
     88.5194	    7.00	   16.03	 -507.53	   11.17
     88.5528	   21.00	   16.09	 -493.59	   11.17
     88.5862	   23.00	   16.15	 -491.65	   11.18
     88.6196	   18.00	   16.22	 -496.72	   11.18
     88.6531	   25.00	   16.30	 -489.80	   11.19
     88.6865	   24.00	   16.39	 -490.89	   11.19
     88.7199	   12.00	   16.49	 -502.99	   11.20
     88.7533	   21.00	   16.59	 -494.09	   11.20
     88.7868	   12.00	   16.71	 -503.21	   11.21
     88.8202	   19.00	   16.84	 -496.34	   11.21
     88.8536	   27.00	   16.98	 -488.48	   11.22
     88.8870	   29.00	   17.15	 -486.65	   11.22
     88.9204	   24.00	   17.33	 -491.83	   11.23
     88.9539	   24.00	   17.53	 -492.03	   11.23
     88.9873	   20.00	   17.78	 -496.28	   11.24
     89.0207	   28.00	   18.04	 -488.54	   11.24
     89.0541	   23.00	   18.34	 -493.84	   11.25
     89.0875	   16.00	   18.69	 -501.19	   11.25
     89.1210	   27.00	   19.09	 -490.59	   11.26
     89.1544	   36.00	   19.56	 -482.06	   11.26
     89.1878	   25.00	   20.11	 -493.61	   11.27
     89.2212	   27.00	   20.76	 -492.26	   11.27
     89.2547	   30.00	   21.55	 -490.05	   11.28
     89.2881	   28.00	   22.52	 -493.02	   11.28
     89.3215	   35.00	   23.70	 -487.20	   11.29
     89.3549	   28.00	   25.19	 -495.69	   11.29
     89.3884	   24.00	   27.13	 -501.63	   11.30
     89.4218	   34.00	   29.77	 -494.27	   11.30
     89.4552	   44.00	   33.60	 -488.10	   11.31
     89.4886	   45.00	   39.51	 -493.01	   11.31
     89.5220	   48.00	   48.90	 -499.40	   11.32
     89.5555	   55.00	   63.60	 -507.10	   11.32
     89.5889	   75.00	   85.36	 -508.86	   11.33
     89.6223	   89.00	  114.70	 -524.20	   11.34
     89.6557	  197.00	  148.78	 -450.28	   11.34
     89.6892	  198.00	  177.77	 -478.27	   11.35
     89.7226	  203.00	  185.94	 -481.44	   11.35
     89.7560	  136.00	  168.68	 -531.18	   11.36
     89.7894	  106.00	  139.94	 -532.44	   11.36
     89.8228	   83.00	  114.38	 -529.88	   11.37
     89.8563	   82.00	   98.69	 -515.19	   11.37
     89.8897	   97.00	   94.16	 -495.66	   11.38
     89.9231	  109.00	   98.86	 -488.36	   11.39
     89.9565	  135.00	  107.52	 -471.02	   11.39
     89.9900	  113.00	  111.23	 -496.73	   11.40
     90.0234	  109.00	  103.14	 -492.64	   11.40
     90.0568	  109.00	   86.42	 -475.92	   11.41
     90.0902	   74.00	   68.51	 -493.01	   11.41
     90.1236	   59.00	   53.54	 -493.04	   11.42
     90.1571	   54.00	   42.55	 -487.05	   11.43
     90.1905	   52.00	   35.08	 -481.58	   11.43
     90.2239	   59.00	   30.23	 -469.73	   11.44
     90.2573	   37.00	   27.07	 -488.57	   11.44
     90.2908	   33.00	   24.94	 -490.44	   11.45
     90.3242	   33.00	   23.41	 -488.91	   11.45
     90.3576	   29.00	   22.25	 -491.75	   11.46
     90.3910	   27.00	   21.34	 -492.84	   11.47
     90.4245	   25.00	   20.59	 -494.09	   11.47
     90.4579	   19.00	   19.98	 -499.48	   11.48
     90.4913	   33.00	   19.47	 -484.97	   11.48
     90.5247	   27.00	   19.04	 -490.54	   11.49
     90.5581	   27.00	   18.67	 -490.17	   11.50
     90.5916	   22.00	   18.36	 -494.86	   11.50
     90.6250	   19.00	   18.09	 -497.59	   11.51
     90.6584	   34.00	   17.85	 -482.35	   11.51
     90.6918	   17.00	   17.64	 -499.14	   11.52
     90.7253	   22.00	   17.46	 -493.96	   11.53
     90.7587	   28.00	   17.30	 -487.80	   11.53
     90.7921	   25.00	   17.15	 -490.65	   11.54
     90.8255	   18.00	   17.02	 -497.52	   11.54
     90.8589	   15.00	   16.91	 -500.41	   11.55
     90.8924	   15.00	   16.81	 -500.31	   11.56
     90.9258	   17.00	   16.71	 -498.21	   11.56
     90.9592	   14.00	   16.63	 -501.13	   11.57
     90.9926	   15.00	   16.55	 -500.05	   11.58
     91.0261	   15.00	   16.49	 -499.99	   11.58
     91.0595	   20.00	   16.42	 -494.92	   11.59
     91.0929	   10.00	   16.37	 -504.87	   11.60
     91.1263	   23.00	   16.31	 -491.81	   11.60
     91.1598	   20.00	   16.27	 -494.77	   11.61
     91.1932	    8.00	   16.22	 -506.72	   11.61
     91.2266	   15.00	   16.18	 -499.68	   11.62
     91.2600	   22.00	   16.15	 -492.65	   11.63
     91.2934	   15.00	   16.11	 -499.61	   11.63
     91.3269	   17.00	   16.08	 -497.58	   11.64
     91.3603	   14.00	   16.06	 -500.56	   11.65
     91.3937	   23.00	   16.03	 -491.53	   11.65
     91.4271	   23.00	   16.01	 -491.51	   11.66
     91.4605	   11.00	   15.99	 -503.49	   11.67
     91.4940	   15.00	   15.97	 -499.47	   11.67
     91.5274	   18.00	   15.95	 -496.45	   11.68
     91.5608	   15.00	   15.93	 -499.43	   11.69
     91.5942	   14.00	   15.92	 -500.42	   11.69
     91.6277	   22.00	   15.90	 -492.40	   11.70
     91.6611	   16.00	   15.89	 -498.39	   11.71
     91.6945	   21.00	   15.88	 -493.38	   11.71
     91.7279	   18.00	   15.87	 -496.37	   11.72
     91.7614	   21.00	   15.86	 -493.36	   11.73
     91.7948	   18.00	   15.86	 -496.36	   11.73
     91.8282	   14.00	   15.85	 -500.35	   11.74
     91.8616	   14.00	   15.84	 -500.34	   11.75
     91.8950	   20.00	   15.84	 -494.34	   11.75
     91.9285	   20.00	   15.83	 -494.33	   11.76
     91.9619	   12.00	   15.83	 -502.33	   11.77
     91.9953	   21.00	   15.81	 -493.31	   11.77
     92.0287	   17.00	   15.81	 -497.31	   11.78
     92.0622	   20.00	   15.81	 -494.31	   11.79
     92.0956	   12.00	   15.81	 -502.31	   11.79
     92.1290	   14.00	   15.81	 -500.31	   11.80
     92.1624	   25.00	   15.81	 -489.31	   11.81
     92.1958	   17.00	   15.81	 -497.31	   11.82
     92.2293	   18.00	   15.81	 -496.31	   11.82
     92.2627	   19.00	   15.81	 -495.31	   11.83
     92.2961	   16.00	   15.81	 -498.31	   11.84
     92.3295	   10.00	   15.81	 -504.31	   11.84
     92.3630	   28.00	   15.82	 -486.32	   11.85
     92.3964	   16.00	   15.82	 -498.32	   11.86
     92.4298	   22.00	   15.83	 -492.33	   11.87
     92.4632	   19.00	   15.83	 -495.33	   11.87
     92.4967	   21.00	   15.84	 -493.34	   11.88
     92.5301	   20.00	   15.84	 -494.34	   11.89
     92.5635	   18.00	   15.85	 -496.35	   11.89
     92.5969	   20.00	   15.86	 -494.36	   11.90
     92.6303	   16.00	   15.87	 -498.37	   11.91
     92.6638	   15.00	   15.87	 -499.37	   11.92
     92.6972	   11.00	   15.88	 -503.38	   11.92
     92.7306	   22.00	   15.89	 -492.39	   11.93
     92.7640	   20.00	   15.90	 -494.40	   11.94
     92.7975	   12.00	   15.91	 -502.41	   11.95
     92.8309	   12.00	   15.92	 -502.42	   11.95
     92.8643	   18.00	   15.94	 -496.44	   11.96
     92.8977	   20.00	   15.95	 -494.45	   11.97
     92.9311	   21.00	   15.96	 -493.46	   11.98
     92.9646	   12.00	   15.98	 -502.48	   11.98
     92.9980	   18.00	   15.99	 -496.49	   11.99
     93.0314	   11.00	   16.01	 -503.51	   12.00
     93.0648	   21.00	   16.02	 -493.52	   12.01
     93.0983	   20.00	   16.04	 -494.54	   12.01
     93.1317	   11.00	   16.06	 -503.56	   12.02
     93.1651	   23.00	   16.08	 -491.58	   12.03
     93.1985	   11.00	   16.10	 -503.60	   12.04
     93.2319	    9.00	   16.12	 -505.62	   12.04
     93.2654	   12.00	   16.15	 -502.65	   12.05
     93.2988	   23.00	   16.17	 -491.67	   12.06
     93.3322	   14.00	   16.20	 -500.70	   12.07
     93.3656	   11.00	   16.23	 -503.73	   12.07
     93.3991	   18.00	   16.26	 -496.76	   12.08
     93.4325	   18.00	   16.30	 -496.80	   12.09
     93.4659	   24.00	   16.33	 -490.83	   12.10
     93.4993	   19.00	   16.37	 -495.87	   12.11
     93.5327	   24.00	   16.41	 -490.91	   12.11
     93.5662	   10.00	   16.46	 -504.96	   12.12
     93.5996	   17.00	   16.51	 -498.01	   12.13
     93.6330	   16.00	   16.57	 -499.07	   12.14
     93.6664	   19.00	   16.63	 -496.13	   12.15
     93.6999	   15.00	   16.70	 -500.20	   12.15
     93.7333	   11.00	   16.77	 -504.27	   12.16
     93.7667	   30.00	   16.86	 -485.36	   12.17
     93.8001	   19.00	   16.95	 -496.45	   12.18
     93.8335	   28.00	   17.05	 -487.55	   12.19
     93.8670	   21.00	   17.17	 -494.67	   12.19
     93.9004	   21.00	   17.31	 -494.81	   12.20
     93.9338	   20.00	   17.47	 -495.97	   12.21
     93.9672	   18.00	   17.65	 -498.15	   12.22
     94.0007	   10.00	   17.86	 -506.36	   12.23
     94.0341	   15.00	   18.11	 -501.61	   12.23
     94.0675	   25.00	   18.41	 -491.91	   12.24
     94.1009	   22.00	   18.77	 -495.27	   12.25
     94.1344	   32.00	   19.22	 -485.72	   12.26
     94.1678	   31.00	   19.77	 -487.27	   12.27
     94.2012	   21.00	   20.48	 -497.98	   12.27
     94.2346	   21.00	   21.44	 -498.94	   12.28
     94.2680	   24.00	   22.82	 -497.32	   12.29
     94.3015	   36.00	   24.88	 -487.38	   12.30
     94.3349	   41.00	   28.08	 -485.58	   12.31
     94.3683	   48.00	   32.98	 -483.48	   12.32
     94.4017	   32.00	   40.15	 -506.65	   12.32
     94.4352	   73.00	   49.85	 -475.35	   12.33
     94.4686	  115.00	   61.45	 -444.95	   12.34
     94.5020	  153.00	   72.40	 -417.90	   12.35
     94.5354	  173.00	   77.83	 -403.33	   12.36
     94.5688	  127.00	   74.44	 -445.94	   12.37
     94.6023	  113.00	   65.13	 -450.63	   12.38
     94.6357	   68.00	   55.15	 -485.65	   12.38
     94.6691	   72.00	   47.65	 -474.15	   12.39
     94.7025	   63.00	   43.71	 -479.21	   12.40
     94.7360	   66.00	   43.29	 -475.79	   12.41
     94.7694	   90.00	   45.62	 -454.12	   12.42
     94.8028	   77.00	   48.98	 -470.48	   12.43
     94.8362	   91.00	   50.58	 -458.08	   12.44
     94.8697	  104.00	   48.20	 -442.70	   12.44
     94.9031	   62.00	   42.68	 -479.18	   12.45
     94.9365	   42.00	   36.47	 -492.97	   12.46
     94.9699	   48.00	   31.08	 -481.58	   12.47
     95.0033	   48.00	   26.97	 -477.47	   12.48
     95.0368	   39.00	   24.05	 -483.55	   12.49
     95.0702	   33.00	   22.12	 -487.62	   12.50
     95.1036	   25.00	   20.84	 -494.34	   12.51
     95.1370	   14.00	   19.98	 -504.48	   12.51
     95.1705	   22.00	   19.38	 -495.88	   12.52
     95.2039	   21.00	   18.92	 -496.42	   12.53
     95.2373	   21.00	   18.56	 -496.06	   12.54
     95.2707	   22.00	   18.28	 -494.78	   12.55
     95.3041	   20.00	   18.05	 -496.55	   12.56
     95.3376	   12.00	   17.83	 -504.33	   12.57
     95.3710	   17.00	   17.67	 -499.17	   12.58
     95.4044	   15.00	   17.53	 -501.03	   12.59
     95.4378	   14.00	   17.41	 -501.91	   12.59
     95.4713	   19.00	   17.31	 -496.81	   12.60
     95.5047	   14.00	   17.23	 -501.73	   12.61
     95.5381	   23.00	   17.15	 -492.65	   12.62
     95.5715	   21.00	   17.08	 -494.58	   12.63
     95.6049	   16.00	   17.03	 -499.53	   12.64
     95.6384	   16.00	   16.98	 -499.48	   12.65
     95.6718	   14.00	   16.93	 -501.43	   12.66
     95.7052	   12.00	   16.90	 -503.40	   12.67
     95.7386	   21.00	   16.86	 -494.36	   12.68
     95.7721	   18.00	   16.83	 -497.33	   12.69
     95.8055	   18.00	   16.80	 -497.30	   12.70
     95.8389	   17.00	   16.78	 -498.28	   12.70
     95.8723	   12.00	   16.76	 -503.26	   12.71
     95.9057	   14.00	   16.74	 -501.24	   12.72
     95.9392	   17.00	   16.73	 -498.23	   12.73
     95.9726	   15.00	   16.71	 -500.21	   12.74
     96.0060	   12.00	   16.70	 -503.20	   12.75
     96.0394	   15.00	   16.69	 -500.19	   12.76
     96.0729	   10.00	   16.68	 -505.18	   12.77
     96.1063	   18.00	   16.67	 -497.17	   12.78
     96.1397	   21.00	   16.67	 -494.17	   12.79
     96.1731	   12.00	   16.66	 -503.16	   12.80
     96.2066	   16.00	   16.66	 -499.16	   12.81
     96.2400	    9.00	   16.65	 -506.15	   12.82
     96.2734	   17.00	   16.65	 -498.15	   12.83
     96.3068	   16.00	   16.65	 -499.15	   12.84
     96.3402	   22.00	   16.65	 -493.15	   12.85
     96.3737	   10.00	   16.65	 -505.15	   12.86
     96.4071	   12.00	   16.65	 -503.15	   12.87
     96.4405	   21.00	   16.66	 -494.16	   12.88
     96.4739	   20.00	   16.66	 -495.16	   12.88
     96.5074	   14.00	   16.66	 -501.16	   12.89
     96.5408	   17.00	   16.66	 -498.16	   12.90
     96.5742	   10.00	   16.66	 -505.16	   12.91
     96.6076	   18.00	   16.67	 -497.17	   12.92
     96.6410	   15.00	   16.67	 -500.17	   12.93
     96.6745	   16.00	   16.68	 -499.18	   12.94
     96.7079	   12.00	   16.68	 -503.18	   12.95
     96.7413	    8.00	   16.69	 -507.19	   12.96
     96.7747	   16.00	   16.69	 -499.19	   12.97
     96.8082	   19.00	   16.70	 -496.20	   12.98
     96.8416	   20.00	   16.70	 -495.20	   12.99
     96.8750	   16.00	   16.71	 -499.21	   13.00
     96.9084	   12.00	   16.72	 -503.22	   13.01
     96.9418	   10.00	   16.72	 -505.22	   13.02
     96.9753	   23.00	   16.73	 -492.23	   13.03
     97.0087	   14.00	   16.74	 -501.24	   13.04
     97.0421	   20.00	   16.75	 -495.25	   13.05
     97.0755	   15.00	   16.76	 -500.26	   13.06
     97.1090	   22.00	   16.77	 -493.27	   13.07
     97.1424	   16.00	   16.78	 -499.28	   13.08
     97.1758	    6.00	   16.79	 -509.29	   13.09
     97.2092	   16.00	   16.81	 -499.31	   13.10
     97.2427	   18.00	   16.83	 -497.33	   13.11
     97.2761	   17.00	   16.86	 -498.36	   13.12
     97.3095	   15.00	   16.90	 -500.40	   13.13
     97.3429	   17.00	   16.94	 -498.44	   13.14
     97.3763	   18.00	   17.00	 -497.50	   13.15
     97.4098	   17.00	   17.05	 -498.55	   13.16
     97.4432	   11.00	   17.08	 -504.58	   13.17
     97.4766	   20.00	   17.08	 -495.58	   13.18
     97.5100	   11.00	   17.04	 -504.54	   13.19
     97.5434	   22.00	   17.01	 -493.51	   13.20
     97.5769	   22.00	   16.99	 -493.49	   13.21
     97.6103	   15.00	   16.98	 -500.48	   13.23
     97.6437	   11.00	   16.98	 -504.48	   13.24
     97.6771	   10.00	   17.00	 -505.50	   13.25
     97.7106	   15.00	   17.02	 -500.52	   13.26
     97.7440	   19.00	   17.04	 -496.54	   13.27
     97.7774	   22.00	   17.05	 -493.55	   13.28
     97.8108	   17.00	   17.04	 -498.54	   13.29
     97.8443	   23.00	   17.02	 -492.52	   13.30
     97.8777	   17.00	   17.01	 -498.51	   13.31
     97.9111	   15.00	   17.00	 -500.50	   13.32
     97.9445	   14.00	   16.99	 -501.49	   13.33
     97.9779	   16.00	   16.99	 -499.49	   13.34
     98.0114	   12.00	   17.00	 -503.50	   13.35
     98.0448	   14.00	   17.00	 -501.50	   13.36
     98.0782	   19.00	   17.01	 -496.51	   13.37
     98.1116	   14.00	   17.01	 -501.51	   13.38
     98.1451	   17.00	   17.02	 -498.52	   13.39
     98.1785	   18.00	   17.03	 -497.53	   13.40
     98.2119	   19.00	   17.04	 -496.54	   13.42
     98.2453	   19.00	   17.05	 -496.55	   13.43
     98.2787	   19.00	   17.06	 -496.56	   13.44
     98.3122	   17.00	   17.07	 -498.57	   13.45
     98.3456	   11.00	   17.08	 -504.58	   13.46
     98.3790	   20.00	   17.09	 -495.59	   13.47
     98.4124	   16.00	   17.10	 -499.60	   13.48
     98.4459	   16.00	   17.11	 -499.61	   13.49
     98.4793	   17.00	   17.12	 -498.62	   13.50
     98.5127	   21.00	   17.13	 -494.63	   13.51
     98.5461	   16.00	   17.14	 -499.64	   13.52
     98.5796	   17.00	   17.15	 -498.65	   13.53
     98.6130	   11.00	   17.16	 -504.66	   13.55
     98.6464	   11.00	   17.17	 -504.67	   13.56
     98.6798	   18.00	   17.18	 -497.68	   13.57
     98.7132	   14.00	   17.19	 -501.69	   13.58
     98.7467	   16.00	   17.20	 -499.70	   13.59
     98.7801	   14.00	   17.21	 -501.71	   13.60
     98.8135	   16.00	   17.22	 -499.72	   13.61
     98.8469	   10.00	   17.23	 -505.73	   13.62
     98.8804	   11.00	   17.24	 -504.74	   13.63
     98.9138	   18.00	   17.25	 -497.75	   13.65
     98.9472	   11.00	   17.26	 -504.76	   13.66
     98.9806	    8.00	   17.27	 -507.77	   13.67
     99.0140	   16.00	   17.29	 -499.79	   13.68
     99.0475	    9.00	   17.30	 -506.80	   13.69
     99.0809	   16.00	   17.33	 -499.83	   13.70
     99.1143	   20.00	   17.34	 -495.84	   13.71
     99.1477	   17.00	   17.36	 -498.86	   13.72
     99.1812	   22.00	   17.37	 -493.87	   13.74
     99.2146	   16.00	   17.38	 -499.88	   13.75
     99.2480	   12.00	   17.39	 -503.89	   13.76
     99.2814	   18.00	   17.40	 -497.90	   13.77
     99.3148	   17.00	   17.41	 -498.91	   13.78
     99.3483	    8.00	   17.43	 -507.93	   13.79
     99.3817	   14.00	   17.44	 -501.94	   13.80
     99.4151	   14.00	   17.45	 -501.95	   13.82
     99.4485	   17.00	   17.48	 -498.98	   13.83
     99.4820	   15.00	   17.49	 -500.99	   13.84
     99.5154	   14.00	   17.50	 -502.00	   13.85
     99.5488	   14.00	   17.51	 -502.01	   13.86
     99.5822	   12.00	   17.52	 -504.02	   13.87
     99.6156	   10.00	   17.54	 -506.04	   13.88
     99.6491	   18.00	   17.55	 -498.05	   13.90
     99.6825	   14.00	   17.56	 -502.06	   13.91
     99.7159	   17.00	   17.58	 -499.08	   13.92
     99.7493	   22.00	   17.59	 -494.09	   13.93
     99.7828	   23.00	   17.60	 -493.10	   13.94
     99.8162	   15.00	   17.61	 -501.11	   13.95
     99.8496	   23.00	   17.63	 -493.13	   13.97
     99.8830	   18.00	   17.64	 -498.14	   13.98
     99.9165	   19.00	   17.65	 -497.15	   13.99
     99.9499	   18.00	   17.67	 -498.17	   14.00
     99.9833	   15.00	   17.68	 -501.18	   14.01
     18.4214	        	        	        	        	       0	(  1  1  1)	  0  1 :  1
     18.4668	        	        	        	        	       0	(  1  1  1)	  0  2 :  1
     30.2123	        	        	        	        	       0	(  2  0  2)	  0  1 :  1
     30.2881	        	        	        	        	       0	(  2  0  2)	  0  2 :  1
     35.5609	        	        	        	        	       0	(  1  1  3)	  0  1 :  1
     35.6510	        	        	        	        	       0	(  1  1  3)	  0  2 :  1
     37.1918	        	        	        	        	       0	(  2  2  2)	  0  1 :  1
     37.2863	        	        	        	        	       0	(  2  2  2)	  0  2 :  1
     43.1872	        	        	        	        	       0	(  0  4  0)	  0  1 :  1
     43.2984	        	        	        	        	       0	(  0  4  0)	  0  2 :  1
     47.2714	        	        	        	        	       0	(  3  3  1)	  0  1 :  1
     47.3944	        	        	        	        	       0	(  3  3  1)	  0  2 :  1
     53.5416	        	        	        	        	       0	(  2  4  2)	  0  1 :  1
     53.6834	        	        	        	        	       0	(  2  4  2)	  0  2 :  1
     57.0652	        	        	        	        	       0	(  3  3  3)	  0  1 :  1
     57.0652	        	        	        	        	       0	(  1  5  1)	  0  1 :  1
     57.2180	        	        	        	        	       0	(  3  3  3)	  0  2 :  1
     57.2180	        	        	        	        	       0	(  1  5  1)	  0  2 :  1
     62.6482	        	        	        	        	       0	(  4  4  0)	  0  1 :  1
     62.8193	        	        	        	        	       0	(  4  4  0)	  0  2 :  1
     65.8625	        	        	        	        	       0	(  3  5  1)	  0  1 :  1
     66.0447	        	        	        	        	       0	(  3  5  1)	  0  2 :  1
     66.9155	        	        	        	        	       0	(  2  4  4)	  0  1 :  1
     67.1014	        	        	        	        	       0	(  2  4  4)	  0  2 :  1
     71.0503	        	        	        	        	       0	(  2  0  6)	  0  1 :  1
     71.2512	        	        	        	        	       0	(  2  0  6)	  0  2 :  1
     74.0836	        	        	        	        	       0	(  5  3  3)	  0  1 :  1
     74.2959	        	        	        	        	       0	(  5  3  3)	  0  2 :  1
     75.0841	        	        	        	        	       0	(  2  2  6)	  0  1 :  1
     75.3003	        	        	        	        	       0	(  2  2  6)	  0  2 :  1
     79.0427	        	        	        	        	       0	(  4  4  4)	  0  1 :  1
     79.2748	        	        	        	        	       0	(  4  4  4)	  0  2 :  1
     81.9757	        	        	        	        	       0	(  5  5  1)	  0  1 :  1
     81.9757	        	        	        	        	       0	(  1  7  1)	  0  1 :  1
     82.2203	        	        	        	        	       0	(  5  5  1)	  0  2 :  1
     82.2203	        	        	        	        	       0	(  1  7  1)	  0  2 :  1
     86.8205	        	        	        	        	       0	(  6  2  4)	  0  1 :  1
     87.0868	        	        	        	        	       0	(  6  2  4)	  0  2 :  1
     89.7138	        	        	        	        	       0	(  5  5  3)	  0  1 :  1
     89.7138	        	        	        	        	       0	(  1  7  3)	  0  1 :  1
     89.9940	        	        	        	        	       0	(  5  5  3)	  0  2 :  1
     89.9940	        	        	        	        	       0	(  1  7  3)	  0  2 :  1
     94.5374	        	        	        	        	       0	(  0  0  8)	  0  1 :  1
     94.8422	        	        	        	        	       0	(  0  0  8)	  0  2 :  1
     97.4445	        	        	        	        	       0	(  7  3  3)	  0  1 :  1
     97.7653	        	        	        	        	       0	(  7  3  3)	  0  2 :  1
     98.4174	        	        	        	        	       0	(  6  4  4)	  0  1 :  1
     98.7438	        	        	        	        	       0	(  6  4  4)	  0  2 :  1
    102.3362	        	        	        	        	       0	(  2  8  2)	  0  1 :  1
    102.3362	        	        	        	        	       0	(  6  6  0)	  0  1 :  1
    102.6862	        	        	        	        	       0	(  2  8  2)	  0  2 :  1
    102.6862	        	        	        	        	       0	(  6  6  0)	  0  2 :  1
    105.3130	        	        	        	        	       0	(  7  5  1)	  0  1 :  1
    105.3130	        	        	        	        	       0	(  5  5  5)	  0  1 :  1
    105.6823	        	        	        	        	       0	(  7  5  1)	  0  2 :  1
    105.6823	        	        	        	        	       0	(  5  5  5)	  0  2 :  1
    106.3142	        	        	        	        	       0	(  2  6  6)	  0  1 :  1
    106.6904	        	        	        	        	       0	(  2  6  6)	  0  2 :  1
    110.3745	        	        	        	        	       0	(  0  8  4)	  0  1 :  1
    110.7799	        	        	        	        	       0	(  0  8  4)	  0  2 :  1
